TIME, ED_COUNTER, AF3, F7, F3, FC5, T7, P7, O1, O2, P8, T8, FC6, F4, F8, AF4, LABEL
11_55_49,31,4078.46,4081.03,4102.56,4093.33,4100.51,4100.51,4111.79,4126.15,4098.46,4088.72,4138.46,4156.41,4157.95,4151.79,0
11_55_49,32,4076.41,4065.64,4103.08,4088.72,4094.36,4103.59,4109.74,4123.59,4097.44,4085.13,4149.74,4154.87,4194.36,4159.49,0
11_55_49,33,4074.36,4053.33,4103.59,4084.62,4099.49,4108.72,4108.21,4122.56,4107.69,4094.87,4160,4163.59,4228.72,4171.79,0
11_55_49,34,4063.08,4044.1,4101.03,4078.97,4092.31,4103.08,4108.21,4128.21,4110.77,4101.03,4161.03,4168.21,4247.18,4169.74,0
11_55_49,35,4054.87,4040.51,4096.92,4072.82,4088.72,4092.82,4104.1,4124.1,4101.54,4090.26,4149.74,4155.9,4254.87,4154.87,0
11_55_49,36,4058.97,4043.08,4095.9,4074.36,4088.21,4090.26,4102.56,4119.49,4101.54,4088.21,4143.08,4150.26,4264.1,4150.77,0
11_55_49,37,4061.03,4042.56,4093.85,4077.95,4075.38,4092.31,4098.97,4124.1,4110.26,4101.03,4150.26,4155.9,4267.18,4156.92,0
11_55_49,38,4051.28,4033.33,4090.77,4070.77,4073.85,4089.74,4090.26,4120.51,4098.46,4099.49,4148.72,4151.28,4256.92,4150.77,0
11_55_49,39,4042.56,4024.1,4090.77,4065.64,4091.79,4089.23,4092.31,4116.92,4082.56,4087.69,4135.38,4145.64,4252.31,4136.92,0
11_55_49,40,4047.69,4029.23,4094.36,4072.31,4097.44,4091.79,4105.13,4132.31,4098.97,4091.79,4143.08,4154.36,4262.56,4142.56,0
11_55_49,41,4059.49,4041.54,4096.92,4078.46,4090.26,4097.44,4107.69,4140,4113.33,4107.18,4156.41,4160.51,4264.62,4155.9,0
11_55_49,42,4059.49,4040.51,4095.38,4075.38,4089.23,4104.62,4103.08,4124.62,4093.85,4103.59,4145.13,4156.92,4253.33,4149.23,0
11_55_49,43,4052.31,4033.33,4095.38,4073.33,4099.49,4106.67,4107.69,4121.03,4086.15,4089.74,4131.79,4152.31,4242.56,4135.38,0
11_55_49,44,4055.38,4035.9,4096.41,4076.41,4106.15,4105.64,4110.77,4139.49,4105.64,4095.38,4135.9,4152.31,4236.41,4137.44,0
11_55_49,45,4061.03,4037.95,4097.44,4077.95,4092.82,4106.67,4107.69,4145.13,4113.33,4106.15,4138.97,4151.79,4232.82,4141.54,0
11_55_49,46,4059.49,4035.38,4095.9,4075.38,4083.08,4106.67,4107.18,4134.36,4106.67,4109.23,4138.46,4151.28,4234.36,4138.97,0
11_55_49,47,4063.59,4038.97,4095.9,4078.46,4091.28,4101.54,4110.26,4140.51,4105.13,4108.72,4142.05,4154.87,4235.38,4142.05,0
11_55_49,48,4068.72,4045.64,4099.49,4083.59,4094.87,4096.92,4108.72,4156.92,4107.18,4106.15,4142.05,4156.92,4233.85,4143.59,0
11_55_49,49,4066.15,4044.62,4102.05,4082.05,4092.31,4097.44,4107.18,4158.97,4106.15,4096.92,4137.44,4153.85,4232.31,4138.46,0
11_55_49,50,4063.59,4040,4099.49,4078.46,4093.85,4098.97,4106.67,4156.41,4106.67,4087.18,4137.95,4152.82,4225.64,4137.44,0
11_55_50,51,4065.13,4037.44,4096.92,4077.44,4094.87,4095.38,4097.95,4156.41,4110.26,4090.26,4139.49,4154.87,4218.46,4138.97,0
11_55_50,52,4065.13,4035.38,4097.44,4075.38,4087.69,4090.26,4088.21,4153.33,4106.15,4094.87,4131.79,4147.18,4213.33,4133.33,0
11_55_50,53,4061.54,4036.41,4096.41,4075.9,4080.51,4090.77,4089.23,4150.26,4098.97,4096.41,4130.77,4139.49,4205.13,4128.21,0
11_55_50,54,4060.51,4039.49,4093.85,4077.44,4086.67,4091.79,4095.38,4150.26,4100.51,4102.56,4134.36,4145.13,4205.13,4132.82,0
11_55_50,55,4065.64,4046.15,4094.36,4078.46,4101.54,4090.26,4096.92,4151.79,4103.08,4099.49,4130.26,4152.31,4213.33,4137.95,0
11_55_50,56,4074.36,4050.77,4099.49,4083.08,4100.51,4092.31,4099.49,4154.87,4105.64,4093.33,4130.77,4152.82,4217.44,4137.95,0
11_55_50,57,4078.97,4049.23,4100.51,4087.69,4093.33,4096.41,4105.64,4161.03,4112.31,4102.05,4142.05,4155.38,4214.87,4141.03,0
11_55_50,58,4076.92,4046.67,4097.95,4083.59,4091.79,4094.87,4105.64,4158.97,4109.74,4108.21,4141.03,4153.85,4208.21,4142.56,0
11_55_50,59,4065.64,4039.49,4091.79,4071.79,4082.05,4086.15,4098.46,4148.21,4100.51,4094.87,4126.15,4144.1,4192.82,4131.28,0
11_55_50,60,4058.46,4034.36,4090.77,4068.21,4080,4081.03,4092.82,4145.64,4097.95,4076.92,4120.51,4137.44,4181.03,4126.67,0
11_55_50,61,4066.15,4040.51,4094.87,4074.36,4087.69,4082.56,4091.28,4151.28,4107.18,4078.46,4125.64,4140,4182.56,4133.33,0
11_55_50,62,4067.69,4046.15,4094.87,4075.9,4082.56,4081.03,4089.23,4145.13,4107.69,4093.33,4121.03,4139.49,4176.92,4128.21,0
11_55_50,63,4059.49,4043.08,4090.77,4073.33,4081.54,4079.49,4089.23,4134.36,4091.79,4092.82,4108.72,4130.77,4162.05,4118.46,0
11_55_50,64,4062.56,4042.05,4092.31,4075.38,4089.74,4085.13,4092.82,4135.9,4081.54,4076.92,4109.23,4126.67,4157.44,4118.97,0
11_55_50,65,4071.28,4046.15,4096.92,4075.9,4087.18,4092.82,4094.87,4137.95,4089.23,4070.77,4118.97,4135.9,4160.51,4125.13,0
11_55_50,66,4070.26,4048.21,4097.95,4069.74,4085.64,4093.33,4095.38,4146.15,4101.03,4078.46,4122.56,4142.56,4163.59,4126.67,0
11_55_50,67,4067.18,4046.15,4094.36,4069.74,4090.26,4088.21,4093.85,4156.92,4104.1,4083.59,4121.03,4135.9,4165.64,4124.62,0
11_55_50,68,4066.15,4047.18,4091.79,4074.36,4084.1,4085.64,4088.72,4144.1,4103.08,4095.9,4121.03,4131.79,4167.69,4120.51,0
11_55_50,69,4069.23,4054.87,4094.87,4076.92,4081.54,4088.21,4088.72,4131.79,4104.62,4107.18,4130.77,4137.95,4171.79,4125.13,0
11_55_50,70,4073.85,4061.54,4097.44,4077.95,4091.79,4094.87,4093.33,4136.41,4108.72,4095.38,4141.03,4141.54,4174.87,4130.26,0
11_55_50,71,4073.85,4061.03,4093.85,4078.46,4095.38,4096.92,4093.33,4133.33,4103.59,4081.03,4133.85,4140,4171.28,4123.08,0
11_55_50,72,4072.31,4060.51,4093.33,4077.44,4094.36,4094.36,4092.31,4128.21,4095.38,4084.1,4125.13,4139.49,4168.21,4121.54,0
11_55_50,73,4069.74,4058.97,4093.85,4075.9,4095.9,4097.95,4096.41,4135.38,4100,4088.21,4126.15,4138.97,4165.64,4126.15,0
11_55_50,74,4069.74,4055.38,4091.79,4074.36,4093.33,4100,4096.41,4140.51,4107.69,4085.64,4125.13,4139.49,4157.95,4127.18,0
11_55_50,75,4072.82,4056.92,4091.79,4074.36,4092.31,4094.36,4091.28,4140,4111.79,4088.21,4120.51,4136.92,4152.31,4122.05,0
11_55_50,76,4069.23,4058.97,4092.31,4075.38,4094.87,4097.95,4092.82,4141.03,4108.72,4097.95,4120.51,4128.21,4153.85,4116.92,0
11_55_50,77,4061.03,4058.97,4091.79,4074.87,4090.77,4108.21,4096.92,4140.51,4102.05,4104.1,4121.03,4122.05,4153.85,4116.41,0
11_55_50,78,4062.05,4062.05,4089.74,4075.38,4092.31,4102.05,4093.85,4139.49,4097.95,4095.9,4121.54,4124.62,4149.23,4114.36,0
11_55_50,79,4068.72,4062.05,4090.26,4076.41,4101.54,4092.82,4091.28,4137.44,4098.46,4079.49,4121.54,4130.26,4148.21,4112.31,0
11_55_50,80,4072.31,4065.13,4094.87,4078.97,4103.59,4102.05,4095.38,4137.95,4103.59,4090.26,4122.56,4136.92,4151.28,4118.97,0
11_55_50,81,4076.92,4073.33,4098.97,4081.54,4097.95,4110.26,4101.03,4140.51,4106.15,4107.69,4125.13,4140,4148.72,4126.67,0
11_55_50,82,4073.85,4064.62,4095.38,4077.95,4095.9,4106.67,4104.1,4137.44,4102.05,4086.15,4119.49,4136.41,4135.38,4117.95,0
11_55_50,83,4070.26,4054.36,4096.41,4077.44,4100,4107.69,4107.69,4142.56,4103.59,4066.67,4109.23,4135.9,4127.69,4112.82,0
11_55_50,84,4078.46,4068.21,4099.49,4085.64,4103.08,4107.18,4105.64,4152.31,4109.23,4080.51,4109.74,4141.54,4130.26,4121.54,0
11_55_50,85,4088.21,4085.13,4096.41,4091.79,4096.92,4094.36,4093.85,4136.92,4096.92,4084.1,4108.21,4135.9,4120,4126.67,0
11_55_50,86,4088.72,4087.69,4094.87,4087.69,4091.79,4087.69,4087.18,4116.41,4084.62,4067.69,4096.92,4124.62,4101.54,4122.05,0
11_55_50,87,4084.62,4090.26,4097.95,4084.62,4097.95,4090.26,4089.74,4117.44,4083.08,4056.92,4092.82,4121.03,4091.79,4112.82,0
11_55_50,88,4078.97,4091.28,4094.87,4081.54,4094.36,4090.26,4090.77,4121.03,4082.05,4055.38,4094.87,4118.46,4091.28,4106.67,0
11_55_50,89,4080,4085.64,4093.33,4078.46,4081.54,4093.85,4092.82,4121.03,4093.85,4067.18,4094.87,4115.9,4091.79,4109.23,0
11_55_50,90,4087.18,4088.21,4098.46,4085.64,4095.9,4105.13,4101.54,4125.64,4106.15,4075.9,4090.26,4120,4085.64,4112.31,0
11_55_50,91,4088.21,4091.79,4097.44,4091.28,4110.26,4109.74,4108.21,4132.82,4096.92,4065.64,4089.23,4125.13,4075.9,4113.33,0
11_55_50,92,4085.64,4089.23,4095.38,4089.23,4097.44,4105.64,4105.13,4142.56,4089.23,4062.05,4095.9,4123.08,4071.79,4115.9,0
11_55_50,93,4091.28,4091.28,4099.49,4088.72,4096.41,4106.15,4099.49,4141.54,4097.44,4068.72,4097.44,4120.51,4071.79,4114.36,0
11_55_50,94,4091.28,4092.82,4100,4089.74,4109.23,4107.69,4101.03,4127.69,4098.97,4064.1,4089.23,4120,4065.64,4107.69,0
11_55_50,95,4082.05,4089.74,4096.92,4088.21,4104.1,4106.67,4104.62,4119.49,4090.77,4051.79,4085.13,4117.95,4063.08,4107.18,0
11_55_50,96,4085.64,4090.26,4102.05,4090.26,4099.49,4107.69,4106.15,4126.15,4090.26,4052.82,4094.87,4119.49,4070.77,4110.77,0
11_55_50,97,4094.87,4098.46,4102.56,4093.85,4106.67,4108.21,4106.15,4136.41,4092.82,4070.26,4107.18,4124.1,4078.46,4110.77,0
11_55_50,98,4087.69,4099.49,4095.38,4089.74,4098.97,4106.67,4098.97,4134.36,4094.87,4082.56,4108.21,4120.51,4080,4107.18,0
11_55_50,99,4076.92,4088.72,4090.26,4084.1,4092.82,4105.64,4092.82,4116.41,4092.31,4069.74,4094.87,4105.64,4074.36,4098.97,0
11_55_50,100,4074.36,4082.56,4090.77,4077.95,4098.97,4102.56,4095.9,4109.23,4082.56,4050.26,4082.05,4095.9,4064.62,4087.69,0
11_55_50,101,4076.41,4088.21,4092.31,4077.95,4092.82,4096.41,4098.46,4130.77,4087.69,4053.33,4086.67,4103.08,4060.51,4091.28,0
11_55_50,102,4083.59,4092.82,4095.9,4088.72,4089.23,4097.95,4098.97,4140.51,4101.03,4068.21,4094.87,4109.74,4063.08,4103.59,0
11_55_50,103,4089.74,4091.79,4098.97,4094.36,4103.59,4103.08,4100.51,4121.54,4094.36,4071.28,4090.77,4109.74,4062.05,4103.08,0
11_55_50,104,4082.05,4090.77,4096.92,4087.18,4102.05,4098.46,4096.41,4111.79,4080,4050.77,4080.51,4107.18,4052.31,4093.33,0
11_55_50,105,4070.77,4088.21,4093.85,4081.03,4087.18,4088.72,4090.26,4120.51,4086.67,4040,4077.44,4104.1,4041.03,4090.26,0
11_55_50,106,4078.46,4089.23,4095.9,4085.64,4092.82,4087.69,4091.28,4124.1,4094.36,4054.36,4083.59,4110.77,4043.59,4097.95,0
11_55_50,107,4090.77,4094.87,4100,4095.38,4101.54,4097.44,4097.44,4127.69,4090.26,4062.05,4091.28,4122.56,4057.44,4105.64,0
11_55_50,108,4084.1,4092.31,4098.97,4093.85,4094.36,4108.21,4104.1,4140.51,4102.05,4072.31,4096.92,4118.97,4065.64,4105.13,0
11_55_50,109,4073.33,4084.1,4091.28,4081.03,4090.77,4109.23,4105.64,4140,4112.31,4089.23,4097.95,4108.72,4066.15,4098.97,0
11_55_50,110,4081.54,4085.64,4093.33,4079.49,4091.28,4104.1,4103.59,4134.36,4105.13,4082.56,4102.56,4115.9,4072.82,4105.64,0
11_55_50,111,4098.46,4098.97,4104.1,4089.74,4095.9,4104.62,4106.67,4144.1,4106.15,4075.9,4113.85,4128.72,4083.08,4121.03,0
11_55_50,112,4101.03,4106.67,4105.64,4098.46,4108.21,4112.31,4109.23,4149.74,4116.41,4092.31,4114.87,4127.69,4082.05,4124.62,0
11_55_50,113,4100.51,4107.18,4101.03,4104.1,4112.31,4115.9,4109.74,4143.08,4114.36,4094.36,4107.18,4124.1,4075.38,4120,0
11_55_50,114,4104.62,4106.67,4102.05,4103.08,4107.18,4109.23,4107.69,4143.59,4104.62,4073.33,4107.69,4124.1,4067.69,4120.51,0
11_55_50,115,4101.54,4104.62,4104.62,4094.36,4106.67,4102.56,4102.05,4147.69,4103.08,4072.31,4108.21,4123.59,4057.95,4118.97,0
11_55_50,116,4096.92,4106.67,4101.54,4091.79,4102.56,4103.59,4098.46,4144.62,4109.23,4094.36,4102.05,4125.13,4059.49,4113.85,0
11_55_50,117,4093.33,4101.03,4097.95,4093.85,4089.23,4104.1,4096.41,4138.97,4110.26,4096.41,4095.38,4122.05,4058.97,4107.18,0
11_55_50,118,4085.13,4086.15,4094.36,4086.15,4085.64,4099.49,4093.33,4131.79,4099.49,4080,4092.31,4110.77,4047.18,4096.41,0
11_55_50,119,4082.05,4080,4094.87,4081.54,4092.82,4096.41,4093.85,4123.08,4097.44,4086.15,4094.36,4109.23,4053.33,4094.87,0
11_55_50,120,4095.9,4090.26,4100.51,4087.18,4098.46,4098.46,4098.97,4124.1,4104.1,4092.31,4105.13,4120,4073.33,4114.87,0
11_55_50,121,4109.23,4101.54,4104.62,4096.92,4097.44,4103.59,4098.97,4129.23,4101.54,4071.79,4117.95,4126.15,4079.49,4131.28,0
11_55_50,122,4110.77,4106.67,4102.05,4104.1,4096.41,4106.15,4096.41,4128.21,4097.95,4069.74,4114.36,4123.59,4080,4126.67,0
11_55_50,123,4110.26,4111.79,4100.51,4109.23,4098.46,4106.67,4101.03,4122.05,4095.9,4085.13,4098.97,4119.49,4083.08,4120.51,0
11_55_50,124,4108.21,4108.72,4101.54,4105.64,4098.97,4106.15,4102.05,4120,4090.26,4076.92,4093.85,4119.49,4088.72,4123.59,0
11_55_50,125,4101.03,4097.44,4098.97,4096.92,4095.9,4106.67,4094.87,4121.54,4088.21,4072.82,4097.44,4121.54,4107.69,4121.54,0
11_55_50,126,4091.79,4089.23,4094.36,4093.33,4093.85,4104.62,4089.23,4119.49,4093.33,4081.54,4089.74,4115.38,4126.15,4110.77,0
11_55_50,127,4086.15,4087.18,4090.77,4090.26,4097.95,4097.95,4089.74,4115.38,4097.95,4067.18,4078.97,4104.1,4126.67,4101.03,0
11_55_50,128,4089.23,4089.74,4091.79,4090.77,4107.18,4098.46,4095.9,4114.87,4096.41,4058.46,4085.64,4108.72,4131.28,4099.49,0
11_55_50,0,4099.49,4093.33,4096.41,4096.41,4110.77,4108.72,4106.15,4122.56,4092.82,4082.05,4093.33,4121.03,4146.67,4106.15,0
11_55_50,1,4105.64,4094.87,4099.49,4098.46,4105.64,4111.28,4108.72,4131.28,4097.44,4095.9,4096.41,4123.59,4156.92,4114.87,0
11_55_50,2,4105.13,4095.38,4096.92,4099.49,4102.56,4105.13,4102.05,4127.69,4103.59,4091.79,4100.51,4123.08,4156.92,4118.97,0
11_55_50,3,4107.18,4097.44,4097.44,4105.13,4109.74,4107.69,4104.62,4120.51,4103.59,4096.92,4106.67,4125.13,4155.9,4118.97,0
11_55_50,4,4108.21,4100.51,4097.95,4109.74,4113.85,4113.33,4106.15,4124.62,4104.62,4105.13,4109.23,4125.64,4161.54,4118.46,0
11_55_50,5,4102.56,4094.87,4092.82,4103.08,4096.92,4108.21,4097.95,4121.03,4095.9,4082.05,4101.54,4121.54,4153.85,4110.77,0
11_55_50,6,4098.46,4088.72,4092.31,4098.46,4088.72,4105.13,4093.85,4107.18,4083.59,4061.03,4090.26,4118.46,4136.92,4103.59,0
11_55_50,7,4105.64,4095.38,4098.97,4103.59,4111.79,4109.74,4100,4109.74,4095.9,4083.59,4095.38,4126.67,4137.95,4110.77,0
11_55_50,8,4112.31,4103.08,4101.03,4109.23,4120.51,4116.92,4103.08,4125.13,4112.82,4108.21,4111.28,4138.97,4150.26,4122.56,0
11_55_50,9,4111.79,4103.59,4100.51,4108.72,4106.15,4120,4100,4129.74,4105.13,4105.13,4110.26,4140,4151.79,4122.56,0
11_55_50,10,4110.26,4101.03,4100,4107.18,4103.59,4115.38,4098.46,4128.72,4095.38,4094.36,4101.03,4135.38,4146.15,4121.03,0
11_55_50,11,4113.33,4101.54,4100,4108.21,4101.03,4106.15,4097.95,4126.67,4101.54,4090.26,4104.62,4137.95,4146.67,4123.08,0
11_55_50,12,4111.79,4102.56,4100,4108.21,4091.28,4105.13,4096.92,4120.51,4105.13,4096.92,4108.72,4140,4148.21,4123.08,0
11_55_50,13,4107.69,4100,4100,4107.69,4101.03,4110.26,4096.92,4120.51,4102.05,4105.64,4105.64,4135.38,4143.08,4122.56,0
11_55_50,14,4108.21,4096.41,4097.44,4105.64,4113.85,4108.72,4098.97,4126.67,4106.15,4107.69,4108.21,4135.38,4136.92,4123.08,0
11_55_50,15,4111.79,4096.41,4099.49,4106.15,4105.64,4106.67,4097.44,4125.64,4109.23,4108.21,4112.82,4138.46,4143.08,4123.59,0
11_55_50,16,4109.23,4093.33,4102.56,4105.64,4097.44,4109.74,4094.36,4125.13,4106.67,4100.51,4104.62,4132.31,4149.74,4119.49,0
11_55_50,17,4105.64,4084.1,4097.44,4097.44,4096.41,4109.23,4095.38,4129.23,4105.64,4087.18,4095.9,4123.08,4141.54,4114.36,0
11_55_50,18,4108.21,4087.18,4096.92,4092.82,4096.41,4108.21,4095.9,4129.23,4105.64,4096.92,4098.46,4123.08,4136.41,4115.9,0
11_55_50,19,4110.26,4090.26,4100,4094.87,4096.41,4107.18,4092.31,4120,4103.08,4108.72,4096.92,4125.64,4129.23,4115.38,0
11_55_50,20,4107.18,4083.59,4099.49,4096.92,4090.77,4105.13,4093.85,4117.44,4104.62,4102.05,4089.23,4123.59,4118.97,4107.18,0
11_55_50,21,4107.18,4085.13,4099.49,4101.54,4091.79,4113.85,4103.08,4130.77,4107.18,4096.41,4090.77,4125.64,4121.54,4106.67,0
11_55_50,22,4112.82,4093.85,4102.05,4106.15,4104.62,4124.1,4107.18,4138.97,4109.74,4093.85,4093.33,4132.82,4118.97,4114.87,0
11_55_50,23,4113.33,4095.38,4100.51,4108.72,4112.31,4121.03,4106.15,4141.54,4114.36,4093.85,4093.33,4136.92,4107.69,4115.9,0
11_55_50,24,4110.26,4092.31,4101.03,4107.18,4108.21,4116.41,4108.72,4142.56,4114.36,4104.1,4102.05,4136.41,4116.41,4116.92,0
11_55_50,25,4108.21,4089.23,4102.56,4100,4103.59,4119.49,4108.72,4141.54,4108.21,4111.28,4110.77,4136.92,4125.64,4118.46,0
11_55_50,26,4108.72,4088.21,4101.03,4095.9,4105.13,4113.33,4105.13,4137.44,4103.59,4107.18,4105.13,4137.44,4108.72,4113.33,0
11_55_50,27,4111.28,4096.41,4102.05,4105.13,4106.15,4106.15,4104.1,4132.82,4106.15,4098.46,4103.08,4134.36,4103.59,4113.85,0
11_55_50,28,4110.77,4101.54,4101.54,4109.74,4102.56,4110.26,4103.08,4132.82,4112.82,4094.36,4108.21,4130.26,4115.38,4116.92,0
11_55_50,29,4106.15,4094.36,4097.44,4097.44,4095.38,4108.72,4097.44,4139.49,4112.82,4099.49,4101.54,4126.67,4111.28,4107.18,0
11_55_50,30,4105.13,4089.23,4097.95,4089.23,4092.82,4104.1,4095.9,4137.95,4106.15,4102.56,4093.85,4122.05,4104.1,4098.46,0
11_55_50,31,4106.67,4093.85,4100.51,4097.95,4100.51,4108.72,4101.54,4127.69,4108.21,4098.97,4103.08,4122.56,4115.9,4109.74,0
11_55_50,32,4108.21,4102.05,4099.49,4103.08,4109.74,4111.28,4102.05,4133.33,4117.44,4110.77,4113.33,4126.67,4126.67,4116.41,0
11_55_50,33,4106.67,4098.46,4096.41,4093.85,4108.21,4104.1,4096.41,4135.9,4114.87,4115.9,4106.67,4122.56,4118.97,4107.18,0
11_55_50,34,4102.05,4088.72,4093.33,4086.15,4101.03,4103.08,4094.87,4120,4104.1,4094.87,4095.38,4116.41,4108.21,4103.08,0
11_55_50,35,4097.95,4088.72,4091.79,4090.26,4102.56,4108.21,4096.41,4122.05,4106.67,4083.08,4092.82,4120,4105.64,4104.1,0
11_55_50,36,4094.87,4094.36,4093.85,4094.36,4101.54,4103.59,4094.36,4127.69,4107.69,4094.87,4096.92,4120.51,4102.56,4098.46,0
11_55_50,37,4091.28,4092.31,4092.82,4089.74,4092.82,4097.44,4087.18,4108.72,4092.82,4095.9,4093.85,4110.77,4093.33,4094.36,0
11_55_50,38,4088.21,4083.59,4088.72,4084.1,4088.21,4095.38,4082.05,4098.46,4090.26,4081.03,4076.41,4105.13,4083.59,4093.85,0
11_55_50,39,4088.72,4083.08,4090.77,4084.62,4092.82,4094.87,4085.13,4107.18,4100.51,4076.92,4071.79,4105.64,4081.54,4089.23,0
11_55_50,40,4091.28,4091.28,4092.31,4087.18,4101.03,4098.46,4091.28,4110.26,4096.92,4083.59,4087.69,4106.67,4086.15,4091.28,0
11_55_50,41,4089.74,4091.28,4089.74,4082.05,4101.03,4099.49,4090.77,4111.79,4091.79,4088.21,4090.26,4108.72,4084.1,4093.85,0
11_55_50,42,4081.03,4077.44,4084.62,4073.33,4089.23,4092.82,4087.18,4113.33,4098.97,4089.23,4077.44,4108.21,4071.79,4082.56,0
11_55_50,43,4080.51,4069.74,4085.64,4075.38,4085.13,4097.95,4092.82,4116.41,4103.08,4086.67,4075.38,4106.15,4067.18,4080.51,0
11_55_50,44,4090.26,4080.51,4089.23,4083.08,4096.41,4109.23,4101.54,4126.67,4105.64,4089.74,4082.56,4110.26,4075.38,4092.82,0
11_55_50,45,4092.82,4088.72,4086.15,4084.1,4098.46,4103.59,4094.87,4122.56,4105.13,4094.36,4084.1,4112.82,4077.44,4093.33,0
11_55_50,46,4089.23,4086.15,4078.97,4082.05,4093.85,4092.31,4083.59,4106.15,4096.41,4089.74,4080.51,4108.72,4072.31,4088.72,0
11_55_50,47,4091.28,4085.64,4075.38,4088.21,4103.59,4096.41,4087.18,4106.15,4089.74,4080.51,4075.9,4107.18,4069.23,4091.79,0
11_55_50,48,4094.87,4089.23,4072.82,4095.9,4109.23,4107.18,4096.92,4114.87,4094.36,4075.38,4076.41,4108.72,4070.26,4094.36,0
11_55_50,49,4092.82,4086.15,4069.23,4090.77,4101.54,4108.72,4091.79,4115.9,4101.03,4072.31,4081.03,4108.72,4068.72,4092.82,0
11_55_51,50,4088.72,4078.46,4066.15,4081.03,4094.36,4101.03,4083.08,4109.23,4102.05,4078.97,4078.46,4107.18,4063.08,4089.23,0
11_55_51,51,4088.72,4081.03,4066.67,4078.97,4093.85,4100,4086.67,4110.77,4102.56,4096.41,4075.9,4104.1,4061.54,4087.69,0
11_55_51,52,4091.79,4087.69,4071.28,4082.56,4089.74,4107.18,4091.28,4122.05,4106.15,4101.54,4082.05,4104.1,4065.64,4089.74,0
11_55_51,53,4092.82,4087.69,4076.92,4084.1,4088.72,4106.67,4088.72,4121.03,4107.69,4090.77,4085.13,4107.18,4063.08,4090.77,0
11_55_51,54,4091.79,4087.18,4082.56,4084.62,4100.51,4102.56,4088.72,4112.82,4104.1,4091.28,4081.03,4106.15,4057.44,4089.74,0
11_55_51,55,4093.33,4091.28,4093.33,4089.74,4104.1,4105.13,4095.9,4119.49,4104.62,4093.85,4076.41,4104.1,4061.03,4093.85,0
11_55_51,56,4091.28,4090.77,4098.97,4090.77,4094.36,4106.67,4094.87,4122.05,4104.1,4072.82,4075.38,4105.13,4054.87,4090.26,0
11_55_51,57,4089.74,4081.54,4095.38,4086.67,4092.82,4105.64,4088.72,4107.69,4099.49,4064.62,4076.41,4102.05,4041.54,4079.49,0
11_55_51,58,4089.23,4076.41,4094.36,4081.54,4093.33,4103.08,4091.28,4103.59,4100,4075.9,4073.33,4096.41,4042.05,4076.92,0
11_55_51,59,4084.1,4074.36,4096.41,4079.49,4089.23,4096.92,4092.82,4109.74,4096.41,4070.26,4066.67,4091.28,4041.54,4072.82,0
11_55_51,60,4081.54,4077.44,4096.92,4084.1,4096.92,4100.51,4089.23,4106.67,4094.36,4074.87,4066.15,4090.77,4039.49,4067.69,0
11_55_51,61,4087.18,4089.74,4097.95,4090.77,4111.79,4116.41,4096.41,4104.62,4102.56,4098.46,4076.41,4098.97,4052.82,4080.51,0
11_55_51,62,4100.51,4098.97,4103.59,4094.36,4110.26,4119.49,4106.15,4115.9,4110.77,4098.46,4092.82,4112.31,4069.74,4099.49,0
11_55_51,63,4105.64,4096.92,4105.13,4095.9,4100.51,4109.74,4103.08,4123.08,4108.72,4089.23,4094.87,4114.87,4068.72,4098.97,0
11_55_51,64,4097.95,4089.74,4101.03,4094.87,4100,4104.62,4096.41,4110.77,4098.97,4091.79,4083.08,4106.15,4055.38,4090.77,0
11_55_51,65,4090.26,4082.05,4098.97,4090.77,4094.87,4100,4094.36,4101.54,4090.26,4081.03,4076.41,4105.13,4047.18,4088.21,0
11_55_51,66,4089.23,4075.9,4101.54,4086.15,4084.1,4097.44,4091.28,4108.72,4091.28,4076.41,4077.95,4108.21,4047.69,4087.18,0
11_55_51,67,4084.62,4074.87,4100.51,4082.56,4082.56,4101.03,4089.23,4107.69,4093.85,4074.36,4071.28,4099.49,4045.64,4080.51,0
11_55_51,68,4076.92,4074.87,4096.92,4082.56,4094.36,4100.51,4091.28,4098.46,4087.69,4051.28,4063.59,4092.82,4036.92,4072.31,0
11_55_51,69,4079.49,4073.33,4097.95,4085.64,4104.1,4095.38,4091.79,4104.1,4088.72,4059.49,4076.92,4102.05,4042.56,4079.49,0
11_55_51,70,4083.59,4068.72,4100,4082.56,4100,4097.95,4091.28,4109.74,4097.44,4097.44,4090.77,4108.21,4052.31,4093.33,0
11_55_51,71,4085.13,4065.13,4098.46,4078.46,4093.85,4104.1,4093.85,4105.13,4100.51,4104.1,4087.69,4103.08,4049.23,4091.28,0
11_55_51,72,4091.79,4070.26,4099.49,4085.13,4093.33,4107.69,4100.51,4111.79,4108.21,4089.23,4093.85,4106.67,4053.85,4089.23,0
11_55_51,73,4094.87,4076.92,4103.08,4089.23,4092.31,4104.62,4100,4121.03,4109.74,4082.56,4102.56,4113.85,4058.46,4096.92,0
11_55_51,74,4088.72,4074.87,4097.95,4087.18,4089.74,4093.85,4091.79,4110.77,4092.82,4076.92,4087.69,4107.69,4047.18,4092.31,0
11_55_51,75,4085.13,4072.31,4093.33,4089.74,4093.85,4095.9,4092.82,4102.56,4082.56,4073.33,4073.85,4097.44,4037.44,4077.95,0
11_55_51,76,4085.64,4076.41,4093.85,4091.79,4102.56,4108.72,4097.95,4105.64,4091.79,4075.38,4078.97,4092.82,4035.38,4076.41,0
11_55_51,77,4077.44,4072.82,4093.85,4083.08,4100.51,4106.15,4094.87,4102.05,4097.44,4080,4076.41,4090.26,4029.23,4074.36,0
11_55_51,78,4071.28,4061.03,4091.28,4073.85,4091.28,4095.9,4093.33,4102.05,4091.79,4082.56,4069.23,4087.69,4028.72,4069.74,0
11_55_51,79,4077.44,4063.08,4093.85,4077.95,4088.72,4100,4098.97,4106.67,4092.82,4075.9,4079.49,4088.21,4038.97,4078.46,0
11_55_51,80,4081.03,4074.87,4095.9,4081.03,4093.85,4107.18,4099.49,4102.05,4102.05,4083.59,4092.31,4096.92,4048.21,4087.69,0
11_55_51,81,4080.51,4076.41,4096.92,4074.36,4089.74,4100,4092.31,4100.51,4102.56,4101.54,4093.33,4104.1,4053.33,4086.67,0
11_55_51,82,4081.54,4072.82,4096.41,4076.92,4083.08,4089.23,4087.69,4102.56,4091.79,4094.36,4089.74,4105.13,4051.79,4084.62,0
11_55_51,83,4084.1,4081.03,4096.41,4085.64,4092.82,4092.31,4090.77,4100.51,4091.28,4081.54,4088.21,4104.62,4046.15,4087.18,0
11_55_51,84,4089.23,4089.23,4097.95,4085.64,4107.18,4106.15,4095.38,4105.13,4102.05,4081.54,4092.82,4107.18,4052.82,4091.28,0
11_55_51,85,4091.28,4087.18,4096.41,4083.59,4106.15,4108.21,4093.85,4110.26,4103.59,4085.13,4092.82,4106.67,4062.05,4091.79,0
11_55_51,86,4087.18,4082.56,4091.28,4087.18,4104.62,4105.13,4095.9,4112.31,4102.56,4090.26,4089.23,4104.62,4056.92,4089.74,0
11_55_51,87,4085.64,4084.1,4095.38,4089.23,4110.77,4108.72,4100.51,4121.54,4109.23,4091.79,4096.41,4106.15,4053.85,4092.31,0
11_55_51,88,4089.23,4089.74,4101.03,4088.21,4103.08,4109.74,4100,4126.15,4111.79,4095.38,4107.18,4107.18,4062.56,4097.44,0
11_55_51,89,4090.77,4086.67,4097.95,4083.59,4087.69,4105.64,4095.9,4113.85,4107.18,4098.46,4106.15,4105.13,4065.13,4095.9,0
11_55_51,90,4089.74,4081.54,4094.36,4080,4093.33,4106.15,4094.87,4103.59,4105.64,4091.79,4102.56,4104.62,4061.54,4097.95,0
11_55_51,91,4092.82,4085.64,4097.44,4088.21,4108.72,4109.23,4099.49,4107.69,4109.23,4094.36,4107.18,4108.21,4064.1,4106.67,0
11_55_51,92,4095.9,4093.85,4100,4094.87,4106.67,4110.26,4105.64,4114.36,4108.72,4104.62,4104.1,4107.18,4063.59,4104.62,0
11_55_51,93,4094.87,4092.82,4100,4092.31,4103.59,4109.23,4104.62,4113.85,4100.51,4091.28,4090.26,4097.95,4053.33,4095.9,0
11_55_51,94,4090.26,4086.15,4097.95,4092.31,4106.67,4106.67,4098.46,4105.64,4093.85,4070.77,4079.49,4089.74,4042.05,4088.72,0
11_55_51,95,4085.64,4082.56,4096.41,4090.77,4097.95,4106.15,4095.38,4097.44,4091.79,4063.08,4075.38,4088.72,4036.41,4084.62,0
11_55_51,104,4071.28,4072.31,4093.85,4077.44,4092.31,4099.49,4090.26,4091.28,4089.23,4040,4065.13,4075.38,4018.97,4068.21,0
11_55_51,105,4075.9,4071.79,4093.85,4080,4090.26,4105.13,4092.82,4093.33,4089.23,4034.87,4073.33,4080.51,4025.64,4075.38,0
11_55_51,106,4080.51,4082.05,4098.46,4090.26,4096.92,4102.56,4091.79,4106.67,4094.87,4046.15,4079.49,4090.77,4032.31,4078.97,0
11_55_51,107,4080,4086.67,4099.49,4091.28,4106.67,4103.59,4089.23,4108.72,4103.08,4033.33,4074.87,4090.26,4028.72,4076.41,0
11_55_51,108,4087.69,4086.15,4097.95,4090.26,4100.51,4110.77,4098.46,4107.18,4107.18,4025.13,4084.1,4089.23,4032.31,4084.62,0
11_55_51,109,4091.79,4087.69,4098.97,4092.31,4091.28,4111.79,4105.64,4112.82,4107.18,4045.13,4095.38,4094.87,4040,4092.82,0
11_55_51,110,4085.64,4082.56,4097.95,4090.77,4096.41,4101.54,4094.87,4111.79,4103.59,4043.59,4089.23,4092.31,4034.87,4081.54,0
11_55_51,111,4083.08,4078.97,4094.87,4090.77,4095.38,4096.41,4088.72,4102.56,4097.95,4029.23,4082.56,4086.67,4034.36,4072.31,0
11_55_51,112,4082.56,4081.03,4092.82,4091.28,4086.15,4099.49,4094.36,4099.49,4095.38,4035.38,4081.03,4082.56,4054.87,4075.9,0
11_55_51,113,4074.36,4076.41,4091.79,4084.62,4089.23,4099.49,4095.38,4100.51,4095.38,4028.21,4073.33,4077.44,4080,4075.38,0
11_55_51,114,4072.31,4071.79,4092.31,4079.49,4096.41,4098.97,4092.31,4100.51,4093.85,4006.15,4071.28,4074.36,4101.54,4073.85,0
11_55_51,115,4077.95,4077.95,4091.79,4078.97,4092.82,4098.97,4088.72,4096.41,4093.85,4014.36,4076.92,4075.38,4122.05,4075.9,0
11_55_51,116,4077.44,4076.92,4085.64,4076.92,4087.69,4093.33,4083.59,4089.23,4090.26,4021.54,4072.31,4077.44,4130.77,4072.31,0
11_55_51,117,4072.31,4065.64,4082.56,4074.36,4087.69,4089.23,4081.03,4080.51,4084.62,4003.08,4061.03,4073.85,4124.62,4061.54,0
11_55_51,118,4073.33,4061.54,4084.1,4075.38,4089.23,4091.79,4081.54,4076.41,4089.23,4000,4065.64,4071.79,4123.08,4061.03,0
11_55_51,119,4078.97,4068.21,4086.15,4076.41,4094.36,4092.31,4083.59,4084.1,4093.85,4016.92,4078.46,4079.49,4133.85,4071.28,0
11_55_51,120,4080.51,4075.9,4087.69,4075.9,4095.9,4092.31,4089.74,4091.79,4091.79,4023.59,4080,4084.62,4137.95,4073.85,0
11_55_51,121,4080,4076.41,4089.23,4081.03,4091.28,4094.36,4090.77,4091.28,4094.36,4020.51,4070.26,4080.51,4129.23,4066.15,0
11_55_51,122,4086.15,4075.9,4088.21,4086.15,4091.28,4095.38,4085.13,4100.51,4105.13,4015.9,4076.92,4082.56,4126.15,4068.72,0
11_55_51,123,4089.23,4076.41,4089.74,4084.62,4090.26,4097.44,4086.67,4111.28,4108.21,4007.69,4089.74,4093.33,4132.82,4080,0
11_55_51,124,4084.62,4076.92,4088.72,4083.59,4090.77,4096.92,4091.79,4104.62,4100,4015.38,4082.56,4092.82,4130.26,4079.49,0
11_55_51,125,4086.15,4076.92,4085.13,4089.23,4093.85,4095.9,4092.31,4098.46,4092.82,4030.77,4075.38,4088.21,4120.51,4074.36,0
11_55_51,126,4090.77,4076.92,4086.15,4090.26,4094.36,4095.9,4086.67,4101.54,4095.9,4029.23,4082.56,4090.26,4120.51,4077.95,0
11_55_51,127,4088.21,4075.9,4089.74,4087.69,4090.77,4094.87,4082.05,4095.9,4100.51,4025.64,4080,4090.77,4126.15,4077.95,0
11_55_51,128,4086.15,4076.92,4090.26,4090.77,4088.72,4094.87,4086.15,4086.15,4095.9,4019.49,4072.31,4088.21,4121.03,4074.36,0
11_55_51,0,4085.64,4076.41,4087.18,4088.21,4091.28,4094.87,4090.26,4092.82,4094.87,4015.9,4076.41,4088.21,4107.69,4073.85,0
11_55_51,1,4085.64,4069.23,4087.18,4086.67,4093.85,4099.49,4090.26,4101.54,4097.95,4033.33,4073.85,4089.23,4105.64,4074.87,0
11_55_51,2,4085.64,4066.15,4088.72,4089.23,4093.85,4105.13,4091.28,4094.87,4097.44,4045.64,4066.15,4089.23,4111.28,4076.92,0
11_55_51,3,4082.05,4065.64,4085.13,4082.05,4090.77,4101.03,4090.26,4090.26,4096.92,4039.49,4066.67,4086.67,4103.59,4075.38,0
11_55_51,4,4080,4064.62,4083.59,4075.9,4090.26,4087.69,4082.56,4093.85,4097.44,4028.21,4063.08,4084.62,4096.41,4073.85,0
11_55_51,5,4093.33,4073.85,4094.36,4088.21,4091.79,4091.79,4086.67,4101.54,4101.54,4023.59,4067.69,4096.92,4108.21,4085.64,0
11_55_51,6,4104.1,4083.59,4102.56,4100,4095.38,4107.18,4094.36,4111.79,4108.21,4034.36,4079.49,4110.26,4118.46,4097.95,0
11_55_51,7,4094.87,4077.44,4096.92,4093.33,4097.44,4104.62,4088.21,4105.13,4105.13,4042.56,4069.74,4099.49,4105.64,4089.74,0
11_55_51,8,4085.64,4070.77,4090.77,4086.67,4092.31,4093.33,4083.08,4087.69,4094.36,4036.92,4049.23,4084.62,4091.28,4073.85,0
11_55_51,9,4088.72,4077.44,4093.85,4089.74,4092.31,4090.77,4088.72,4091.28,4097.44,4046.15,4053.33,4088.72,4091.79,4075.9,0
11_55_51,10,4094.87,4083.59,4094.87,4092.82,4097.95,4097.95,4091.28,4104.62,4105.64,4058.46,4065.64,4096.41,4096.41,4090.26,0
11_55_51,11,4095.38,4086.67,4094.87,4092.82,4095.9,4098.97,4087.69,4098.46,4103.59,4037.95,4064.62,4094.36,4093.85,4093.33,0
11_55_51,12,4090.77,4084.1,4092.82,4089.74,4096.92,4094.87,4090.26,4091.28,4101.54,4027.18,4060.51,4090.77,4083.08,4082.05,0
11_55_51,13,4090.77,4081.03,4090.26,4090.26,4106.15,4095.38,4093.85,4098.97,4101.03,4047.69,4058.46,4089.74,4076.92,4080.51,0
11_55_51,14,4094.87,4087.18,4093.85,4093.85,4106.15,4096.92,4091.79,4104.62,4096.92,4049.74,4053.85,4091.79,4077.44,4088.72,0
11_55_51,15,4095.38,4093.85,4096.92,4097.95,4106.67,4102.56,4096.92,4105.13,4097.95,4032.31,4050.26,4092.31,4070.77,4087.18,0
11_55_51,16,4092.31,4091.28,4091.28,4097.44,4110.26,4109.23,4102.05,4103.59,4101.03,4030.77,4048.21,4090.77,4063.59,4080.51,0
11_55_51,17,4088.21,4079.49,4085.13,4091.28,4094.87,4102.56,4088.72,4097.44,4095.9,4043.59,4046.67,4088.72,4076.92,4081.03,0
11_55_51,18,4080.51,4065.13,4085.64,4082.56,4083.08,4087.69,4070.77,4088.21,4089.23,4037.95,4048.72,4082.05,4093.33,4081.03,0
11_55_51,19,4074.87,4057.44,4084.62,4074.87,4094.36,4086.15,4076.41,4086.15,4091.79,4021.54,4050.77,4081.03,4087.18,4078.46,0
11_55_51,20,4076.92,4057.44,4085.64,4077.95,4098.46,4092.31,4091.28,4097.95,4096.92,4025.13,4050.26,4086.15,4076.41,4077.44,0
11_55_51,21,4083.59,4063.59,4090.26,4088.21,4092.31,4093.33,4093.33,4103.08,4095.38,4044.62,4047.69,4084.62,4077.44,4076.92,0
11_55_51,22,4088.72,4069.74,4094.36,4091.79,4099.49,4092.31,4088.72,4091.79,4089.23,4050.77,4046.67,4084.1,4081.54,4080.51,0
11_55_51,23,4093.33,4071.79,4094.36,4088.21,4104.1,4094.36,4091.28,4084.62,4089.74,4055.38,4051.79,4092.31,4086.67,4087.18,0
11_55_51,24,4093.85,4071.79,4090.26,4085.13,4090.26,4095.38,4094.87,4093.85,4093.85,4058.46,4051.79,4092.82,4087.69,4088.21,0
11_55_51,25,4091.28,4071.79,4084.62,4081.03,4083.59,4092.31,4090.77,4103.08,4091.28,4044.1,4050.26,4086.15,4080.51,4086.67,0
11_55_51,26,4091.79,4074.36,4088.21,4084.62,4098.97,4089.23,4088.72,4103.08,4093.33,4042.56,4061.54,4090.77,4080.51,4089.23,0
11_55_51,27,4093.33,4076.41,4094.36,4089.23,4108.21,4091.28,4091.79,4105.64,4101.03,4060.51,4066.15,4096.41,4086.15,4089.74,0
11_55_51,28,4085.13,4072.82,4090.26,4080.51,4095.38,4090.77,4088.72,4103.59,4095.38,4064.1,4055.38,4085.13,4080,4082.56,0
11_55_51,29,4074.36,4064.62,4082.05,4071.28,4090.26,4088.21,4086.15,4098.46,4088.21,4058.97,4046.15,4070.26,4066.67,4074.87,0
11_55_51,30,4073.85,4062.56,4083.08,4073.85,4096.41,4091.79,4091.28,4100.51,4093.33,4061.54,4047.18,4068.21,4062.05,4073.33,0
11_55_51,31,4077.44,4064.62,4084.62,4076.92,4086.67,4094.36,4092.31,4102.05,4096.92,4052.82,4055.9,4074.36,4064.62,4075.38,0
11_55_51,32,4074.36,4065.64,4083.08,4073.85,4083.08,4092.82,4088.72,4103.08,4098.97,4044.1,4059.49,4074.36,4064.1,4075.38,0
11_55_51,33,4074.87,4071.79,4088.21,4075.9,4104.1,4093.85,4090.26,4104.62,4105.13,4058.46,4057.95,4073.33,4063.59,4077.44,0
11_55_51,34,4088.21,4078.97,4094.36,4082.05,4106.67,4096.92,4092.31,4101.54,4098.97,4072.82,4062.05,4076.41,4066.67,4082.05,0
11_55_51,35,4091.28,4074.87,4091.28,4083.59,4089.74,4096.41,4089.23,4085.64,4085.13,4071.28,4064.62,4075.9,4066.15,4082.56,0
11_55_51,36,4080.51,4069.23,4086.67,4077.95,4092.82,4093.33,4088.72,4077.44,4083.59,4070.77,4059.49,4078.46,4059.49,4082.05,0
11_55_51,37,4081.03,4072.31,4089.23,4077.95,4101.54,4094.87,4094.87,4094.87,4095.38,4081.03,4063.08,4088.21,4061.03,4083.59,0
11_55_51,38,4086.67,4072.31,4089.74,4080,4089.74,4093.85,4093.33,4106.67,4098.97,4076.41,4064.1,4087.18,4058.97,4082.05,0
11_55_51,39,4077.44,4059.49,4083.08,4068.21,4083.08,4088.72,4081.54,4093.33,4090.77,4051.79,4046.67,4073.85,4038.46,4071.79,0
11_55_51,40,4070.77,4054.36,4081.54,4063.59,4092.31,4088.72,4076.41,4084.1,4088.72,4050.77,4036.92,4070.26,4031.79,4064.62,0
11_55_51,41,4078.46,4068.21,4087.18,4075.38,4099.49,4090.77,4082.56,4101.03,4096.41,4079.49,4045.64,4077.95,4047.69,4070.26,0
11_55_51,42,4078.97,4074.87,4088.72,4079.49,4100,4088.72,4087.69,4108.21,4095.9,4083.08,4054.87,4078.97,4048.21,4076.41,0
11_55_51,43,4076.92,4069.74,4089.23,4071.28,4091.28,4087.18,4085.13,4091.79,4089.23,4062.05,4054.87,4076.41,4037.44,4075.38,0
11_55_51,44,4086.15,4073.85,4094.87,4073.33,4076.92,4088.21,4084.62,4089.74,4089.23,4071.79,4050.26,4080,4041.03,4076.92,0
11_55_51,45,4087.69,4074.87,4095.38,4077.95,4076.92,4088.72,4089.74,4099.49,4090.26,4094.36,4047.18,4084.1,4047.69,4080,0
11_55_51,46,4075.38,4065.13,4089.74,4070.77,4090.77,4090.77,4089.23,4099.49,4088.21,4080,4044.62,4083.59,4038.97,4075.9,0
11_55_51,47,4075.38,4065.64,4091.28,4067.18,4097.44,4090.26,4087.18,4094.36,4087.69,4061.03,4046.15,4081.54,4032.31,4077.95,0
11_55_51,48,4087.18,4074.87,4093.33,4072.82,4096.92,4087.18,4088.72,4094.87,4091.28,4081.54,4054.87,4080,4038.97,4085.64,0
11_55_52,49,4084.1,4074.36,4089.74,4076.41,4101.03,4089.74,4092.31,4096.92,4095.9,4100,4054.36,4080,4047.18,4086.15,0
11_55_52,50,4079.49,4078.97,4091.28,4079.49,4103.08,4093.33,4090.77,4094.87,4094.87,4091.79,4048.72,4082.56,4049.74,4087.69,0
11_55_52,51,4084.62,4082.05,4093.33,4080.51,4088.72,4085.64,4085.13,4091.28,4092.82,4089.74,4054.87,4084.1,4049.74,4092.31,0
11_55_52,52,4083.59,4068.72,4089.23,4070.77,4076.92,4076.92,4082.05,4090.77,4089.23,4101.54,4060,4082.56,4045.64,4090.77,0
11_55_52,53,4084.62,4075.38,4090.77,4074.36,4090.26,4083.08,4087.69,4102.05,4089.74,4093.33,4054.87,4084.1,4044.1,4088.72,0
11_55_52,54,4092.82,4092.31,4095.9,4089.74,4104.1,4091.79,4094.36,4110.77,4105.13,4076.41,4058.46,4090.26,4044.62,4093.33,0
11_55_52,55,4090.26,4077.44,4090.77,4083.08,4096.41,4092.31,4095.38,4108.21,4110.77,4090.77,4061.54,4095.9,4043.08,4093.85,0
11_55_52,56,4083.08,4064.62,4085.64,4069.23,4094.36,4093.33,4096.41,4104.1,4090.77,4104.1,4049.74,4092.31,4042.05,4089.23,0
11_55_52,57,4088.21,4088.21,4090.77,4078.97,4102.56,4096.41,4094.36,4107.18,4090.77,4093.33,4043.08,4084.1,4038.46,4089.23,0
11_55_52,58,4101.03,4108.21,4096.41,4094.36,4093.33,4095.9,4089.74,4108.72,4110.77,4097.44,4047.18,4086.15,4031.28,4093.85,0
11_55_52,59,4101.54,4107.69,4095.38,4091.79,4091.28,4092.31,4090.26,4100.51,4097.44,4103.59,4041.54,4086.15,4026.67,4091.28,0
11_55_52,60,4091.79,4107.69,4090.77,4085.13,4104.1,4092.31,4090.77,4092.31,4076.92,4075.9,4034.87,4076.41,4020,4082.56,0
11_55_52,61,4088.21,4100.51,4088.21,4081.03,4101.03,4095.38,4089.74,4089.74,4088.21,4067.18,4038.46,4071.79,4010.77,4079.49,0
11_55_52,62,4090.77,4094.87,4091.28,4076.92,4086.67,4095.9,4090.77,4096.41,4095.38,4091.28,4034.36,4072.31,4004.62,4076.92,0
11_55_52,63,4088.21,4101.54,4090.77,4081.54,4087.69,4092.31,4090.26,4104.1,4088.21,4093.33,4022.05,4069.74,4003.08,4073.33,0
11_55_52,64,4086.67,4108.21,4089.74,4090.77,4103.59,4091.79,4089.74,4096.41,4085.13,4080.51,4025.64,4069.74,4010.26,4078.46,0
11_55_52,65,4094.87,4114.87,4093.33,4091.28,4107.18,4095.9,4093.85,4091.28,4087.69,4089.23,4041.03,4079.49,4027.18,4088.21,0
11_55_52,66,4101.54,4123.59,4097.95,4090.77,4095.38,4100,4100.51,4108.72,4098.46,4111.28,4053.85,4089.74,4035.38,4096.92,0
11_55_52,67,4101.03,4124.62,4096.92,4097.44,4092.82,4102.05,4098.46,4113.85,4105.64,4105.13,4058.46,4090.26,4028.72,4101.03,0
11_55_52,68,4098.46,4121.54,4093.33,4094.36,4107.69,4104.1,4095.9,4094.87,4092.31,4076.41,4049.74,4082.05,4021.03,4095.38,0
11_55_52,69,4096.92,4122.56,4094.36,4085.64,4110.77,4104.62,4097.44,4089.23,4084.62,4085.64,4034.87,4077.44,4018.46,4089.23,0
11_55_52,70,4098.46,4127.69,4096.41,4090.26,4099.49,4103.59,4094.87,4097.44,4096.92,4114.87,4033.85,4077.44,4018.46,4093.85,0
11_55_52,71,4098.46,4135.38,4096.41,4093.85,4105.13,4103.59,4092.82,4100.51,4098.97,4105.13,4037.44,4073.85,4018.97,4094.36,0
11_55_52,72,4093.85,4133.85,4095.38,4085.13,4111.79,4103.59,4096.92,4112.31,4094.36,4094.87,4035.38,4073.85,4016.41,4090.26,0
11_55_52,73,4085.13,4124.1,4091.79,4080,4098.46,4098.97,4096.92,4116.92,4097.95,4114.87,4040,4071.28,4014.87,4089.23,0
11_55_52,74,4075.9,4120,4086.15,4076.92,4088.72,4092.31,4090.77,4098.97,4093.33,4104.62,4040.51,4058.97,4012.82,4083.08,0
11_55_52,75,4071.28,4120,4082.56,4068.21,4090.77,4092.82,4090.26,4087.69,4083.08,4086.15,4023.08,4048.72,4007.18,4072.31,0
11_55_52,76,4073.33,4119.49,4080.51,4065.64,4085.13,4096.41,4090.77,4090.26,4081.03,4104.62,4014.87,4049.23,4011.79,4071.28,0
11_55_52,77,4073.85,4116.92,4080,4064.62,4079.49,4087.18,4081.54,4085.13,4078.97,4107.18,4025.64,4053.85,4025.13,4080.51,0
11_55_52,78,4071.79,4116.41,4084.1,4062.56,4087.69,4078.46,4074.87,4080,4077.95,4090.77,4024.1,4055.9,4037.44,4085.13,0
11_55_52,79,4080,4123.08,4089.74,4074.36,4095.9,4083.59,4075.9,4084.1,4083.08,4092.82,4015.9,4064.62,4055.38,4085.64,0
11_55_52,80,4092.31,4127.18,4090.26,4091.28,4091.79,4086.15,4075.38,4085.64,4084.62,4107.69,4027.18,4072.82,4076.92,4090.77,0
11_55_52,81,4094.87,4123.59,4091.79,4093.33,4087.18,4084.62,4076.41,4094.36,4087.69,4125.13,4037.44,4072.31,4089.23,4097.44,0
11_55_52,82,4094.36,4125.64,4091.28,4088.21,4090.77,4091.28,4084.1,4104.62,4096.92,4137.95,4031.79,4070.77,4096.41,4097.44,0
11_55_52,83,4099.49,4130.26,4091.79,4089.74,4099.49,4094.36,4085.13,4095.9,4094.87,4134.36,4027.18,4071.79,4097.44,4092.82,0
11_55_52,84,4099.49,4128.21,4092.82,4096.41,4105.64,4089.74,4083.08,4090.26,4090.77,4129.74,4029.74,4074.87,4092.31,4094.36,0
11_55_52,85,4095.9,4123.59,4090.26,4093.85,4097.95,4088.21,4082.56,4100.51,4093.85,4128.21,4033.85,4076.92,4096.41,4096.41,0
11_55_52,86,4090.77,4114.36,4084.1,4082.05,4081.54,4088.21,4079.49,4106.67,4092.82,4120,4032.31,4074.87,4100.51,4092.31,0
11_55_52,87,4089.23,4108.72,4083.08,4080,4081.03,4089.23,4084.1,4104.62,4091.79,4124.1,4034.36,4076.41,4097.44,4096.92,0
11_55_52,88,4098.46,4120.51,4090.77,4092.31,4098.97,4092.31,4092.31,4107.18,4097.44,4129.74,4045.64,4087.18,4096.92,4107.18,0
11_55_52,89,4102.05,4124.1,4093.33,4095.9,4095.9,4091.28,4088.21,4107.18,4097.44,4122.56,4042.05,4086.67,4093.85,4104.62,0
11_55_52,90,4093.33,4112.31,4088.72,4090.26,4075.9,4086.15,4081.54,4107.69,4088.21,4131.28,4023.08,4075.38,4087.18,4098.46,0
11_55_52,91,4095.38,4112.82,4087.69,4090.77,4085.13,4088.21,4089.23,4112.31,4094.87,4144.62,4027.69,4078.97,4089.23,4104.1,0
11_55_52,92,4107.18,4124.1,4092.82,4096.92,4111.28,4097.95,4097.44,4104.62,4103.08,4143.59,4042.05,4090.26,4090.77,4110.26,0
11_55_52,93,4106.67,4127.18,4092.82,4102.56,4108.72,4101.03,4095.9,4096.92,4090.26,4138.97,4028.21,4091.28,4078.97,4106.67,0
11_55_52,94,4100,4120,4090.26,4097.95,4094.36,4091.79,4089.74,4102.05,4079.49,4136.41,4016.41,4087.69,4070.77,4103.08,0
11_55_52,95,4104.1,4116.92,4093.33,4092.31,4097.95,4089.74,4089.23,4107.69,4087.69,4132.31,4025.64,4090.26,4074.87,4105.13,0
11_55_52,96,4109.74,4122.05,4100,4098.46,4095.38,4098.46,4095.9,4107.69,4094.36,4136.92,4026.67,4091.79,4082.56,4109.74,0
11_55_52,97,4110.77,4125.13,4099.49,4102.56,4087.18,4098.46,4098.46,4106.67,4092.82,4147.18,4018.46,4090.26,4081.03,4108.21,0
11_55_52,98,4106.67,4121.03,4097.95,4100.51,4097.95,4092.31,4093.33,4102.05,4088.72,4142.05,4017.95,4089.74,4071.79,4104.1,0
11_55_52,99,4107.18,4123.59,4101.03,4105.64,4109.74,4090.77,4089.74,4102.56,4088.21,4134.87,4021.03,4093.85,4072.82,4109.23,0
11_55_52,100,4117.95,4135.38,4103.59,4111.79,4107.18,4091.28,4087.69,4108.72,4102.56,4148.72,4023.59,4100,4079.49,4115.38,0
11_55_52,101,4119.49,4133.33,4096.92,4107.18,4103.08,4091.28,4087.69,4109.74,4103.08,4158.46,4021.03,4099.49,4071.79,4111.79,0
11_55_52,102,4108.21,4120,4093.33,4103.08,4101.03,4089.74,4090.26,4106.67,4082.05,4141.54,4007.69,4092.31,4056.41,4105.13,0
11_55_52,103,4104.62,4117.95,4097.44,4105.64,4098.46,4091.28,4093.33,4108.21,4082.05,4131.28,4005.64,4090.26,4055.9,4105.64,0
11_55_52,104,4109.23,4123.08,4100.51,4106.67,4096.92,4096.92,4095.9,4109.23,4095.9,4150.26,4017.95,4097.44,4063.59,4110.26,0
11_55_52,105,4109.23,4116.92,4096.92,4107.18,4096.41,4096.41,4093.33,4104.62,4092.82,4161.03,4016.92,4100.51,4057.44,4109.74,0
11_55_52,106,4105.13,4106.15,4093.85,4108.21,4096.41,4092.31,4087.69,4103.59,4088.72,4144.62,4011.28,4091.79,4040,4105.13,0
11_55_52,107,4104.62,4105.64,4093.85,4107.69,4094.87,4093.33,4087.69,4105.64,4088.72,4126.15,4011.79,4083.08,4031.79,4103.08,0
11_55_52,108,4108.21,4109.23,4094.87,4107.18,4093.33,4093.85,4090.26,4105.13,4085.64,4134.36,4011.79,4083.59,4037.44,4106.15,0
11_55_52,109,4108.21,4103.59,4094.36,4109.23,4096.92,4091.28,4089.74,4100,4085.13,4152.82,4007.69,4082.56,4035.38,4104.62,0
11_55_52,110,4102.05,4093.85,4090.26,4105.13,4096.41,4090.77,4090.26,4098.46,4085.64,4140,4005.64,4076.41,4023.59,4095.9,0
11_55_52,111,4102.05,4086.67,4089.23,4092.82,4088.21,4091.28,4093.85,4105.13,4089.74,4126.67,4005.64,4073.85,4024.1,4093.85,0
11_55_52,112,4105.13,4080,4092.31,4088.72,4089.23,4093.85,4095.9,4111.79,4089.23,4145.13,4005.64,4075.9,4028.72,4096.92,0
11_55_52,113,4098.46,4073.33,4090.77,4092.31,4092.31,4091.79,4093.33,4105.64,4077.44,4155.38,4002.56,4075.9,4021.03,4093.85,0
11_55_52,114,4091.28,4068.21,4083.59,4092.82,4087.18,4077.95,4083.59,4089.23,4070.77,4139.49,3994.87,4072.31,4015.38,4091.28,0
11_55_52,115,4093.33,4066.15,4081.54,4092.82,4082.56,4073.33,4076.41,4087.69,4075.9,4131.28,3991.79,4072.31,4015.9,4092.31,0
11_55_52,116,4094.36,4063.08,4083.59,4091.79,4073.85,4079.49,4077.44,4096.92,4079.49,4140.51,3988.21,4074.87,4009.74,4087.18,0
11_55_52,117,4091.79,4056.41,4083.08,4083.08,4064.1,4076.41,4074.36,4084.62,4071.79,4141.54,3976.92,4069.23,3998.46,4084.1,0
11_55_52,118,4091.28,4057.44,4082.56,4076.41,4069.74,4072.31,4072.31,4076.41,4066.15,4136.92,3975.9,4063.08,3998.46,4087.69,0
11_55_52,119,4090.77,4057.95,4083.08,4080.51,4079.49,4077.44,4080.51,4087.69,4067.69,4143.59,3984.62,4064.1,4001.54,4092.31,0
11_55_52,120,4090.26,4045.64,4083.59,4076.41,4075.9,4079.49,4083.08,4089.74,4070.77,4144.1,3983.59,4063.08,3995.9,4088.21,0
11_55_52,121,4089.23,4039.49,4087.69,4068.21,4069.74,4073.85,4073.85,4076.92,4063.08,4127.69,3968.21,4063.08,3985.13,4077.95,0
11_55_52,122,4094.87,4051.28,4089.74,4083.08,4076.92,4075.9,4072.31,4071.28,4055.38,4130.26,3966.15,4067.18,3984.62,4079.49,0
11_55_52,123,4108.21,4063.59,4085.64,4111.28,4091.28,4086.67,4080,4079.49,4065.64,4158.46,3985.13,4067.18,3994.87,4095.9,0
11_55_52,124,4105.64,4063.08,4082.05,4112.82,4088.21,4088.72,4081.54,4090.26,4072.31,4151.79,3986.67,4070.77,3994.36,4098.46,0
11_55_52,125,4097.44,4046.15,4086.15,4083.08,4071.28,4084.62,4081.54,4095.38,4069.74,4142.05,3974.87,4078.46,3985.64,4088.21,0
11_55_52,126,4112.31,4042.56,4093.33,4075.38,4082.05,4091.28,4088.72,4104.1,4078.46,4174.36,3989.23,4078.46,3998.97,4102.05,0
11_55_52,127,4116.92,4061.54,4092.82,4088.21,4093.33,4098.46,4094.87,4120.51,4083.08,4168.21,4000.51,4076.41,4009.23,4112.82,0
11_55_52,128,4092.82,4060,4092.31,4082.05,4073.33,4091.79,4092.82,4115.38,4070.77,4133.85,3977.44,4078.46,3979.49,4087.18,0
11_55_52,0,4081.54,4042.56,4095.38,4079.49,4069.74,4086.67,4086.67,4096.41,4067.69,4151.28,3966.67,4072.82,3959.49,4074.36,0
11_55_52,1,4094.36,4050.26,4095.38,4096.92,4094.87,4094.87,4089.23,4098.97,4078.97,4174.87,3976.92,4068.21,3979.49,4097.44,0
11_55_52,2,4104.62,4063.59,4092.31,4100,4100,4098.97,4093.33,4105.64,4078.46,4165.64,3980.51,4069.74,3989.74,4109.23,0
11_55_52,3,4103.08,4058.97,4095.38,4090.26,4087.69,4093.85,4089.23,4098.97,4073.85,4162.56,3990.26,4070.26,3977.95,4091.28,0
11_55_52,4,4098.46,4060,4098.46,4102.56,4091.79,4095.38,4089.74,4103.08,4080,4171.79,4001.54,4077.44,3977.44,4089.23,0
11_55_52,5,4094.87,4064.62,4098.46,4112.82,4095.9,4101.03,4094.36,4115.9,4082.05,4172.82,3992.82,4082.05,3984.62,4109.74,0
11_55_52,6,4097.44,4055.38,4097.44,4089.74,4071.79,4090.77,4087.69,4110.26,4071.79,4165.13,3977.95,4071.79,3980,4106.15,0
11_55_52,7,4102.05,4046.15,4095.38,4067.69,4049.23,4074.36,4077.95,4094.36,4060.51,4136.92,3976.41,4066.67,3966.67,4086.15,0
11_55_52,8,4095.38,4043.59,4095.38,4075.9,4063.08,4077.95,4078.97,4092.31,4063.08,4126.15,3965.64,4076.92,3948.72,4085.13,0
11_55_52,9,4074.36,4031.79,4098.46,4087.18,4080.51,4089.23,4083.59,4094.87,4068.21,4166.15,3940.51,4081.54,3934.36,4077.44,0
11_55_52,10,4071.28,4032.31,4097.44,4094.87,4084.62,4090.26,4088.72,4093.85,4066.67,4206.67,3956.92,4074.87,3946.15,4074.87,0
11_55_52,11,4089.74,4053.33,4090.26,4096.92,4089.74,4093.33,4093.33,4098.97,4067.69,4208.21,3996.41,4073.33,3962.05,4090.77,0
11_55_52,12,4067.18,4045.13,4088.21,4062.05,4060,4089.23,4086.67,4095.9,4062.56,4187.69,3968.72,4075.9,3944.62,4072.31,0
11_55_52,13,4047.69,4013.85,4098.97,4045.64,4026.67,4074.87,4075.38,4076.92,4053.85,4184.62,3925.13,4076.41,3918.97,4043.59,0
11_55_52,14,4084.1,4017.44,4103.59,4075.9,4052.82,4076.41,4078.46,4076.41,4057.44,4187.69,3955.38,4072.31,3925.64,4071.28,0
11_55_52,15,4083.59,4038.97,4097.95,4076.92,4084.62,4091.79,4089.74,4091.79,4062.05,4174.36,3975.9,4072.82,3932.82,4093.85,0
11_55_52,16,4038.46,4044.1,4095.9,4063.59,4077.44,4090.77,4090.26,4096.41,4062.05,4184.1,3941.54,4078.46,3922.05,4064.1,0
11_55_52,17,4046.67,4047.18,4090.77,4088.21,4077.44,4081.03,4078.46,4093.33,4064.1,4207.18,3934.36,4062.05,3927.18,4057.44,0
11_55_52,18,4089.74,4051.79,4086.67,4094.36,4087.18,4088.21,4079.49,4090.77,4062.05,4185.13,3949.23,4049.23,3923.59,4076.41,0
11_55_52,19,4077.44,4042.05,4097.95,4063.08,4064.1,4094.36,4089.23,4088.21,4057.95,4156.92,3932.31,4073.33,3883.59,4050.26,0
11_55_52,20,4023.08,4017.44,4107.18,4053.33,4026.15,4084.1,4084.62,4090.77,4060.51,4182.56,3918.46,4084.62,3872.31,4024.62,0
11_55_52,21,4015.38,4010.26,4097.95,4064.62,4036.41,4080,4079.49,4093.85,4063.08,4211.28,3937.44,4065.13,3914.36,4050.26,0
11_55_52,22,4057.44,4031.28,4096.41,4068.72,4091.79,4091.28,4089.23,4093.85,4068.72,4191.79,3950.26,4072.31,3917.95,4061.03,0
11_55_52,23,4066.67,4047.69,4106.15,4074.87,4100,4097.95,4095.38,4101.03,4086.15,4177.95,3942.56,4093.85,3880,4032.82,0
11_55_52,24,4032.31,4047.69,4102.05,4073.33,4061.03,4092.82,4091.79,4106.67,4096.41,4207.18,3934.36,4080.51,3882.05,4030.77,0
11_55_52,25,4026.67,4049.23,4090.26,4067.18,4063.59,4096.41,4090.26,4102.05,4088.72,4224.1,3946.15,4053.85,3900.51,4040,0
11_55_52,26,4032.31,4045.13,4096.92,4065.64,4084.62,4105.64,4085.64,4092.82,4075.38,4195.9,3950.77,4051.28,3883.59,4016.41,0
11_55_52,27,4009.23,4030.77,4108.21,4056.41,4066.15,4098.97,4078.97,4088.72,4066.67,4181.03,3916.92,4069.74,3854.36,3983.08,0
11_55_52,28,4006.15,4036.92,4101.03,4053.85,4053.33,4091.79,4084.1,4089.23,4068.72,4211.28,3901.54,4082.56,3849.74,3974.36,0
11_55_52,29,4028.21,4065.64,4089.74,4075.38,4079.49,4103.59,4090.77,4094.36,4076.41,4258.97,3957.95,4074.36,3875.38,4005.13,0
11_55_52,30,4035.9,4072.31,4091.28,4081.03,4068.21,4106.67,4086.15,4098.46,4068.21,4271.79,3984.62,4067.69,3889.23,4024.1,0
11_55_52,31,4016.92,4044.62,4096.41,4038.97,4025.13,4086.15,4074.87,4092.31,4050.77,4234.87,3921.54,4072.31,3869.23,3986.15,0
11_55_52,32,3972.82,4035.9,4105.13,4029.74,4048.72,4082.56,4074.36,4088.72,4054.87,4221.54,3888.21,4080,3853.33,3951.28,0
11_55_52,33,3954.36,4058.46,4106.67,4062.05,4080,4093.85,4079.49,4094.87,4057.95,4265.64,3913.85,4089.23,3843.08,3943.08,0
11_55_52,34,3990.26,4067.69,4096.41,4058.97,4055.9,4093.33,4075.9,4089.23,4039.49,4299.49,3928.21,4081.54,3831.79,3937.95,0
11_55_52,35,4023.08,4082.05,4089.74,4063.08,4063.59,4098.97,4073.33,4075.9,4029.23,4300.51,3930.26,4063.59,3845.13,3953.85,0
11_55_52,36,4009.23,4111.28,4089.74,4090.77,4100,4112.31,4077.95,4078.97,4033.33,4311.79,3935.38,4067.69,3856.92,3967.18,0
11_55_52,37,3989.23,4107.18,4085.13,4087.69,4079.49,4103.08,4072.82,4081.54,4023.08,4315.9,3932.31,4075.38,3847.69,3934.87,0
11_55_52,38,3986.67,4082.05,4088.72,4051.28,4043.08,4087.69,4061.03,4075.38,4006.15,4289.74,3912.31,4076.92,3834.87,3906.67,0
11_55_52,39,3992.82,4082.56,4100.51,4027.69,4047.69,4090.26,4060,4086.15,4011.28,4304.62,3908.21,4087.69,3822.56,3921.54,0
11_55_52,40,3999.49,4095.38,4095.9,4043.59,4046.67,4089.74,4062.56,4097.44,4032.82,4364.1,3914.87,4095.9,3812.31,3921.03,0
11_55_52,41,3976.92,4094.87,4090.26,4063.59,4031.79,4081.54,4056.41,4078.97,4044.62,4388.21,3896.41,4094.87,3822.56,3889.23,0
11_55_52,42,3961.03,4102.05,4092.31,4046.15,4049.23,4087.69,4056.41,4075.38,4045.64,4383.08,3886.15,4093.85,3851.28,3883.59,0
11_55_52,43,3979.49,4129.74,4082.05,4031.79,4075.38,4096.41,4063.59,4104.1,4048.21,4408.72,3923.59,4087.69,3885.13,3908.21,0
11_55_53,44,3984.62,4142.05,4066.15,4057.44,4065.64,4092.82,4063.08,4097.44,4038.46,4435.38,3931.28,4083.08,3903.59,3904.62,0
11_55_53,45,3976.92,4123.59,4070.26,4060,4049.74,4091.79,4057.44,4065.13,4024.1,4451.79,3882.56,4097.95,3895.9,3876.92,0
11_55_53,46,3981.54,4122.05,4070.77,4038.97,4061.54,4098.97,4059.49,4072.31,4026.15,4479.49,3879.49,4108.21,3903.59,3876.92,0
11_55_53,47,3998.46,4151.79,4057.95,4054.87,4061.03,4097.95,4063.59,4095.9,4022.56,4483.59,3902.05,4107.69,3917.44,3882.56,0
11_55_53,48,4001.54,4163.59,4055.38,4068.21,4047.18,4092.31,4061.03,4088.72,4014.36,4496.92,3904.1,4106.67,3908.21,3874.36,0
11_55_53,49,3996.92,4147.18,4064.62,4045.13,4044.62,4088.72,4057.95,4090.26,4016.92,4526.67,3888.72,4116.41,3890.77,3847.18,0
11_55_53,50,4003.59,4145.13,4076.92,4035.9,4047.69,4088.72,4060.51,4109.23,4017.44,4516.41,3856.41,4148.72,3881.03,3811.79,0
11_55_53,51,4005.64,4164.1,4079.49,4055.38,4062.56,4091.28,4060.51,4099.49,4001.03,4507.18,3876.41,4153.85,3886.15,3828.21,0
11_55_53,52,3997.44,4169.74,4073.85,4055.38,4071.79,4090.26,4061.54,4087.18,3988.72,4527.18,3910.26,4129.23,3891.28,3872.31,0
11_55_53,53,3982.05,4156.92,4075.38,4041.54,4056.92,4087.69,4068.21,4103.08,3992.82,4530.77,3885.13,4135.9,3888.72,3863.59,0
11_55_53,54,3979.49,4171.79,4077.95,4061.54,4057.95,4089.74,4070.77,4112.82,3998.46,4517.95,3887.69,4157.95,3887.69,3834.87,0
11_55_53,55,3994.87,4205.13,4066.15,4085.13,4071.28,4087.18,4064.1,4096.92,3996.41,4522.05,3933.33,4145.13,3894.87,3845.13,0
11_55_53,56,4010.26,4197.44,4060.51,4063.59,4061.03,4077.44,4060,4088.21,3986.15,4503.59,3901.03,4129.74,3890.77,3854.87,0
11_55_53,57,4006.15,4183.08,4068.21,4042.56,4058.46,4074.87,4062.56,4105.13,3982.05,4483.08,3865.13,4146.15,3878.46,3838.97,0
11_55_53,58,4004.62,4206.15,4061.03,4048.72,4065.13,4078.46,4063.08,4108.21,3975.9,4502.05,3906.67,4151.28,3876.41,3832.82,0
11_55_53,59,4004.62,4209.23,4056.41,4043.59,4035.9,4073.33,4057.95,4088.21,3953.33,4490.77,3885.64,4152.31,3861.54,3828.72,0
11_55_53,60,3987.69,4193.33,4068.72,4040.51,4032.82,4071.79,4057.95,4093.33,3941.54,4450.26,3839.49,4157.95,3855.38,3827.69,0
11_55_53,61,3992.31,4210.26,4060.51,4048.21,4071.28,4081.03,4062.56,4104.1,3946.67,4454.36,3887.18,4140,3869.74,3839.49,0
11_55_53,62,4004.1,4215.38,4058.97,4028.21,4067.69,4078.97,4056.41,4075.38,3940.51,4458.97,3913.33,4137.44,3864.1,3836.41,0
11_55_53,63,3981.03,4211.28,4075.9,4026.67,4054.87,4073.33,4050.26,4065.64,3939.49,4437.44,3873.85,4168.21,3867.69,3831.28,0
11_55_53,64,3974.87,4252.31,4060.51,4067.69,4074.87,4078.46,4056.41,4101.54,3966.67,4469.74,3888.21,4173.33,3902.56,3855.9,0
11_55_53,65,4013.85,4280.51,4038.46,4080,4067.69,4080,4061.03,4112.82,3980.51,4498.97,3933.33,4156.41,3912.31,3876.92,0
11_55_53,66,4033.85,4254.87,4064.1,4041.54,4043.59,4073.85,4059.49,4098.97,3965.64,4445.64,3903.59,4181.03,3892.31,3857.95,0
11_55_53,67,4016.41,4229.74,4095.9,4012.82,4060.51,4073.85,4060,4105.64,3967.18,4428.72,3869.74,4212.82,3885.64,3854.36,0
11_55_53,68,4004.62,4252.31,4082.56,4044.1,4075.38,4082.56,4062.05,4115.38,3978.97,4472.82,3904.1,4205.13,3883.08,3872.82,0
11_55_53,69,4018.46,4295.38,4056.41,4070.77,4057.44,4091.28,4063.59,4112.82,3972.82,4463.59,3920.51,4194.36,3872.82,3884.1,0
11_55_53,70,4009.23,4276.92,4077.95,4018.46,4041.03,4089.74,4062.05,4106.15,3964.62,4425.64,3878.97,4201.54,3866.15,3873.33,0
11_55_53,71,3971.79,4241.54,4105.13,3988.21,4051.79,4085.13,4057.44,4102.56,3977.95,4440,3869.23,4212.82,3864.1,3847.69,0
11_55_53,72,3979.49,4288.72,4073.33,4054.36,4078.46,4090.77,4056.92,4112.31,4001.54,4474.87,3921.03,4206.67,3885.13,3877.95,0
11_55_53,73,4008.72,4338.97,4045.13,4080.51,4084.1,4096.41,4060,4122.56,4009.74,4473.33,3940.51,4194.87,3906.15,3941.54,0
11_55_53,74,4000.51,4316.41,4073.33,4026.67,4070.77,4091.79,4062.56,4126.15,4015.9,4444.62,3907.18,4207.69,3887.18,3935.9,0
11_55_53,75,3989.74,4306.67,4092.31,4016.92,4060.51,4090.26,4064.62,4124.62,4022.05,4425.64,3895.9,4225.13,3869.74,3884.1,0
11_55_53,76,3983.08,4317.44,4081.54,4042.05,4053.85,4092.31,4061.54,4120,4013.33,4425.13,3917.44,4216.41,3883.08,3909.23,0
11_55_53,77,3976.41,4317.95,4073.33,4023.08,4049.74,4091.28,4059.49,4132.82,4007.69,4435.38,3918.46,4221.03,3894.36,3950.77,0
11_55_53,78,4009.74,4334.36,4083.59,4006.67,4048.21,4090.77,4058.46,4135.9,4006.67,4443.59,3881.54,4241.54,3884.62,3916.92,0
11_55_53,79,4018.97,4330.26,4129.23,4016.92,4047.18,4089.23,4051.28,4102.05,4002.05,4435.38,3862.05,4242.05,3870.26,3892.82,0
11_55_53,80,3967.18,4325.13,4160.51,4017.95,4066.67,4094.36,4048.72,4090.77,4009.23,4431.28,3908.21,4232.31,3902.56,3931.79,0
11_55_53,81,3974.87,4355.38,4177.95,4023.08,4069.74,4105.64,4058.46,4116.92,4023.59,4427.69,3938.46,4236.92,3935.9,3968.72,0
11_55_53,82,4031.28,4360,4235.38,4039.49,4047.69,4107.18,4065.64,4127.69,4031.79,4404.1,3901.03,4266.15,3896.41,3950.77,0
11_55_53,83,4017.44,4343.08,4258.46,4037.44,4065.64,4098.97,4065.13,4125.64,4040,4403.08,3882.05,4274.87,3889.74,3944.1,0
11_55_53,84,3980.51,4344.1,4205.13,4008.72,4072.82,4090.77,4062.05,4127.69,4036.92,4413.33,3902.56,4260.51,3945.64,3956.41,0
11_55_53,85,3992.31,4333.85,4183.08,3994.36,4037.44,4086.15,4060,4122.56,4028.21,4390.26,3911.28,4264.1,3954.36,3956.92,0
11_55_53,86,4008.21,4319.49,4205.13,4015.38,4044.1,4088.21,4059.49,4128.21,4037.95,4387.69,3905.64,4275.9,3931.79,3971.28,0
11_55_53,87,4011.28,4344.62,4196.92,4047.69,4088.72,4101.03,4062.56,4147.69,4056.41,4416.41,3895.38,4287.18,3948.21,3985.64,0
11_55_53,88,4009.23,4367.18,4190.77,4055.38,4073.33,4106.15,4063.59,4152.82,4069.74,4403.08,3895.9,4310.77,3957.44,3990.77,0
11_55_53,89,4013.33,4340.51,4212.82,4024.62,4025.64,4094.36,4061.03,4151.79,4077.44,4370.26,3914.87,4340,3936.92,3997.44,0
11_55_53,90,4014.36,4328.72,4200.51,4031.28,4040.51,4091.79,4058.97,4158.46,4074.36,4359.49,3932.82,4332.31,3944.1,4010.26,0
11_55_53,91,4000,4347.18,4158.97,4038.97,4060,4096.92,4056.41,4152.82,4070.77,4346.67,3902.56,4328.21,3949.23,4005.13,0
11_55_53,92,4017.95,4328.21,4150.26,3998.97,4033.33,4085.13,4051.79,4129.74,4077.44,4345.13,3843.08,4356.92,3921.03,4000,0
11_55_53,93,4020.51,4284.62,4169.74,3998.46,4034.36,4074.36,4052.82,4120.51,4087.69,4349.74,3822.05,4355.9,3905.13,4010.77,0
11_55_53,94,3949.74,4319.49,4160,4048.21,4088.21,4090.26,4063.08,4145.64,4105.13,4351.28,3867.18,4333.33,3941.03,4011.79,0
11_55_53,95,3941.03,4373.33,4145.64,4059.49,4071.79,4091.79,4062.05,4164.62,4119.49,4361.03,3894.87,4351.28,3976.92,4019.49,0
11_55_53,96,4041.54,4361.54,4158.97,4035.38,4023.59,4072.82,4059.49,4163.59,4125.13,4358.97,3885.13,4377.44,3958.97,4067.18,0
11_55_53,97,4059.49,4371.79,4157.95,4039.49,4061.54,4079.49,4074.36,4184.1,4137.44,4324.1,3895.9,4373.85,3950.77,4114.87,0
11_55_53,98,3965.64,4380.51,4158.97,4044.1,4060,4086.15,4072.31,4192.82,4141.03,4281.03,3873.33,4391.79,3960.51,4083.59,0
11_55_53,99,3936.92,4351.79,4139.49,4016.92,4014.87,4072.82,4049.74,4155.38,4157.44,4289.74,3843.59,4401.03,3956.92,4047.18,0
11_55_53,100,3987.18,4353.85,4103.08,3963.08,4049.74,4074.87,4043.08,4130.26,4192.82,4319.49,3878.46,4354.87,3954.87,4094.36,0
11_55_53,101,3966.15,4357.44,4125.64,3929.23,4075.38,4081.03,4045.64,4143.08,4196.92,4293.33,3915.38,4317.95,3957.95,4147.18,0
11_55_53,102,3920.51,4397.44,4158.46,3967.69,4057.95,4075.9,4047.18,4157.95,4189.23,4256.41,3873.33,4367.69,3931.28,4129.23,0
11_55_53,103,3967.18,4506.67,4144.1,3968.21,4063.59,4078.46,4050.26,4157.44,4197.95,4281.03,3837.95,4437.95,3895.38,4102.05,0
11_55_53,104,3958.46,4528.21,4171.79,3895.38,4045.13,4075.38,4042.56,4151.28,4183.08,4277.95,3876.41,4377.95,3943.08,4126.67,0
11_55_53,105,3885.13,4513.85,4234.87,3877.44,4031.28,4068.21,4036.92,4157.44,4162.05,4217.44,3855.38,4345.64,3964.1,4102.05,0
11_55_53,106,3936.41,4671.28,4212.82,3921.54,4066.67,4079.49,4041.54,4169.74,4174.36,4225.13,3797.44,4453.33,3874.87,4051.28,0
11_55_53,107,4005.13,4827.69,4180.51,3905.64,4037.95,4071.79,4034.87,4147.18,4175.38,4248.72,3821.54,4428.21,3880.51,4112.31,0
11_55_53,108,3959.49,4831.28,4209.74,3851.28,3993.85,4048.21,4032.31,4130.26,4170.26,4227.18,3868.21,4278.97,4025.64,4191.28,0
11_55_53,109,3963.08,4938.46,4214.36,3865.13,4045.64,4063.59,4043.08,4162.05,4192.31,4233.33,3823.59,4343.59,4016.92,4131.28,0
11_55_53,110,4036.41,5182.05,4189.74,3923.08,4071.79,4084.1,4032.31,4154.36,4195.38,4267.18,3800.51,4449.23,3891.28,4098.46,0
11_55_53,110,4036.41,5182.05,4189.74,3923.08,4071.79,4084.1,4032.31,4154.36,4195.38,4267.18,3800.51,4449.23,3891.28,4098.46,0
11_55_53,111,4048.72,5314.87,4190.26,3934.87,4033.33,4068.21,4013.33,4101.03,4176.41,4268.21,3823.08,4356.92,3907.69,4175.9,0
11_55_53,112,4061.54,5412.82,4195.9,3916.92,4050.77,4057.95,4021.54,4112.31,4182.05,4238.97,3760,4356.92,3933.85,4154.36,0
11_55_53,113,4092.31,5632.82,4170.77,3926.15,4087.18,4073.33,4029.74,4146.67,4197.44,4231.28,3719.49,4437.95,3896.92,4105.13,0
11_55_53,114,4121.54,5845.64,4152.31,3932.31,4070.77,4079.49,4018.46,4127.18,4210.77,4249.23,3755.38,4373.33,3932.82,4171.79,0
11_55_53,115,4165.64,5993.85,4160,3912.31,4054.36,4073.85,4011.28,4111.28,4236.92,4263.08,3749.74,4327.18,3983.08,4216.92,0
11_55_53,116,4184.1,6200,4144.62,3905.64,4069.23,4074.87,4017.95,4122.56,4233.33,4248.72,3697.95,4392.31,3960,4175.9,0
11_55_53,117,4177.95,6396.41,4113.33,3904.1,4071.28,4077.44,4022.05,4131.79,4236.92,4267.18,3693.85,4411.79,3949.23,4163.59,0
11_55_53,118,4203.59,6457.95,4103.59,3893.85,4071.28,4081.54,4018.97,4131.79,4280,4326.15,3714.36,4373.85,3967.69,4182.56,0
11_55_53,119,4268.72,6478.46,4103.59,3898.97,4076.92,4091.79,4017.44,4110.26,4252.82,4341.54,3697.44,4370.77,3946.15,4173.85,0
11_55_53,120,4336.41,6507.18,4094.36,3908.72,4067.18,4089.23,4016.92,4089.74,4168.72,4349.23,3687.69,4348.72,3924.62,4169.23,0
11_55_53,121,4402.56,6503.59,4089.74,3914.36,4074.36,4084.1,4017.44,4108.72,4177.44,4416.41,3713.33,4274.87,3925.13,4173.85,0
11_55_53,122,4468.72,6454.87,4089.74,3921.03,4093.33,4093.33,4015.9,4117.95,4218.97,4490.77,3735.9,4186.15,3923.08,4168.21,0
11_55_53,123,4535.9,6388.72,4092.82,3934.87,4095.9,4089.74,4013.33,4105.13,4195.9,4531.79,3736.92,4138.46,3923.08,4157.95,0
11_55_53,124,4613.85,6336.92,4100.51,3964.62,4103.59,4075.9,4022.56,4137.95,4214.87,4587.18,3768.21,4157.44,3944.62,4170.26,0
11_55_53,125,4680.51,6275.9,4108.21,3978.46,4110.26,4085.13,4031.28,4166.67,4248.21,4619.49,3817.95,4169.74,3964.62,4194.87,0
11_55_53,126,4737.44,6190.77,4115.38,3964.1,4093.85,4100,4026.15,4130.26,4202.56,4565.13,3827.69,4141.03,3950.26,4186.67,0
11_55_53,127,4808.21,6114.87,4123.59,3977.44,4085.64,4094.36,4018.46,4098.97,4177.95,4499.49,3831.79,4108.72,3942.05,4159.49,0
11_55_53,128,4881.03,6058.46,4133.85,4019.49,4101.54,4088.21,4016.92,4105.13,4198.46,4460,3859.49,4088.21,3960,4143.59,0
11_55_53,8,5246.67,5535.9,4055.9,4273.85,4108.72,4071.79,4020.51,4106.67,4118.97,4310.26,3964.1,3991.28,3962.56,4108.72,0
11_55_53,9,5280.51,5494.87,4013.85,4278.46,4104.1,4074.87,4016.41,4114.87,4096.92,4295.9,3983.08,3995.9,3985.13,4137.44,0
11_55_53,10,5287.18,5442.05,3962.05,4276.41,4101.54,4065.13,4005.64,4098.46,4078.97,4261.03,3984.1,3981.54,3994.36,4144.62,0
11_55_53,11,5285.13,5391.28,3958.97,4274.36,4095.38,4056.41,4007.18,4085.64,4076.41,4237.95,3994.36,3961.54,4013.33,4149.74,0
11_55_53,12,5291.28,5357.44,3984.1,4281.54,4091.28,4060,4017.95,4097.44,4077.44,4248.21,4007.18,3955.9,4037.95,4169.74,0
11_55_53,13,5292.82,5327.69,3991.79,4295.38,4103.08,4072.82,4025.64,4108.72,4068.72,4274.36,4011.79,3953.85,4049.23,4196.41,0
11_55_53,14,5278.97,5292.31,3967.18,4291.28,4108.21,4079.49,4023.59,4107.69,4065.13,4302.05,4012.82,3944.62,4048.72,4223.59,0
11_55_53,15,5264.62,5248.21,3931.79,4274.87,4096.92,4072.31,4018.97,4108.21,4064.1,4317.44,4015.9,3938.46,4046.15,4251.28,0
11_55_53,16,5256.92,5202.56,3927.18,4264.1,4091.79,4065.13,4016.92,4104.1,4044.62,4308.72,4030.26,3942.05,4049.74,4285.13,0
11_55_53,17,5243.08,5162.56,3944.1,4262.56,4095.38,4061.54,4015.38,4089.23,4014.36,4296.41,4044.1,3939.49,4058.46,4313.33,0
11_55_53,18,5222.56,5125.13,3946.15,4262.56,4094.87,4060,4020,4087.18,4001.54,4302.05,4042.05,3930.77,4069.74,4327.18,0
11_55_53,19,5205.13,5093.33,3942.05,4254.36,4090.26,4065.13,4027.18,4095.38,4006.15,4306.67,4036.92,3927.18,4088.21,4339.49,0
11_55_53,20,5186.67,5061.03,3943.59,4240,4087.69,4066.15,4026.67,4088.72,4004.62,4289.74,4040,3926.67,4108.72,4352.82,0
11_55_53,21,5171.79,5027.69,3947.18,4234.87,4100.51,4062.56,4026.15,4087.69,3997.95,4265.64,4048.72,3932.82,4128.72,4366.15,0
11_55_53,22,5161.03,4995.38,3951.79,4231.79,4111.79,4059.49,4030.77,4094.36,3990.77,4234.87,4063.59,3944.1,4152.31,4384.1,0
11_55_53,23,5145.13,4958.97,3948.21,4222.56,4105.13,4056.41,4028.21,4086.67,3983.08,4207.18,4072.31,3943.59,4170.26,4399.49,0
11_55_53,24,5129.74,4926.15,3946.15,4223.59,4108.72,4063.59,4029.23,4079.49,3978.97,4193.85,4077.44,3939.49,4178.46,4405.13,0
11_55_53,25,5125.64,4907.69,3954.87,4234.87,4122.05,4075.38,4046.15,4092.31,3980,4165.64,4099.49,3951.28,4186.67,4417.95,0
11_55_53,26,5114.36,4875.38,3953.85,4227.69,4110.26,4066.67,4049.74,4091.79,3977.95,4133.33,4117.95,3958.46,4190.77,4432.31,0
11_55_53,27,5085.64,4822.56,3943.59,4203.08,4095.9,4048.21,4032.31,4072.82,3970.26,4133.33,4110.77,3946.15,4187.69,4428.21,0
11_55_53,28,5064.62,4786.15,3945.64,4196.41,4112.82,4054.87,4029.23,4075.9,3970.77,4138.46,4111.79,3941.03,4194.36,4429.23,0
11_55_53,29,5052.82,4769.23,3954.36,4204.62,4125.13,4072.82,4043.59,4087.69,3976.92,4118.46,4130.77,3945.64,4202.56,4441.03,0
11_55_53,30,5031.79,4740.51,3956.92,4202.56,4109.23,4066.67,4045.64,4081.03,3970.26,4094.36,4138.46,3945.13,4195.9,4440.51,0
11_55_53,31,5006.15,4699.49,3951.79,4188.21,4100.51,4048.72,4033.33,4066.67,3958.46,4087.18,4135.9,3938.97,4186.67,4430.77,0
11_55_53,32,4989.74,4669.23,3950.77,4182.05,4112.31,4048.72,4035.38,4065.13,3957.95,4090.26,4144.62,3941.54,4186.15,4432.82,0
11_55_53,33,4976.92,4655.38,3957.95,4190.26,4115.38,4061.03,4049.23,4070.26,3959.49,4087.69,4153.33,3949.74,4187.69,4441.54,0
11_55_53,34,4963.59,4638.97,3962.05,4193.33,4110.26,4061.54,4051.79,4070.77,3960,4072.31,4156.41,3949.23,4187.69,4440.51,0
11_55_53,35,4953.33,4613.85,3961.03,4186.67,4117.95,4057.95,4051.79,4073.33,3966.67,4075.9,4163.59,3948.21,4192.82,4438.46,0
11_55_53,36,4944.1,4593.85,3960.51,4183.08,4126.67,4060.51,4060,4084.62,3972.82,4098.97,4174.36,3956.41,4198.46,4444.1,0
11_55_53,37,4937.44,4581.54,3962.56,4191.79,4125.13,4063.08,4061.54,4092.82,3974.87,4109.74,4183.59,3962.05,4201.03,4449.23,0
11_55_53,38,4928.72,4566.15,3964.1,4202.05,4122.05,4060.51,4057.44,4088.21,3976.92,4108.72,4188.21,3958.97,4203.08,4447.69,0
11_55_53,39,4910.77,4542.56,3965.64,4192.31,4122.56,4060.51,4060,4084.1,3975.38,4093.33,4187.18,3959.49,4204.1,4450.26,0
11_55_53,40,4886.67,4513.33,3964.1,4172.31,4122.05,4061.03,4062.56,4086.15,3975.9,4066.15,4186.15,3962.56,4200,4446.67,0
11_55_53,41,4858.46,4485.64,3961.03,4165.64,4121.03,4053.33,4059.49,4081.54,3976.41,4058.46,4188.72,3955.9,4188.72,4430.77,0
11_55_54,42,4834.36,4461.03,3960.51,4169.74,4119.49,4047.69,4057.44,4078.97,3972.31,4053.85,4183.08,3950.26,4184.1,4423.08,0
11_55_54,43,4822.05,4442.05,3963.08,4169.74,4121.03,4054.87,4060,4087.69,3981.54,4037.44,4184.62,3954.36,4191.28,4426.67,0
11_55_54,44,4812.82,4427.18,3964.1,4170.26,4122.56,4062.56,4064.1,4094.87,3994.87,4047.69,4196.41,3965.13,4201.03,4429.23,0
11_55_54,45,4792.82,4406.67,3965.64,4170.77,4122.56,4060,4066.15,4088.72,3988.21,4062.56,4198.46,3970.26,4201.54,4427.18,0
11_55_54,46,4769.23,4384.62,3965.13,4164.62,4124.1,4057.44,4065.64,4081.03,3972.31,4048.21,4198.97,3972.31,4196.92,4425.64,0
11_55_54,47,4746.67,4369.74,3964.62,4159.49,4122.56,4059.49,4067.18,4084.62,3956.41,4043.59,4203.59,3973.33,4191.28,4424.62,0
11_55_54,48,4726.15,4355.38,3965.13,4159.49,4126.15,4060,4073.33,4088.21,3937.95,4049.23,4198.97,3972.31,4189.23,4427.18,0
11_55_54,49,4711.28,4338.46,3966.15,4160.51,4136.41,4057.95,4073.85,4081.54,3921.54,4022.56,4190.26,3970.26,4183.59,4426.67,0
11_55_54,50,4696.92,4324.1,3965.13,4156.92,4126.67,4053.33,4064.62,4071.28,3904.62,3994.36,4188.72,3963.08,4170.77,4417.95,0
11_55_54,51,4675.9,4308.72,3963.59,4153.33,4103.59,4049.23,4060.51,4068.21,3884.1,3997.44,4188.72,3959.49,4168.72,4412.31,0
11_55_54,52,4653.33,4291.28,3964.1,4152.31,4108.21,4046.15,4065.64,4065.64,3862.05,3995.9,4178.97,3960,4166.67,4405.13,0
11_55_54,53,4635.38,4277.44,3966.67,4150.77,4125.64,4047.69,4069.23,4058.46,3840,3978.97,4172.31,3956.92,4153.33,4395.9,0
11_55_54,54,4624.1,4270.77,3970.26,4152.82,4118.97,4053.33,4072.82,4061.54,3826.67,3967.18,4182.05,3963.59,4155.9,4398.46,0
11_55_54,55,4611.28,4262.05,3972.82,4156.41,4114.87,4057.95,4075.38,4071.79,3825.64,3965.64,4189.74,3973.85,4175.38,4402.56,0
11_55_54,56,4586.67,4241.54,3969.74,4146.15,4123.59,4053.33,4068.72,4066.67,3815.9,3952.31,4183.08,3965.64,4172.82,4391.28,0
11_55_54,57,4562.05,4220,3966.67,4133.85,4116.92,4044.62,4066.15,4055.38,3799.49,3919.49,4181.03,3953.85,4156.41,4379.49,0
11_55_54,58,4552.82,4214.87,3970.77,4134.87,4109.74,4047.69,4073.85,4057.95,3804.1,3902.05,4181.54,3957.44,4162.05,4380.51,0
11_55_54,59,4548.21,4216.92,3973.33,4142.56,4123.59,4053.33,4076.92,4070.26,3814.36,3907.69,4174.87,3962.56,4178.46,4381.54,0
11_55_54,60,4533.33,4204.62,3972.31,4142.05,4125.13,4050.77,4073.85,4069.74,3808.21,3898.46,4174.87,3962.56,4173.33,4372.82,0
11_55_54,61,4514.87,4187.69,3973.33,4130.77,4112.31,4046.67,4073.33,4058.97,3805.64,3877.44,4181.03,3966.15,4165.64,4365.64,0
11_55_54,62,4504.1,4181.03,3978.46,4127.18,4114.36,4048.72,4074.87,4065.13,3815.38,3881.03,4185.64,3970.26,4175.38,4366.15,0
11_55_54,63,4495.38,4171.79,3978.97,4133.33,4120.51,4048.72,4072.82,4076.41,3815.9,3889.74,4188.21,3972.31,4179.49,4366.15,0
11_55_54,64,4485.13,4160,3978.97,4133.33,4120,4051.28,4081.03,4073.85,3816.41,3875.9,4187.18,3974.87,4172.31,4361.03,0
11_55_54,65,4471.28,4156.92,3980,4131.28,4113.85,4055.9,4092.82,4070.77,3827.18,3867.18,4182.05,3973.85,4170.77,4354.87,0
11_55_54,66,4460.51,4154.36,3979.49,4134.87,4111.28,4053.33,4091.28,4071.79,3834.87,3861.54,4181.54,3972.82,4173.33,4350.26,0
11_55_54,67,4459.49,4148.21,3983.59,4138.46,4122.56,4056.41,4092.82,4074.36,3848.21,3847.18,4192.31,3981.54,4180,4353.33,0
11_55_54,68,4452.82,4140,3989.74,4137.95,4129.23,4063.08,4103.08,4080.51,3866.67,3846.67,4205.13,3993.85,4188.72,4358.46,0
11_55_54,69,4432.82,4126.67,3986.15,4133.33,4122.56,4061.54,4101.54,4081.54,3865.64,3849.23,4198.97,3989.23,4184.1,4349.74,0
11_55_54,70,4418.46,4114.87,3982.05,4124.62,4119.49,4058.97,4094.36,4076.92,3861.03,3834.36,4184.1,3983.59,4173.85,4338.97,0
11_55_54,71,4411.79,4108.72,3986.67,4124.1,4119.49,4055.38,4097.44,4077.44,3873.85,3817.44,4185.64,3989.23,4172.31,4337.95,0
11_55_54,72,4392.82,4095.38,3987.18,4124.1,4108.21,4044.62,4095.38,4067.69,3879.49,3811.79,4186.15,3983.08,4169.74,4330.26,0
11_55_54,73,4372.31,4085.64,3986.67,4117.44,4106.67,4044.62,4091.28,4059.49,3878.97,3822.56,4180.51,3972.31,4163.59,4320.51,0
11_55_54,74,4372.82,4092.82,3994.36,4123.08,4117.95,4057.44,4099.49,4074.87,3896.92,3835.9,4190.26,3983.08,4169.23,4325.13,0
11_55_54,75,4376.92,4095.9,3998.46,4131.79,4123.59,4062.56,4106.67,4081.03,3911.28,3826.15,4197.95,3995.9,4177.44,4329.23,0
11_55_54,76,4364.1,4083.59,3995.9,4128.21,4126.67,4061.54,4106.67,4072.31,3909.23,3819.49,4192.31,3994.36,4175.38,4319.49,0
11_55_54,77,4348.72,4074.87,3997.44,4124.1,4123.08,4065.64,4107.69,4081.54,3913.85,3846.15,4195.38,3993.85,4174.36,4311.28,0
11_55_54,78,4342.05,4071.79,3999.49,4127.69,4115.9,4069.23,4111.28,4093.33,3929.74,3865.13,4205.13,3995.9,4179.49,4313.33,0
11_55_54,79,4329.23,4060,3996.92,4126.15,4118.46,4066.15,4108.72,4083.08,3929.74,3842.05,4198.46,3990.77,4173.85,4310.26,0
11_55_54,80,4310.26,4045.64,3994.36,4116.92,4122.56,4060.51,4101.54,4072.82,3923.08,3819.49,4189.23,3987.18,4166.15,4299.49,0
11_55_54,81,4300.51,4040,3996.92,4115.38,4120,4058.97,4100.51,4074.36,3930.77,3818.97,4186.67,3989.23,4169.74,4291.79,0
11_55_54,82,4293.85,4034.36,3999.49,4116.41,4117.44,4060.51,4104.1,4075.9,3940.51,3819.49,4176.41,3986.15,4167.18,4287.69,0
11_55_54,83,4280.51,4022.05,3996.41,4112.31,4112.31,4060,4107.18,4080.51,3938.97,3816.92,4165.13,3976.41,4153.85,4280,0
11_55_54,84,4263.08,4010.26,3992.82,4107.69,4102.56,4057.95,4106.15,4079.49,3938.46,3810.77,4163.08,3971.28,4144.1,4266.15,0
11_55_54,85,4251.28,4005.64,3997.44,4106.15,4111.28,4057.95,4106.67,4070.26,3943.08,3809.74,4167.18,3976.92,4143.59,4262.56,0
11_55_54,86,4249.74,4002.05,4002.56,4112.31,4122.56,4059.49,4106.67,4063.08,3946.67,3809.74,4171.28,3987.18,4152.31,4269.74,0
11_55_54,87,4248.21,3994.87,4002.05,4118.46,4114.36,4058.46,4105.13,4062.56,3958.46,3807.69,4169.74,3990.26,4162.05,4269.23,0
11_55_54,88,4246.15,3991.28,4003.08,4122.05,4111.28,4058.46,4107.18,4067.69,3982.56,3812.31,4169.74,3986.67,4169.74,4269.23,0
11_55_54,89,4245.64,3993.85,4007.18,4124.62,4113.85,4060.51,4109.23,4075.9,4005.64,3819.49,4176.41,3990.26,4174.87,4278.97,0
11_55_54,90,4238.97,3994.36,4008.21,4124.62,4110.26,4058.97,4107.18,4077.44,4013.85,3823.08,4176.41,3998.46,4172.31,4278.46,0
11_55_54,91,4227.69,3985.13,4006.67,4123.59,4114.36,4059.49,4105.64,4072.82,4010.26,3820,4171.79,3998.97,4170.77,4268.21,0
11_55_54,92,4220,3972.31,4007.18,4123.08,4123.08,4062.56,4109.23,4078.46,4011.79,3811.28,4172.31,3993.85,4173.33,4262.56,0
11_55_54,93,4207.69,3961.54,4006.15,4117.44,4121.54,4061.54,4108.21,4078.97,4016.41,3801.03,4161.03,3989.23,4165.13,4251.28,0
11_55_54,94,4195.9,3953.85,4004.62,4111.79,4120.51,4061.54,4103.59,4063.59,4012.82,3802.56,4153.85,3989.23,4157.95,4245.64,0
11_55_54,95,4198.46,3957.44,4007.69,4120.51,4126.15,4067.69,4107.69,4065.64,4018.46,3823.59,4175.38,4001.03,4175.38,4261.03,0
11_55_54,96,4201.03,3960.51,4011.28,4129.74,4121.54,4069.74,4115.9,4081.54,4034.36,3849.74,4189.23,4010.26,4189.23,4268.72,0
11_55_54,97,4185.64,3945.64,4007.69,4121.54,4113.33,4063.08,4109.23,4072.31,4028.21,3850.26,4172.31,3998.46,4176.92,4256.41,0
11_55_54,98,4172.31,3929.23,4006.67,4115.38,4113.85,4059.49,4096.41,4059.49,4013.33,3823.59,4164.1,3987.69,4171.28,4246.67,0
11_55_54,99,4170.77,3924.1,4009.23,4117.95,4121.03,4063.59,4100,4071.28,4022.56,3820.51,4171.79,3992.82,4179.49,4248.21,0
11_55_54,100,4165.13,3915.9,4009.74,4116.92,4119.49,4064.62,4107.69,4074.87,4033.33,3835.9,4168.21,3994.87,4176.41,4248.21,0
11_55_54,101,4151.28,3904.62,4006.67,4110.26,4112.31,4058.46,4101.03,4063.08,4020.51,3828.72,4161.54,3987.69,4169.74,4240,0
11_55_54,102,4142.05,3898.46,4005.13,4108.21,4118.46,4058.97,4098.46,4062.05,4003.59,3824.1,4167.18,3986.67,4172.31,4234.36,0
11_55_54,103,4140,3894.36,4009.74,4114.36,4121.03,4066.67,4107.18,4068.72,4003.59,3845.13,4172.31,3995.9,4179.49,4241.54,0
11_55_54,104,4139.49,3894.36,4015.38,4120.51,4107.18,4064.1,4103.59,4065.13,4005.64,3858.97,4169.74,3999.49,4184.62,4243.08,0
11_55_54,105,4136.41,3893.85,4014.87,4123.59,4110.26,4057.44,4096.92,4057.44,4003.08,3858.46,4167.18,3998.97,4186.67,4237.95,0
11_55_54,106,4129.23,3883.08,4014.87,4122.05,4128.72,4060.51,4105.64,4065.13,4004.62,3862.05,4168.72,4000.51,4184.62,4241.03,0
11_55_54,107,4121.03,3880,4017.44,4121.54,4130.77,4070.77,4112.82,4075.38,4013.33,3863.59,4170.77,4001.03,4183.59,4244.62,0
11_55_54,108,4113.33,3879.49,4014.87,4118.97,4121.54,4078.46,4109.74,4073.33,4017.44,3851.28,4169.74,3994.36,4178.46,4236.41,0
11_55_54,109,4100.51,3864.62,4011.79,4107.69,4116.92,4071.79,4107.18,4070.77,4011.28,3840.51,4161.54,3987.69,4170.77,4226.67,0
11_55_54,110,4095.9,3856.92,4015.38,4102.05,4116.92,4059.49,4107.18,4075.9,4011.28,3853.85,4156.92,3991.28,4174.36,4227.18,0
11_55_54,111,4100.51,3864.62,4019.49,4107.69,4122.05,4060.51,4107.18,4076.41,4020.51,3872.82,4166.15,4001.54,4184.1,4232.31,0
11_55_54,112,4098.46,3868.21,4016.92,4108.72,4117.95,4065.13,4105.13,4071.79,4016.92,3872.31,4174.36,4006.67,4187.18,4237.44,0
11_55_54,113,4086.15,3860,4015.38,4103.08,4102.56,4059.49,4100.51,4063.08,4003.59,3866.15,4170.26,4004.1,4184.62,4232.31,0
11_55_54,114,4081.03,3854.36,4022.05,4106.67,4105.64,4055.9,4101.03,4056.41,4002.56,3857.95,4169.23,4008.21,4183.59,4230.77,0
11_55_54,115,4087.18,3851.28,4029.74,4112.31,4122.05,4066.15,4110.26,4067.18,4007.69,3860,4180.51,4017.95,4184.1,4238.97,0
11_55_54,116,4084.62,3844.62,4029.23,4107.18,4124.62,4074.87,4116.92,4080.51,4006.15,3878.46,4184.1,4022.56,4183.59,4240,0
11_55_54,117,4077.44,3836.92,4027.69,4105.13,4121.03,4075.38,4120,4086.15,4005.64,3892.31,4182.05,4025.64,4185.64,4238.97,0
11_55_54,118,4072.31,3833.85,4027.69,4109.23,4124.1,4076.92,4124.62,4089.74,4007.18,3882.56,4183.59,4026.67,4187.69,4238.97,0
11_55_54,119,4068.72,3835.38,4027.18,4109.23,4123.59,4080.51,4123.08,4086.15,4005.64,3864.1,4178.46,4020.51,4185.13,4234.87,0
11_55_54,120,4066.67,3836.41,4026.15,4107.18,4119.49,4081.54,4114.87,4078.46,4004.1,3860,4170.77,4016.92,4185.64,4226.67,0
11_55_54,121,4061.54,3835.38,4026.67,4108.72,4121.54,4077.95,4109.74,4075.38,4001.54,3865.13,4167.18,4018.97,4185.64,4220.51,0
11_55_54,122,4050.26,3825.64,4026.67,4108.72,4119.49,4071.28,4110.26,4072.31,3998.97,3867.69,4156.92,4015.38,4178.46,4211.79,0
11_55_54,123,4041.54,3812.31,4029.23,4105.64,4109.23,4063.59,4113.85,4072.82,4002.05,3862.05,4153.85,4016.92,4174.87,4207.69,0
11_55_54,124,4043.59,3810.77,4032.82,4105.64,4105.64,4067.18,4120.51,4088.21,4013.33,3858.97,4168.21,4027.69,4182.56,4215.38,0
11_55_54,125,4045.13,3815.38,4032.31,4106.15,4114.87,4075.38,4124.62,4100,4020,3864.62,4174.87,4032.82,4189.74,4215.9,0
11_55_54,126,4036.41,3813.33,4031.28,4106.15,4123.08,4075.38,4123.08,4093.85,4012.31,3866.67,4170.77,4028.72,4184.1,4205.64,0
11_55_54,127,4027.69,3809.23,4032.31,4104.62,4119.49,4079.49,4124.1,4084.62,4010.77,3857.95,4172.82,4024.1,4178.97,4193.85,0
11_55_54,128,4023.59,3807.18,4033.85,4103.08,4110.77,4082.05,4117.95,4080,4021.03,3848.21,4170.26,4019.49,4175.9,4187.69,0
11_55_54,0,4013.33,3802.05,4032.31,4103.59,4109.23,4070.26,4106.67,4071.79,4014.36,3856.41,4160,4012.82,4166.67,4182.05,0
11_55_54,1,4004.1,3797.44,4030.77,4102.05,4112.31,4064.62,4111.79,4067.69,3998.97,3871.79,4155.9,4013.33,4161.03,4177.44,0
11_55_54,2,4016.41,3801.54,4037.44,4104.62,4111.28,4074.87,4127.18,4080.51,4010.77,3877.44,4167.69,4026.67,4169.23,4190.26,0
11_55_54,3,4027.18,3805.13,4045.13,4109.74,4113.85,4080.51,4129.74,4093.33,4031.79,3878.97,4182.05,4037.44,4177.44,4200.51,0
11_55_54,4,4014.36,3802.56,4038.97,4107.69,4123.08,4077.44,4124.1,4088.72,4027.18,3883.08,4180,4030.26,4176.41,4189.74,0
11_55_54,5,4004.62,3800,4033.33,4106.15,4121.54,4074.36,4121.03,4078.97,4016.41,3882.56,4171.79,4021.03,4171.79,4180,0
11_55_54,6,4002.56,3795.38,4034.87,4104.62,4112.31,4071.79,4118.46,4075.9,4018.97,3870.77,4172.31,4020,4167.69,4181.54,0
11_55_54,7,3992.31,3790.26,4034.36,4101.03,4112.82,4071.79,4118.97,4073.33,4018.97,3858.46,4170.77,4017.44,4168.72,4174.36,0
11_55_54,8,3989.74,3795.38,4033.85,4102.56,4117.44,4078.46,4122.56,4074.87,4018.97,3863.08,4167.18,4017.95,4184.62,4165.13,0
11_55_54,9,4000,3804.1,4041.54,4110.77,4117.95,4084.62,4125.13,4087.18,4033.85,3884.62,4175.9,4031.28,4214.36,4173.85,0
11_55_54,10,3997.95,3801.03,4044.62,4111.28,4116.92,4084.1,4125.13,4098.46,4044.62,3896.41,4187.18,4041.03,4242.56,4183.08,0
11_55_54,11,3990.77,3796.41,4042.05,4108.21,4117.95,4076.92,4125.13,4095.9,4037.44,3881.54,4185.64,4038.97,4257.44,4177.95,0
11_55_54,12,3995.38,3798.46,4040,4110.26,4123.08,4076.92,4125.13,4090.26,4032.82,3871.79,4181.54,4040,4264.62,4170.77,0
11_55_54,13,3995.9,3797.44,4038.46,4110.26,4123.59,4085.13,4125.13,4092.82,4036.41,3883.08,4186.67,4044.1,4271.28,4170.26,0
11_55_54,14,3990.26,3791.28,4035.9,4106.15,4114.87,4083.59,4123.08,4090.26,4030.26,3873.33,4193.85,4043.08,4276.41,4170.77,0
11_55_54,15,3988.21,3786.15,4034.87,4103.59,4112.82,4076.92,4118.97,4077.95,4024.62,3858.97,4188.21,4042.56,4276.92,4165.64,0
11_55_54,16,3989.23,3787.69,4038.46,4106.15,4125.13,4081.54,4118.46,4076.92,4035.38,3880.51,4183.08,4046.15,4277.44,4165.13,0
11_55_54,17,3991.28,3790.26,4040.51,4110.26,4126.67,4088.21,4123.08,4083.08,4046.15,3888.21,4192.31,4049.74,4280.51,4171.28,0
11_55_54,18,3989.23,3787.18,4035.9,4107.18,4115.38,4081.03,4122.56,4078.46,4042.05,3867.69,4199.49,4049.23,4277.95,4164.1,0
11_55_54,19,3984.1,3787.18,4035.9,4103.59,4116.41,4076.41,4120,4081.03,4039.49,3878.46,4195.9,4049.23,4268.72,4156.41,0
11_55_54,20,3987.18,3797.95,4044.1,4112.82,4122.56,4087.69,4129.23,4095.9,4049.74,3900,4199.49,4057.44,4270.77,4166.67,0
11_55_54,21,3992.31,3807.18,4044.62,4123.08,4122.56,4100,4136.41,4100,4054.87,3893.85,4209.23,4063.08,4278.46,4172.31,0
11_55_54,22,3979.49,3795.9,4038.46,4111.28,4121.03,4094.36,4128.21,4089.74,4039.49,3876.92,4198.46,4052.31,4268.21,4156.41,0
11_55_54,23,3966.67,3784.1,4037.95,4100,4121.03,4083.59,4115.38,4077.95,4023.08,3863.08,4188.72,4045.13,4250.26,4147.69,0
11_55_54,24,3968.72,3790.77,4042.05,4111.79,4122.56,4085.13,4114.36,4075.9,4028.72,3856.41,4195.9,4053.85,4245.13,4151.79,0
11_55_54,25,3973.33,3797.44,4043.08,4117.95,4125.64,4089.74,4120.51,4089.23,4045.13,3866.15,4195.38,4058.46,4252.31,4153.33,0
11_55_54,26,3972.31,3789.74,4043.59,4109.23,4117.95,4089.74,4122.56,4093.33,4045.13,3872.31,4185.13,4052.31,4255.38,4151.28,0
11_55_54,27,3970.77,3784.1,4042.05,4108.72,4108.72,4089.23,4121.03,4076.92,4032.31,3857.44,4183.59,4050.26,4249.23,4144.62,0
11_55_54,28,3968.21,3788.21,4040.51,4112.82,4116.92,4086.67,4121.03,4074.87,4032.31,3847.18,4188.72,4051.79,4248.21,4142.56,0
11_55_54,29,3967.18,3790.77,4045.64,4112.31,4126.67,4082.05,4124.1,4093.85,4053.85,3856.41,4191.28,4056.92,4254.36,4147.18,0
11_55_54,30,3969.23,3789.74,4052.31,4114.87,4124.1,4081.54,4121.54,4098.97,4058.97,3866.15,4192.82,4060.51,4252.82,4147.18,0
11_55_54,31,3967.18,3792.31,4051.28,4122.05,4122.05,4087.18,4118.46,4085.64,4035.38,3848.72,4193.85,4059.49,4247.18,4144.62,0
11_55_54,32,3968.72,3798.46,4050.26,4123.59,4123.08,4094.87,4127.18,4089.74,4036.92,3825.64,4201.54,4064.62,4249.74,4149.74,0
11_55_54,33,3972.31,3801.54,4052.31,4123.59,4121.54,4097.44,4135.38,4105.13,4060,3840,4203.08,4070.77,4247.18,4150.26,0
11_55_54,34,3965.13,3796.92,4050.77,4123.59,4121.54,4093.33,4129.23,4097.95,4054.87,3866.67,4191.28,4062.56,4239.49,4140.51,0
11_55_54,35,3954.36,3789.74,4049.23,4118.97,4123.59,4091.28,4118.97,4086.67,4046.67,3869.23,4192.31,4055.9,4244.1,4138.46,0
11_55_54,36,3956.92,3788.21,4051.79,4118.46,4123.08,4093.33,4121.03,4096.41,4061.54,3860.51,4203.59,4064.62,4248.72,4145.13,0
11_55_55,37,3959.49,3789.74,4050.77,4122.56,4122.56,4093.85,4124.62,4103.59,4059.49,3850.77,4200.51,4070.26,4238.97,4144.1,0
11_55_55,38,3948.72,3785.64,4046.67,4118.46,4122.56,4091.79,4120,4089.23,4041.54,3836.41,4187.69,4061.54,4224.1,4135.9,0
11_55_55,39,3940.51,3782.05,4050.26,4109.23,4119.49,4092.31,4121.03,4089.74,4049.74,3839.49,4185.13,4057.44,4218.97,4133.85,0
11_55_55,40,3943.08,3785.13,4051.79,4110.77,4116.92,4091.79,4125.13,4106.67,4064.1,3860,4189.23,4063.59,4217.95,4132.82,0
11_55_55,41,3943.08,3787.18,4049.74,4117.95,4120.51,4091.79,4124.62,4106.15,4061.54,3862.05,4191.79,4065.13,4214.87,4127.18,0
11_55_55,42,3939.49,3785.13,4053.33,4116.92,4124.62,4099.49,4123.08,4095.9,4060,3853.85,4188.72,4063.08,4213.85,4126.67,0
11_55_55,43,3941.54,3783.59,4058.97,4112.31,4123.08,4103.08,4123.08,4095.38,4062.56,3849.74,4184.62,4067.69,4219.49,4126.15,0
11_55_55,44,3946.15,3785.64,4058.97,4112.82,4119.49,4094.87,4121.03,4100.51,4059.49,3846.67,4189.74,4075.38,4227.18,4127.69,0
11_55_55,45,3944.62,3785.13,4056.92,4112.31,4116.41,4089.23,4122.05,4101.54,4057.44,3848.72,4200.51,4076.92,4227.18,4130.77,0
11_55_55,46,3938.97,3779.49,4054.36,4107.18,4108.72,4093.85,4128.21,4105.13,4064.1,3846.67,4201.03,4074.36,4219.49,4126.67,0
11_55_55,47,3940,3778.46,4055.38,4106.67,4108.21,4096.41,4127.18,4108.21,4063.08,3835.38,4190.77,4074.36,4216.92,4120.51,0
11_55_55,48,3940.51,3785.64,4059.49,4112.82,4122.56,4091.79,4121.03,4096.41,4053.33,3826.15,4186.15,4074.36,4215.9,4122.05,0
11_55_55,49,3930.26,3783.08,4058.46,4109.74,4123.59,4083.59,4119.49,4087.18,4050.77,3828.21,4182.05,4067.69,4208.72,4117.44,0
11_55_55,50,3928.21,3774.36,4058.46,4103.59,4105.13,4081.03,4121.03,4087.18,4053.33,3826.15,4182.05,4065.64,4205.64,4112.82,0
11_55_55,51,3944.1,3782.05,4066.67,4112.82,4108.21,4091.28,4124.62,4086.67,4053.33,3821.54,4195.38,4080,4216.41,4126.67,0
11_55_55,52,3949.74,3792.31,4070.77,4125.13,4123.08,4097.44,4126.15,4087.69,4064.1,3838.97,4204.1,4091.79,4223.08,4135.9,0
11_55_55,53,3936.41,3788.21,4064.1,4117.44,4121.54,4092.82,4123.59,4097.44,4077.44,3862.56,4200.51,4082.56,4214.36,4126.15,0
11_55_55,54,3927.69,3780.51,4058.97,4106.15,4120,4092.31,4124.1,4102.05,4066.67,3850.26,4197.44,4072.31,4204.1,4118.97,0
11_55_55,55,3927.69,3778.46,4060.51,4108.21,4123.59,4097.44,4128.72,4096.92,4052.31,3831.28,4193.85,4075.38,4201.54,4115.38,0
11_55_55,56,3926.67,3780,4063.08,4108.72,4118.97,4099.49,4127.18,4099.49,4054.36,3837.95,4185.64,4075.9,4198.46,4109.23,0
11_55_55,57,3927.18,3784.62,4062.56,4106.15,4120.51,4097.95,4125.13,4106.67,4066.67,3840.51,4185.13,4073.33,4197.95,4109.23,0
11_55_55,58,3929.74,3790.26,4064.1,4112.31,4122.05,4093.85,4129.74,4108.72,4072.82,3839.49,4188.21,4075.38,4201.54,4113.33,0
11_55_55,59,3929.23,3789.74,4065.13,4114.87,4111.28,4092.31,4130.77,4106.15,4061.54,3849.23,4183.08,4072.82,4197.95,4109.23,0
11_55_55,60,3924.62,3785.13,4065.13,4107.18,4112.31,4092.82,4126.15,4102.56,4054.36,3846.15,4177.95,4067.18,4189.23,4103.59,0
11_55_55,61,3925.13,3785.13,4067.69,4109.23,4122.56,4096.41,4127.69,4106.15,4067.69,3848.21,4184.1,4074.87,4192.82,4107.18,0
11_55_55,62,3928.21,3787.69,4069.74,4115.9,4123.59,4098.97,4131.28,4107.69,4068.72,3860.51,4188.72,4086.15,4198.97,4110.26,0
11_55_55,63,3926.15,3784.62,4066.15,4110.77,4123.08,4094.36,4125.13,4104.1,4062.56,3854.87,4187.69,4088.72,4195.38,4108.72,0
11_55_55,64,3925.13,3780.51,4065.64,4105.13,4120.51,4095.38,4124.62,4112.31,4082.56,3855.38,4190.26,4089.23,4197.44,4110.26,0
11_55_55,65,3925.64,3785.13,4068.21,4108.72,4110.26,4102.05,4133.85,4121.03,4084.62,3867.69,4191.28,4086.15,4203.59,4113.33,0
11_55_55,66,3919.49,3787.69,4066.67,4109.74,4106.15,4097.44,4130.26,4103.59,4051.28,3851.79,4184.1,4075.38,4189.23,4108.72,0
11_55_55,67,3908.72,3781.54,4064.1,4106.67,4114.36,4087.69,4119.49,4083.59,4046.67,3836.41,4174.87,4069.23,4169.23,4096.92,0
11_55_55,68,3908.72,3778.46,4066.15,4106.15,4117.95,4092.82,4124.62,4090.26,4070.77,3857.44,4170.26,4071.79,4172.82,4090.26,0
11_55_55,69,3918.46,3785.13,4070.26,4110.26,4120,4103.59,4137.44,4104.62,4069.74,3874.36,4173.33,4074.87,4182.56,4096.41,0
11_55_55,70,3927.69,3795.38,4073.85,4119.49,4125.13,4106.67,4138.97,4110.77,4058.97,3862.05,4183.08,4082.56,4184.62,4107.69,0
11_55_55,71,3924.62,3798.46,4074.87,4120.51,4126.15,4104.62,4131.79,4111.28,4073.85,3860.51,4185.13,4090.26,4185.64,4107.69,0
11_55_55,72,3914.36,3793.85,4072.82,4112.31,4117.95,4097.95,4125.13,4103.08,4074.87,3877.95,4175.38,4086.15,4180.51,4100.51,0
11_55_55,73,3909.23,3787.18,4071.28,4108.72,4105.64,4092.31,4120,4097.44,4053.85,3877.95,4166.67,4075.9,4168.21,4095.9,0
11_55_55,74,3911.28,3791.79,4072.82,4109.23,4108.72,4092.31,4121.03,4096.41,4052.31,3859.49,4165.13,4070.26,4165.64,4094.36,0
11_55_55,75,3913.85,3797.44,4075.38,4107.18,4123.59,4095.38,4126.15,4091.79,4065.13,3859.49,4169.23,4070.77,4172.82,4094.87,0
11_55_55,76,3908.21,3789.23,4071.28,4105.64,4122.56,4096.41,4127.18,4091.28,4060,3874.87,4170.77,4072.82,4166.15,4092.82,0
11_55_55,77,3902.05,3784.62,4068.72,4103.08,4105.13,4091.28,4120,4091.28,4049.23,3874.36,4165.13,4068.72,4154.36,4084.1,0
11_55_55,78,3907.18,3796.92,4074.36,4105.13,4107.69,4090.77,4118.46,4090.26,4051.79,3874.36,4166.67,4065.64,4160,4086.15,0
11_55_55,79,3914.87,3805.13,4080.51,4113.85,4121.03,4096.92,4123.59,4094.36,4060,3883.08,4169.74,4072.82,4169.74,4095.38,0
11_55_55,80,3912.31,3799.49,4077.44,4112.82,4111.28,4095.9,4121.54,4096.41,4066.15,3873.33,4162.56,4079.49,4161.03,4092.31,0
11_55_55,81,3908.21,3795.9,4075.38,4106.15,4106.15,4089.74,4118.46,4090.26,4060.51,3860.51,4159.49,4073.85,4149.74,4086.15,0
11_55_55,82,3908.21,3798.97,4075.38,4107.18,4120.51,4091.79,4120,4088.21,4051.28,3873.85,4163.08,4067.18,4153.85,4087.69,0
11_55_55,83,3906.15,3800,4072.31,4109.23,4122.56,4094.87,4120.51,4094.36,4053.85,3890.77,4161.54,4067.69,4157.95,4087.69,0
11_55_55,84,3906.15,3798.97,4072.82,4106.15,4111.79,4096.92,4123.08,4101.54,4068.72,3895.38,4164.1,4071.79,4160,4087.69,0
11_55_55,85,3911.28,3802.56,4077.95,4111.79,4118.46,4103.08,4127.18,4107.18,4074.36,3896.92,4176.92,4082.05,4167.69,4093.85,0
11_55_55,86,3916.92,3813.33,4080.51,4123.08,4131.28,4107.69,4129.23,4103.59,4061.03,3892.82,4182.05,4090.77,4171.79,4095.9,0
11_55_55,87,3916.41,3818.46,4080,4125.13,4126.15,4106.15,4129.23,4097.44,4058.97,3896.92,4176.92,4087.69,4172.31,4095.38,0
11_55_55,88,3910.26,3811.79,4080,4118.46,4117.95,4104.1,4125.13,4095.9,4067.69,3906.67,4169.74,4074.36,4167.18,4091.28,0
11_55_55,89,3907.18,3805.64,4078.46,4111.79,4118.97,4104.62,4119.49,4092.82,4062.56,3902.05,4160.51,4066.67,4155.9,4080.51,0
11_55_55,90,3907.69,3805.64,4076.41,4111.28,4120.51,4105.13,4119.49,4090.26,4058.46,3908.21,4163.08,4070.77,4151.79,4077.44,0
11_55_55,91,3909.23,3807.69,4076.92,4111.79,4120.51,4105.64,4123.08,4091.79,4066.67,3926.67,4170.26,4075.9,4159.49,4081.03,0
11_55_55,92,3905.13,3803.59,4077.95,4109.23,4122.56,4106.15,4122.05,4089.74,4061.54,3925.64,4168.21,4074.36,4159.49,4077.44,0
11_55_55,93,3902.05,3802.56,4079.49,4106.15,4116.92,4104.62,4120,4088.21,4055.9,3921.54,4173.33,4072.82,4153.85,4077.44,0
11_55_55,94,3906.15,3810.77,4082.05,4109.23,4105.64,4103.59,4120,4100,4074.87,3936.92,4184.62,4075.9,4161.03,4085.64,0
11_55_55,95,3911.28,3817.44,4082.56,4114.36,4114.36,4106.67,4120.51,4110.77,4080,3946.67,4184.1,4077.95,4172.31,4086.15,0
11_55_55,96,3910.26,3818.46,4081.54,4116.41,4126.15,4107.69,4121.54,4109.23,4058.46,3942.05,4181.54,4074.36,4172.82,4084.62,0
11_55_55,97,3910.26,3821.54,4083.08,4117.95,4122.56,4106.15,4122.05,4106.67,4054.36,3944.62,4184.62,4073.85,4170.26,4089.23,0
11_55_55,98,3918.46,3826.67,4087.69,4122.56,4129.74,4113.33,4125.13,4109.23,4065.13,3949.74,4185.64,4081.54,4174.36,4092.82,0
11_55_55,99,3929.74,3833.33,4090.77,4130.26,4140.51,4120.51,4130.77,4110.26,4066.67,3964.62,4192.82,4094.36,4182.05,4097.44,0
11_55_55,100,3930.26,3836.41,4089.74,4131.28,4129.74,4112.82,4131.28,4114.87,4070.77,3975.38,4196.92,4092.82,4179.49,4099.49,0
11_55_55,101,3914.87,3828.72,4082.05,4116.92,4116.41,4105.64,4124.1,4110.26,4067.69,3952.82,4182.56,4077.95,4168.21,4088.72,0
11_55_55,110,3909.74,3824.1,4079.49,4107.69,4118.46,4104.62,4117.44,4090.26,4053.85,3947.18,4172.31,4081.54,4197.44,4085.64,0
11_55_55,111,3922.05,3852.31,4084.1,4124.62,4123.59,4111.28,4120,4084.1,4062.56,3968.21,4172.82,4082.05,4209.23,4083.59,0
11_55_55,112,3929.23,3857.95,4083.08,4128.72,4130.26,4110.77,4124.1,4098.97,4080.51,4001.03,4185.13,4092.82,4219.49,4086.15,0
11_55_55,113,3921.54,3843.08,4077.44,4120,4125.64,4105.13,4122.05,4105.64,4072.82,3990.77,4187.18,4092.31,4222.56,4077.95,0
11_55_55,114,3911.79,3838.46,4076.41,4118.46,4112.82,4106.15,4121.03,4095.9,4060.51,3968.72,4172.82,4083.08,4215.9,4064.62,0
11_55_55,115,3915.9,3843.08,4080.51,4125.13,4109.74,4111.28,4123.08,4096.41,4073.85,3977.95,4165.13,4085.64,4214.36,4069.74,0
11_55_55,116,3921.54,3841.03,4082.56,4120,4121.03,4112.82,4123.08,4101.54,4081.54,3995.9,4171.28,4092.82,4218.97,4077.44,0
11_55_55,117,3913.33,3830.26,4081.03,4106.67,4127.69,4114.87,4122.05,4094.87,4071.28,3998.97,4173.33,4091.28,4212.31,4069.23,0
11_55_55,118,3907.18,3828.21,4078.97,4111.79,4125.13,4117.95,4124.1,4090.77,4071.79,3990.77,4166.67,4089.74,4202.05,4060.51,0
11_55_55,119,3909.23,3838.97,4076.92,4123.59,4127.69,4118.46,4126.67,4101.54,4080.51,3985.64,4166.15,4087.18,4200,4057.95,0
11_55_55,120,3908.21,3847.18,4077.44,4118.97,4127.69,4118.97,4122.56,4104.62,4079.49,3996.41,4170.26,4079.49,4196.41,4055.38,0
11_55_55,121,3909.74,3847.18,4082.56,4116.92,4125.13,4120.51,4122.05,4096.41,4073.85,3997.95,4169.23,4079.49,4192.82,4053.33,0
11_55_55,122,3915.38,3847.69,4085.64,4125.13,4133.85,4121.54,4132.31,4101.03,4074.87,3987.18,4167.69,4087.18,4194.87,4056.92,0
11_55_55,123,3913.33,3850.26,4084.62,4122.05,4135.38,4121.54,4134.87,4110.26,4080,3984.1,4169.23,4086.67,4191.79,4061.54,0
11_55_55,124,3909.74,3843.08,4082.56,4110.77,4119.49,4121.54,4128.21,4109.74,4077.95,3983.08,4165.13,4081.54,4182.05,4056.92,0
11_55_55,125,3909.74,3833.85,4080.51,4106.67,4120.51,4122.05,4125.64,4104.62,4077.44,3987.18,4158.46,4081.54,4182.05,4050.26,0
11_55_55,126,3909.74,3841.03,4082.05,4108.72,4138.97,4118.97,4126.15,4108.72,4090.26,4006.67,4160.51,4087.69,4187.18,4055.38,0
11_55_55,127,3913.33,3850.77,4085.64,4112.82,4129.23,4109.74,4121.54,4110.26,4090.77,4014.36,4161.54,4091.79,4185.13,4063.08,0
11_55_55,128,3910.77,3843.59,4084.62,4108.72,4105.64,4102.56,4118.97,4096.41,4069.23,3997.44,4153.33,4084.62,4180,4055.38,0
11_55_55,0,3899.49,3828.72,4079.49,4092.31,4104.62,4105.64,4120,4081.54,4060,3989.74,4148.72,4073.85,4174.87,4043.08,0
11_55_55,1,3897.95,3829.23,4078.46,4087.18,4107.18,4107.69,4120.51,4082.05,4067.69,3991.28,4151.28,4076.92,4168.21,4044.62,0
11_55_55,2,3908.72,3844.62,4083.08,4104.62,4112.82,4106.67,4121.54,4091.79,4075.9,3992.31,4153.85,4090.77,4173.33,4052.82,0
11_55_55,3,3913.33,3854.87,4087.18,4110.77,4126.15,4108.21,4122.05,4099.49,4080.51,3991.79,4154.36,4094.36,4186.15,4057.44,0
11_55_55,4,3906.67,3850.26,4084.1,4094.87,4113.85,4106.67,4120,4100.51,4080,3990.26,4151.28,4085.13,4181.03,4052.31,0
11_55_55,5,3903.59,3841.54,4082.56,4085.13,4093.33,4102.05,4117.44,4097.44,4075.38,3999.49,4147.18,4083.08,4169.74,4048.21,0
11_55_55,6,3908.21,3846.15,4085.64,4089.23,4107.18,4102.56,4118.46,4094.87,4074.87,4001.03,4146.67,4090.77,4167.18,4054.36,0
11_55_55,7,3913.33,3862.05,4089.74,4096.41,4127.18,4112.82,4124.62,4097.44,4078.46,3992.82,4147.69,4093.85,4167.69,4061.03,0
11_55_55,8,3912.31,3863.59,4089.74,4092.31,4123.59,4120,4125.64,4106.15,4087.69,4008.72,4153.33,4097.44,4165.13,4061.54,0
11_55_55,9,3906.15,3847.69,4087.18,4081.54,4120.51,4114.36,4123.08,4112.31,4096.92,4029.23,4155.9,4102.05,4160,4061.54,0
11_55_55,10,3912.82,3858.46,4089.23,4088.21,4115.9,4106.67,4121.54,4107.18,4090.77,4015.9,4153.85,4098.46,4152.82,4068.72,0
11_55_55,11,3931.28,3894.36,4095.38,4105.64,4108.72,4107.18,4120.51,4102.05,4074.87,3996.41,4152.31,4097.44,4148.21,4077.44,0
11_55_55,12,3949.23,3918.46,4097.95,4110.77,4114.87,4105.64,4117.95,4106.67,4074.36,4005.13,4148.21,4105.13,4140,4081.54,0
11_55_55,13,3962.05,3932.31,4096.41,4113.33,4114.36,4094.36,4112.82,4100,4082.56,4011.28,4138.46,4104.1,4126.67,4083.59,0
11_55_55,14,3973.33,3953.85,4096.92,4123.08,4109.23,4090.77,4109.23,4083.59,4073.85,3997.44,4131.79,4094.87,4115.38,4087.69,0
11_55_55,15,3985.64,3977.95,4101.03,4126.67,4112.31,4095.38,4107.69,4076.41,4057.95,3985.64,4127.18,4092.31,4104.1,4092.31,0
11_55_55,16,3994.87,3989.74,4104.1,4124.1,4113.33,4095.9,4107.69,4071.28,4056.41,3981.03,4114.36,4092.82,4090.77,4093.33,0
11_55_55,17,4006.67,4004.62,4102.56,4131.79,4121.03,4094.36,4109.23,4070.26,4063.08,3967.18,4107.69,4091.28,4077.44,4095.9,0
11_55_55,18,4016.41,4023.08,4104.62,4137.44,4115.9,4090.26,4104.1,4069.23,4062.05,3951.28,4104.62,4090.77,4064.62,4096.41,0
11_55_55,19,4017.95,4030.26,4110.77,4136.41,4094.36,4078.46,4092.31,4063.59,4055.38,3950.26,4094.36,4089.74,4056.92,4095.9,0
11_55_55,20,4024.1,4041.54,4112.31,4146.67,4103.59,4077.44,4095.38,4061.03,4059.49,3961.03,4094.36,4090.77,4053.85,4102.56,0
11_55_55,21,4040,4064.1,4109.74,4159.49,4122.56,4089.23,4107.18,4066.15,4071.28,3973.85,4102.05,4095.9,4049.74,4108.72,0
11_55_55,22,4048.72,4076.92,4113.33,4154.87,4109.23,4092.31,4103.08,4067.18,4072.31,3978.46,4098.97,4096.41,4041.54,4104.1,0
11_55_55,23,4044.62,4076.92,4114.36,4150.26,4110.26,4089.74,4096.92,4062.05,4058.97,3968.21,4085.64,4093.85,4029.74,4093.33,0
11_55_55,24,4034.87,4076.41,4108.21,4156.41,4133.33,4091.28,4105.13,4057.95,4050.77,3955.38,4076.92,4089.74,4011.28,4081.03,0
11_55_55,25,4023.59,4071.28,4105.64,4155.38,4131.28,4092.31,4108.21,4061.54,4064.1,3957.95,4075.38,4085.64,3994.87,4071.79,0
11_55_55,26,4014.87,4065.13,4107.69,4152.31,4117.95,4087.69,4098.46,4065.13,4072.31,3963.59,4072.82,4080,3988.21,4060.51,0
11_55_55,27,4006.67,4058.46,4105.13,4149.74,4113.33,4081.54,4091.28,4057.95,4055.38,3952.31,4062.05,4073.33,3982.05,4044.62,0
11_55_55,28,3994.87,4047.69,4102.56,4141.54,4104.62,4081.03,4092.31,4052.82,4045.64,3934.87,4055.38,4070.26,3968.72,4036.92,0
11_55_55,29,3986.15,4044.62,4105.13,4140.51,4103.59,4089.23,4096.92,4059.49,4057.44,3942.56,4064.1,4074.36,3969.74,4041.03,0
11_55_55,30,3984.62,4047.18,4106.67,4142.05,4114.36,4095.38,4101.54,4061.54,4064.1,3965.64,4071.28,4078.46,3987.18,4041.54,0
11_55_55,31,3983.59,4038.46,4100.51,4136.41,4122.05,4092.82,4100,4060.51,4064.1,3962.56,4068.72,4074.36,3987.69,4036.92,0
11_55_55,32,3976.41,4027.18,4098.46,4131.79,4125.64,4089.74,4092.82,4063.08,4064.62,3947.69,4066.67,4070.26,3977.44,4036.41,0
11_55_55,33,3974.36,4030.26,4105.64,4136.92,4128.72,4092.31,4092.82,4062.05,4061.03,3963.59,4070.26,4074.36,3986.67,4039.49,0
11_55_55,34,3976.41,4032.82,4108.72,4144.1,4131.28,4093.85,4098.46,4060.51,4067.18,3981.03,4075.9,4076.92,4000.51,4041.03,0
11_55_55,35,3964.1,4015.9,4102.05,4135.38,4116.41,4086.15,4098.97,4064.62,4074.36,3965.13,4076.41,4067.18,3992.82,4034.87,0
11_55_55,36,3954.36,4000,4097.44,4120.51,4102.05,4082.05,4093.85,4064.1,4064.62,3954.87,4075.9,4057.95,3984.1,4027.69,0
11_55_55,37,3955.9,3996.41,4098.46,4121.03,4111.28,4089.74,4093.33,4051.28,4053.33,3955.9,4076.41,4061.54,3990.26,4029.74,0
11_55_55,38,3951.79,3987.69,4097.95,4126.15,4124.62,4094.36,4096.41,4049.74,4055.38,3947.69,4072.82,4062.56,3990.26,4027.69,0
11_55_55,39,3942.56,3968.21,4099.49,4115.9,4121.03,4089.74,4097.44,4070.26,4072.82,3960.51,4076.41,4064.62,3985.13,4023.08,0
11_55_56,40,3943.59,3959.49,4100.51,4105.13,4114.36,4089.23,4093.33,4074.36,4081.54,3988.21,4084.1,4072.82,3989.23,4026.15,0
11_55_56,41,3943.08,3956.92,4098.97,4108.21,4113.33,4092.31,4088.21,4056.41,4065.64,3980,4080.51,4067.69,3992.82,4025.64,0
11_55_56,42,3939.49,3947.69,4098.97,4110.26,4101.03,4088.72,4095.38,4060,4060.51,3962.56,4080,4059.49,3993.85,4025.13,0
11_55_56,43,3942.56,3942.05,4099.49,4104.62,4092.82,4086.67,4107.18,4076.41,4078.97,3986.67,4096.92,4069.74,4004.62,4036.41,0
11_55_56,44,3943.08,3944.62,4097.95,4102.05,4108.21,4089.23,4104.62,4073.85,4077.44,3999.49,4107.69,4079.49,4015.9,4047.18,0
11_55_56,45,3940.51,3945.64,4101.03,4105.64,4118.97,4091.28,4098.46,4073.85,4070.26,3977.44,4107.18,4079.49,4018.97,4045.64,0
11_55_56,46,3941.54,3942.05,4103.08,4108.72,4116.41,4090.77,4099.49,4084.1,4089.23,3983.59,4105.64,4083.08,4018.46,4042.56,0
11_55_56,47,3935.9,3940.51,4099.49,4106.15,4118.46,4092.31,4098.97,4075.38,4091.28,4000,4099.49,4081.54,4011.28,4038.97,0
11_55_56,48,3927.18,3936.92,4098.46,4096.92,4121.03,4093.33,4092.82,4058.97,4069.74,3978.97,4088.21,4071.28,4000,4032.82,0
11_55_56,49,3928.72,3934.87,4099.49,4094.36,4111.79,4094.87,4097.44,4057.44,4065.64,3970.26,4086.67,4068.21,3999.49,4032.31,0
11_55_56,50,3939.49,3942.05,4104.62,4101.54,4105.13,4100.51,4108.72,4070.26,4083.08,4002.56,4100,4074.87,4012.82,4038.97,0
11_55_56,51,3950.26,3946.15,4109.74,4104.1,4106.67,4101.54,4110.26,4083.59,4093.85,4017.44,4112.31,4081.54,4025.13,4050.26,0
11_55_56,52,3951.79,3943.59,4107.69,4100.51,4104.62,4095.38,4103.59,4077.95,4087.18,4002.05,4110.77,4082.05,4026.67,4057.44,0
11_55_56,53,3946.67,3943.59,4103.08,4098.97,4105.13,4093.33,4102.05,4066.67,4081.54,3992.31,4110.26,4079.49,4023.59,4057.44,0
11_55_56,54,3946.15,3944.1,4100.51,4094.87,4115.9,4096.41,4106.15,4070.77,4087.69,3999.49,4114.87,4078.97,4021.54,4051.79,0
11_55_56,55,3942.56,3935.9,4097.44,4082.05,4122.56,4098.46,4107.18,4081.54,4092.82,4014.87,4111.28,4075.38,4018.97,4042.56,0
11_55_56,56,3933.33,3925.13,4099.49,4077.44,4112.31,4093.33,4098.97,4078.97,4090.77,4016.92,4104.1,4071.28,4012.82,4037.44,0
11_55_56,57,3932.82,3924.1,4104.62,4085.13,4106.67,4090.26,4093.85,4071.79,4092.31,4008.21,4105.64,4072.82,4011.28,4040.51,0
11_55_56,58,3943.08,3936.92,4105.64,4090.77,4120,4098.46,4098.46,4065.64,4090.26,4008.21,4106.67,4075.9,4020.51,4047.18,0
11_55_56,59,3943.59,3945.13,4103.59,4095.38,4129.23,4109.23,4105.13,4071.28,4086.15,4003.08,4107.69,4077.44,4026.15,4046.15,0
11_55_56,60,3940.51,3932.31,4102.56,4090.26,4112.82,4109.23,4112.31,4091.28,4093.33,3989.23,4109.23,4073.33,4013.85,4038.97,0
11_55_56,61,3950.26,3916.92,4100.51,4072.82,4090.26,4098.97,4108.72,4083.08,4089.74,3990.77,4105.13,4065.64,4002.56,4028.72,0
11_55_56,62,3955.38,3926.15,4103.08,4075.9,4093.85,4092.31,4094.36,4055.38,4078.46,4007.69,4112.31,4068.72,4011.79,4032.31,0
11_55_56,63,3947.69,3943.08,4100,4093.33,4111.79,4094.87,4094.87,4051.79,4084.62,4009.74,4125.64,4072.31,4022.56,4047.69,0
11_55_56,64,3941.03,3933.85,4095.38,4080.51,4109.74,4096.92,4106.15,4066.67,4092.82,3995.9,4115.9,4063.59,4019.49,4036.92,0
11_55_56,65,3927.69,3914.36,4098.46,4056.92,4101.03,4091.79,4101.03,4074.36,4090.26,3984.1,4101.54,4055.9,4010.77,4015.38,0
11_55_56,66,3908.72,3906.15,4099.49,4059.49,4105.64,4088.21,4088.72,4068.72,4087.18,3980,4105.13,4053.85,4002.05,4020.51,0
11_55_56,67,3916.41,3909.74,4093.85,4073.33,4111.79,4089.74,4091.28,4065.13,4087.69,3997.95,4108.72,4055.38,4002.56,4028.72,0
11_55_56,68,3939.49,3918.46,4094.36,4084.1,4108.72,4090.26,4093.33,4068.72,4097.44,4020,4104.62,4063.59,4011.79,4020,0
11_55_56,69,3938.46,3925.64,4098.97,4088.72,4106.67,4098.46,4094.87,4079.49,4105.64,4019.49,4110.77,4070.77,4012.82,4020.51,0
11_55_56,70,3932.82,3928.21,4100,4083.08,4108.72,4106.15,4105.13,4087.18,4096.92,4004.1,4119.49,4072.82,4007.69,4037.95,0
11_55_56,71,3940,3925.64,4098.97,4078.46,4103.59,4096.41,4102.05,4080,4088.21,3994.87,4112.82,4073.85,4004.1,4043.08,0
11_55_56,72,3941.54,3924.1,4097.95,4080.51,4098.46,4086.15,4091.79,4067.69,4090.77,4005.64,4111.79,4074.36,4005.64,4039.49,0
11_55_56,73,3940,3927.69,4097.95,4085.64,4103.08,4092.82,4096.92,4068.21,4097.44,4029.23,4124.62,4079.49,4017.95,4044.1,0
11_55_56,74,3942.56,3926.67,4100.51,4092.82,4115.38,4098.97,4103.59,4076.41,4105.13,4032.31,4123.59,4083.08,4028.72,4051.79,0
11_55_56,75,3940,3912.82,4100.51,4088.21,4114.87,4097.95,4097.44,4076.92,4105.64,4018.97,4111.79,4078.46,4015.38,4045.64,0
11_55_56,76,3930.26,3903.59,4094.87,4077.44,4095.9,4101.03,4091.79,4075.38,4095.9,4018.97,4109.23,4070.77,3994.87,4029.74,0
11_55_56,77,3921.54,3906.15,4096.92,4081.03,4091.28,4104.62,4095.38,4070.26,4091.79,4008.72,4104.62,4068.72,3993.33,4026.67,0
11_55_56,78,3931.28,3911.28,4105.64,4087.18,4114.87,4107.69,4104.62,4080,4104.1,4001.03,4104.1,4078.46,4004.62,4038.46,0
11_55_56,79,3953.85,3920,4110.26,4089.74,4129.23,4112.82,4114.36,4106.15,4119.49,4021.54,4121.03,4092.82,4015.9,4051.79,0
11_55_56,80,3951.79,3921.03,4108.21,4098.97,4114.87,4107.69,4109.74,4099.49,4115.38,4043.59,4125.64,4091.28,4018.97,4052.82,0
11_55_56,81,3943.08,3921.54,4107.18,4101.03,4105.13,4095.9,4093.85,4067.69,4102.56,4046.67,4118.46,4084.62,4018.97,4054.36,0
11_55_56,82,3961.03,3927.18,4104.1,4081.54,4097.95,4090.77,4089.23,4070.77,4107.69,4037.44,4128.72,4090.77,4021.54,4057.44,0
11_55_56,83,3973.33,3916.41,4104.1,4070.26,4080,4088.21,4091.79,4084.62,4115.9,4040,4136.92,4093.33,4017.95,4053.33,0
11_55_56,84,3955.9,3912.82,4111.79,4079.49,4090.77,4094.36,4090.26,4067.18,4105.13,4072.31,4132.82,4088.72,4012.82,4052.31,0
11_55_56,85,3950.26,3945.64,4109.74,4097.44,4125.64,4106.15,4088.21,4059.49,4089.74,4084.62,4138.97,4083.59,4016.41,4056.92,0
11_55_56,86,3958.46,3955.38,4098.97,4096.92,4127.69,4100.51,4088.72,4073.33,4078.46,4043.08,4134.87,4076.92,4008.72,4047.69,0
11_55_56,87,3950.77,3927.69,4097.95,4072.31,4111.28,4091.79,4090.77,4074.36,4074.36,4028.21,4114.87,4078.46,3993.85,4029.74,0
11_55_56,88,3946.15,3930.77,4104.62,4071.79,4119.49,4101.03,4098.97,4074.36,4084.62,4061.54,4124.62,4084.62,4005.13,4036.41,0
11_55_56,89,3953.33,3950.26,4103.08,4097.95,4121.54,4108.21,4106.67,4087.69,4091.79,4063.59,4147.69,4080.51,4019.49,4049.74,0
11_55_56,90,3958.97,3945.13,4103.08,4102.56,4104.1,4104.1,4105.64,4093.33,4087.18,4044.62,4142.05,4077.95,4013.85,4047.69,0
11_55_56,91,3960,3940,4110.77,4091.28,4101.03,4105.64,4104.1,4092.31,4091.79,4052.31,4138.97,4092.31,4021.54,4051.79,0
11_55_56,92,3960,3943.59,4113.85,4093.85,4111.28,4109.23,4107.69,4097.95,4101.54,4059.49,4150.77,4102.05,4049.74,4062.05,0
11_55_56,93,3957.95,3940,4107.69,4094.36,4117.44,4106.67,4103.59,4094.36,4098.97,4051.79,4149.74,4100,4078.46,4059.49,0
11_55_56,94,3957.44,3936.41,4104.62,4091.28,4122.05,4107.18,4097.44,4084.1,4094.36,4053.33,4148.72,4101.03,4106.15,4055.9,0
11_55_56,95,3958.46,3940,4106.67,4097.95,4118.97,4109.23,4102.05,4093.33,4098.97,4064.1,4153.33,4105.13,4125.64,4062.56,0
11_55_56,96,3958.46,3942.56,4108.72,4097.95,4114.87,4109.74,4108.21,4102.05,4096.41,4060.51,4147.69,4104.1,4134.87,4060.51,0
11_55_56,97,3959.49,3937.95,4109.23,4094.36,4122.56,4110.26,4106.15,4099.49,4090.77,4049.74,4144.62,4105.13,4141.03,4051.79,0
11_55_56,98,3958.46,3929.23,4108.72,4092.31,4112.31,4108.21,4106.15,4104.1,4096.92,4045.64,4148.72,4106.67,4143.59,4053.33,0
11_55_56,99,3961.03,3924.1,4104.62,4091.28,4094.87,4107.69,4109.74,4111.79,4102.56,4047.69,4146.67,4107.18,4146.15,4055.9,0
11_55_56,100,3968.72,3925.13,4107.69,4088.21,4102.56,4110.26,4108.72,4104.62,4102.56,4049.23,4146.67,4113.33,4152.31,4060.51,0
11_55_56,101,3972.31,3930.77,4113.33,4089.74,4114.87,4109.74,4104.1,4085.64,4100.51,4044.1,4154.87,4122.56,4156.41,4069.74,0
11_55_56,102,3973.33,3938.46,4110.77,4096.92,4111.79,4111.28,4105.64,4078.97,4100,4047.69,4164.62,4122.56,4149.74,4071.28,0
11_55_56,103,3978.46,3937.95,4106.67,4096.92,4106.15,4118.97,4109.74,4092.82,4103.08,4059.49,4168.21,4121.03,4140,4065.64,0
11_55_56,104,3984.1,3937.95,4109.23,4091.79,4114.36,4124.1,4110.77,4108.72,4107.18,4063.08,4162.05,4123.08,4135.9,4068.72,0
11_55_56,105,3984.1,3949.74,4112.31,4095.38,4128.72,4118.46,4108.21,4111.28,4108.21,4060.51,4164.62,4122.05,4141.03,4071.28,0
11_55_56,106,3981.54,3955.9,4110.26,4098.46,4128.21,4111.28,4105.64,4107.69,4105.13,4057.44,4174.36,4117.95,4137.95,4065.13,0
11_55_56,107,3984.1,3947.69,4110.77,4097.44,4116.92,4115.38,4109.23,4112.82,4107.69,4054.87,4169.23,4120.51,4124.1,4064.1,0
11_55_56,108,3986.67,3944.1,4114.87,4101.03,4118.97,4121.54,4113.33,4113.33,4111.79,4054.87,4156.41,4123.59,4127.69,4067.18,0
11_55_56,109,3980.51,3949.23,4113.33,4103.08,4123.08,4114.87,4110.77,4109.23,4109.74,4048.72,4155.9,4123.59,4136.92,4063.59,0
11_55_56,110,3972.31,3943.08,4106.67,4093.85,4105.64,4107.69,4110.26,4118.97,4109.23,4029.74,4160,4122.56,4129.23,4058.46,0
11_55_56,111,3969.23,3928.72,4107.69,4088.21,4096.41,4106.15,4108.72,4121.03,4109.74,4021.54,4151.79,4117.44,4118.46,4051.79,0
11_55_56,112,3969.74,3926.15,4112.82,4094.36,4108.21,4104.1,4104.1,4104.1,4104.62,4029.74,4142.56,4112.82,4122.05,4045.64,0
11_55_56,113,3965.64,3926.67,4110.77,4087.69,4106.15,4103.59,4109.23,4113.33,4113.33,4040,4144.1,4116.92,4125.64,4046.67,0
11_55_56,114,3966.15,3918.46,4110.77,4068.72,4100,4104.62,4111.79,4129.23,4124.1,4043.59,4155.38,4124.1,4120.51,4053.33,0
11_55_56,115,3974.36,3917.44,4112.31,4078.46,4107.69,4102.56,4098.46,4091.79,4106.15,4030.77,4159.49,4124.1,4119.49,4053.33,0
11_55_56,116,3975.9,3926.15,4109.74,4102.56,4108.72,4105.13,4093.85,4074.87,4091.28,4021.54,4142.05,4123.59,4121.54,4051.79,0
11_55_56,117,3976.92,3927.69,4109.74,4097.44,4102.05,4110.77,4106.67,4134.36,4109.74,4036.41,4138.97,4125.64,4123.08,4057.44,0
11_55_56,118,3984.62,3935.38,4107.69,4087.18,4110.77,4111.28,4109.74,4173.33,4127.18,4057.95,4169.23,4121.54,4128.21,4064.1,0
11_55_56,119,3983.08,3947.69,4104.1,4093.33,4115.38,4107.18,4105.13,4153.85,4123.08,4056.92,4180.51,4113.33,4127.69,4062.56,0
11_55_56,120,3965.64,3934.87,4101.54,4084.62,4100,4097.44,4103.08,4129.23,4112.31,4037.44,4155.9,4105.64,4108.21,4052.31,0
11_55_56,121,3963.08,3918.97,4104.62,4073.33,4091.79,4090.26,4102.56,4116.41,4104.1,4026.15,4144.62,4106.67,4090.77,4046.67,0
11_55_56,122,3975.9,3927.18,4110.77,4085.64,4093.85,4092.82,4104.1,4115.9,4108.21,4033.85,4157.44,4118.46,4098.97,4056.41,0
11_55_56,123,3975.9,3932.31,4113.33,4092.31,4094.87,4095.9,4098.97,4121.54,4115.9,4028.72,4156.92,4121.54,4103.59,4063.08,0
11_55_56,124,3966.67,3922.56,4108.72,4082.56,4098.46,4092.82,4090.77,4121.03,4116.92,4007.18,4140.51,4111.79,4089.23,4053.33,0
11_55_56,125,3965.13,3920.51,4104.62,4080,4097.95,4095.38,4097.44,4122.56,4118.97,4013.33,4136.41,4109.74,4083.08,4047.69,0
11_55_56,126,3968.72,3926.67,4105.64,4079.49,4100.51,4101.54,4106.15,4117.44,4116.41,4031.28,4146.67,4114.87,4090.26,4055.38,0
11_55_56,127,3970.77,3928.72,4106.15,4080,4103.08,4098.46,4104.1,4115.38,4116.92,4032.82,4152.31,4110.77,4095.9,4057.95,0
11_55_56,128,3968.72,3926.15,4104.62,4086.67,4101.03,4096.92,4106.15,4124.1,4121.03,4034.87,4147.69,4105.64,4095.9,4050.77,0
11_55_56,0,3961.03,3921.54,4101.03,4091.28,4097.44,4104.1,4104.62,4108.21,4112.31,4024.1,4140.51,4105.13,4091.28,4043.08,0
11_55_56,1,3958.97,3921.03,4100,4088.21,4098.46,4104.1,4092.82,4078.97,4102.05,4000,4137.95,4103.59,4086.67,4045.13,0
11_55_56,2,3968.72,3926.67,4103.08,4086.67,4101.54,4097.95,4090.26,4088.72,4112.82,4016.41,4147.18,4108.72,4094.36,4052.31,0
11_55_56,3,3974.36,3927.18,4107.69,4088.21,4088.72,4096.92,4096.41,4110.77,4124.62,4049.74,4154.87,4113.33,4105.13,4053.33,0
11_55_56,4,3973.33,3923.08,4109.23,4087.18,4082.56,4094.87,4093.33,4107.18,4120.51,4043.08,4153.85,4107.69,4101.03,4052.82,0
11_55_56,5,3978.46,3930.77,4109.23,4093.33,4100.51,4094.87,4092.31,4102.05,4118.46,4033.85,4160.51,4109.74,4099.49,4060.51,0
11_55_56,6,3983.59,3945.13,4111.79,4104.1,4115.38,4101.54,4101.54,4105.64,4123.59,4044.1,4173.33,4122.56,4113.33,4070.26,0
11_55_56,7,3984.1,3944.1,4114.36,4102.56,4105.64,4100,4104.1,4112.82,4129.74,4051.79,4173.85,4124.1,4118.97,4069.23,0
11_55_56,8,3984.62,3935.9,4109.23,4091.79,4103.59,4094.87,4099.49,4116.41,4132.31,4059.49,4166.15,4113.85,4107.69,4063.08,0
11_55_56,9,3983.08,3939.49,4104.1,4090.26,4111.79,4102.56,4102.05,4107.69,4127.69,4063.08,4164.1,4108.72,4104.62,4062.05,0
11_55_56,10,3980.51,3941.54,4105.64,4095.38,4098.46,4107.18,4109.74,4106.15,4125.13,4057.95,4164.62,4110.26,4108.21,4064.62,0
11_55_56,11,3977.95,3934.87,4106.67,4090.77,4087.18,4103.08,4104.62,4115.9,4128.21,4061.03,4161.54,4113.33,4104.62,4062.56,0
11_55_56,12,3982.56,3936.41,4107.18,4086.67,4099.49,4103.08,4094.36,4112.82,4133.85,4066.15,4162.05,4118.46,4110.77,4066.15,0
11_55_56,13,3993.33,3945.64,4112.31,4091.28,4110.26,4102.05,4097.95,4108.21,4137.44,4066.67,4172.82,4127.69,4125.13,4078.97,0
11_55_56,14,3995.38,3946.15,4113.33,4093.33,4102.05,4099.49,4106.67,4111.79,4132.31,4072.31,4176.92,4130.26,4121.54,4080,0
11_55_56,15,3989.74,3944.1,4107.69,4090.26,4096.92,4104.1,4105.64,4100.51,4121.03,4071.28,4165.13,4118.46,4106.15,4068.72,0
11_55_56,16,3987.18,3947.69,4105.64,4090.77,4107.18,4106.67,4097.95,4085.64,4114.87,4047.18,4152.82,4105.64,4095.38,4060.51,0
11_55_56,17,3986.67,3953.33,4107.69,4095.9,4108.72,4104.62,4099.49,4088.72,4120.51,4031.79,4152.82,4104.62,4091.28,4057.44,0
11_55_56,18,3985.13,3957.44,4108.72,4098.46,4101.03,4106.15,4105.13,4105.64,4133.33,4058.46,4164.1,4112.31,4097.44,4061.54,0
11_55_56,19,3989.74,3960,4110.77,4097.95,4106.67,4110.26,4108.72,4120.51,4140.51,4085.64,4173.33,4118.97,4107.69,4073.33,0
11_55_56,20,3992.31,3960,4113.85,4097.95,4114.36,4111.28,4111.28,4125.64,4139.49,4079.49,4174.36,4121.03,4106.15,4077.95,0
11_55_56,21,3988.72,3958.46,4115.38,4102.05,4109.23,4108.21,4111.79,4123.59,4138.97,4071.79,4173.33,4121.54,4104.1,4071.79,0
11_55_56,22,3995.9,3956.41,4117.95,4105.64,4105.64,4106.15,4112.31,4119.49,4136.92,4073.85,4172.31,4120,4106.15,4068.21,0
11_55_56,23,4005.13,3957.44,4116.41,4103.08,4099.49,4107.18,4114.36,4109.74,4128.21,4068.72,4169.74,4117.95,4101.54,4068.72,0
11_55_56,24,3998.97,3958.97,4114.36,4102.05,4083.59,4105.64,4110.26,4096.41,4122.56,4052.31,4170.26,4117.44,4096.41,4069.23,0
11_55_56,25,3988.72,3958.46,4111.79,4103.08,4090.77,4102.05,4102.05,4092.31,4124.1,4036.92,4166.67,4113.33,4096.92,4066.67,0
11_55_56,26,3987.18,3957.44,4110.77,4100.51,4114.36,4104.62,4101.03,4096.41,4123.59,4041.54,4161.03,4107.18,4093.85,4060.51,0
11_55_56,27,3988.72,3957.44,4110.26,4090.77,4105.64,4107.18,4104.62,4098.97,4122.56,4056.92,4163.08,4107.18,4089.23,4061.54,0
11_55_56,28,3992.82,3955.38,4112.82,4086.67,4090.77,4105.64,4106.67,4102.56,4130.26,4063.59,4162.05,4112.82,4089.74,4068.21,0
11_55_56,29,3996.92,3958.46,4114.36,4096.92,4106.15,4107.18,4107.69,4108.72,4140.51,4066.15,4154.36,4112.82,4091.28,4067.69,0
11_55_56,30,3993.33,3959.49,4110.77,4099.49,4111.79,4111.28,4108.72,4107.69,4135.38,4060,4151.79,4107.69,4090.26,4063.08,0
11_55_57,31,3989.23,3953.85,4111.28,4092.82,4095.38,4109.74,4108.72,4097.95,4128.72,4055.9,4154.36,4109.74,4089.74,4063.59,0
11_55_57,32,3988.21,3951.79,4113.85,4088.72,4090.26,4102.05,4106.15,4096.92,4135.38,4071.28,4157.95,4112.82,4089.23,4067.69,0
11_55_57,33,3994.36,3951.28,4113.33,4090.26,4100,4100.51,4106.15,4105.64,4139.49,4082.05,4164.62,4115.9,4092.82,4073.33,0
11_55_57,34,4003.08,3954.36,4114.36,4092.31,4108.72,4107.18,4108.21,4108.21,4140,4076.92,4171.79,4122.56,4099.49,4077.95,0
11_55_57,35,3996.92,3960,4114.87,4091.79,4106.15,4108.21,4108.72,4106.15,4143.59,4075.38,4172.31,4125.64,4096.92,4078.46,0
11_55_57,36,3989.23,3955.9,4112.31,4084.62,4093.85,4108.21,4110.77,4109.23,4144.1,4071.79,4167.69,4125.13,4092.31,4075.38,0
11_55_57,37,3991.79,3942.05,4112.82,4077.95,4086.67,4108.72,4110.77,4105.64,4136.92,4067.69,4160.51,4121.03,4087.18,4068.72,0
11_55_57,38,3986.67,3942.56,4112.31,4084.62,4091.28,4099.49,4103.08,4092.31,4131.28,4059.49,4153.85,4109.74,4077.95,4061.03,0
11_55_57,39,3975.9,3950.26,4107.69,4091.28,4096.41,4093.85,4097.95,4089.74,4132.31,4040,4147.18,4102.56,4071.28,4057.95,0
11_55_57,40,3980.51,3947.18,4106.15,4090.77,4098.97,4103.08,4103.59,4103.59,4140,4050.77,4150.26,4109.23,4075.38,4059.49,0
11_55_57,41,3989.23,3947.18,4110.77,4091.28,4096.92,4106.67,4109.74,4110.26,4145.64,4080.51,4156.92,4118.46,4085.13,4068.21,0
11_55_57,42,3987.69,3950.26,4112.82,4092.82,4092.31,4096.92,4107.18,4099.49,4138.97,4070.26,4155.9,4120.51,4086.67,4075.9,0
11_55_57,43,3986.67,3946.67,4114.36,4091.79,4092.31,4090.26,4104.1,4092.31,4132.31,4058.46,4159.49,4121.03,4084.62,4075.38,0
11_55_57,44,3990.77,3943.08,4114.87,4090.77,4089.23,4092.82,4105.13,4100.51,4133.85,4071.28,4170.77,4121.54,4089.74,4075.9,0
11_55_57,45,3994.36,3945.64,4114.36,4092.82,4085.64,4100.51,4106.15,4110.77,4140,4067.18,4167.69,4124.62,4095.9,4078.46,0
11_55_57,46,3990.26,3945.64,4114.36,4092.31,4090.77,4107.69,4107.18,4111.28,4141.03,4061.54,4156.92,4121.54,4090.77,4073.33,0
11_55_57,47,3977.44,3939.49,4115.38,4088.72,4092.82,4104.1,4104.1,4104.1,4137.95,4076.92,4153.85,4111.28,4084.62,4064.1,0
11_55_57,48,3974.36,3942.56,4112.82,4090.26,4093.85,4097.95,4101.54,4098.46,4138.46,4078.97,4155.9,4107.18,4086.15,4064.1,0
11_55_57,49,3985.13,3954.87,4110.77,4094.36,4097.44,4103.59,4104.62,4094.36,4137.44,4069.74,4156.92,4111.79,4089.23,4069.23,0
11_55_57,50,3987.18,3959.49,4112.82,4092.31,4090.77,4110.26,4107.69,4090.26,4136.92,4075.38,4150.77,4109.74,4084.1,4065.13,0
11_55_57,51,3985.13,3958.97,4113.85,4092.82,4091.28,4107.69,4107.18,4092.82,4140.51,4071.28,4143.08,4106.15,4076.92,4060,0
11_55_57,52,3988.72,3958.46,4111.28,4097.44,4106.67,4107.18,4107.69,4103.08,4138.97,4052.31,4142.05,4108.21,4077.44,4061.03,0
11_55_57,53,3983.59,3949.74,4107.18,4091.79,4102.56,4107.69,4108.72,4111.79,4137.44,4060.51,4141.54,4104.62,4080.51,4057.44,0
11_55_57,54,3973.85,3942.56,4107.18,4084.62,4086.15,4098.46,4105.13,4113.85,4142.05,4088.72,4145.64,4097.95,4083.08,4052.31,0
11_55_57,55,3986.15,3951.79,4111.79,4089.74,4091.79,4096.92,4100.51,4108.72,4142.56,4093.85,4152.31,4104.1,4087.69,4059.49,0
11_55_57,56,3991.79,3954.87,4113.33,4093.85,4093.33,4101.03,4095.38,4100,4144.1,4076.92,4147.18,4108.21,4085.13,4062.56,0
11_55_57,57,3975.38,3942.56,4109.74,4089.74,4085.13,4095.38,4095.38,4095.38,4149.74,4071.28,4138.46,4099.49,4075.9,4053.85,0
11_55_57,58,3976.92,3945.64,4113.33,4091.28,4090.26,4097.44,4103.08,4092.82,4141.54,4066.15,4140,4098.97,4075.9,4055.38,0
11_55_57,59,3992.82,3957.44,4116.41,4092.82,4092.31,4109.74,4108.21,4094.87,4130.26,4058.46,4140.51,4108.21,4080,4061.54,0
11_55_57,60,3991.79,3957.95,4113.85,4089.74,4093.33,4110.77,4108.21,4103.59,4136.41,4069.74,4141.54,4109.23,4081.54,4063.08,0
11_55_57,61,3990.26,3962.56,4113.85,4097.44,4106.15,4104.62,4107.69,4109.74,4143.08,4080.51,4151.79,4109.23,4090.77,4068.72,0
11_55_57,62,4001.54,3969.74,4115.38,4107.18,4108.21,4106.67,4107.18,4107.69,4136.41,4077.95,4160,4117.95,4101.03,4074.87,0
11_55_57,63,4005.13,3968.21,4116.92,4107.18,4096.41,4105.13,4106.15,4107.18,4137.95,4085.64,4166.15,4123.59,4105.13,4076.92,0
11_55_57,64,4000.51,3964.62,4118.46,4103.59,4091.79,4100.51,4107.69,4111.79,4151.79,4099.49,4172.31,4122.56,4107.18,4076.41,0
11_55_57,65,4000.51,3965.13,4117.44,4104.62,4089.23,4104.62,4109.23,4113.33,4155.38,4085.13,4168.21,4117.44,4105.64,4075.9,0
11_55_57,66,3997.95,3963.59,4114.87,4104.62,4086.67,4106.15,4108.21,4107.69,4141.54,4065.13,4155.9,4108.72,4096.92,4073.33,0
11_55_57,67,3996.41,3967.69,4114.36,4098.46,4097.95,4104.62,4106.67,4104.62,4135.38,4078.46,4147.18,4103.59,4089.23,4069.23,0
11_55_57,68,3997.44,3972.31,4114.87,4097.44,4109.74,4110.26,4108.21,4108.21,4141.03,4092.31,4139.49,4106.67,4085.64,4064.62,0
11_55_57,69,3996.41,3967.18,4115.38,4104.1,4107.69,4114.87,4110.77,4107.18,4139.49,4073.33,4134.36,4105.64,4084.62,4064.1,0
11_55_57,70,3999.49,3966.15,4115.38,4109.23,4096.41,4110.26,4112.82,4108.21,4143.08,4071.79,4143.08,4105.64,4088.72,4070.77,0
11_55_57,71,4004.62,3973.33,4117.44,4107.18,4087.69,4104.1,4110.26,4118.46,4156.41,4100,4157.44,4113.85,4094.36,4075.38,0
11_55_57,72,4005.13,3974.36,4120.51,4106.67,4095.38,4105.64,4108.21,4125.64,4154.87,4099.49,4157.44,4120,4094.87,4075.38,0
11_55_57,73,4010.26,3974.36,4121.03,4109.23,4110.26,4115.9,4114.36,4124.1,4151.28,4087.18,4154.36,4122.56,4100.51,4079.49,0
11_55_57,74,4015.38,3973.33,4115.38,4107.18,4108.72,4120,4117.44,4111.79,4157.44,4101.54,4157.44,4120,4109.23,4083.59,0
11_55_57,75,4008.21,3971.79,4115.38,4104.62,4096.41,4109.74,4113.33,4103.59,4150.77,4105.64,4156.41,4109.74,4106.67,4078.97,0
11_55_57,76,4007.18,3974.36,4117.44,4107.18,4095.38,4104.62,4112.31,4110.26,4141.03,4090.26,4153.33,4106.67,4097.95,4073.33,0
11_55_57,77,4015.38,3973.85,4117.44,4108.72,4104.1,4114.87,4112.82,4109.74,4150.77,4091.28,4160,4116.41,4097.95,4078.46,0
11_55_57,78,4014.87,3975.38,4117.44,4107.18,4114.36,4125.13,4116.41,4104.1,4157.95,4105.13,4173.33,4123.59,4113.85,4092.82,0
11_55_57,79,4016.41,3984.1,4119.49,4113.33,4111.79,4122.56,4119.49,4115.9,4150.26,4095.9,4170.26,4125.13,4106.15,4092.82,0
11_55_57,80,4019.49,3986.15,4120,4121.03,4101.03,4114.36,4115.9,4128.72,4146.67,4077.44,4149.23,4118.46,4068.21,4070.77,0
11_55_57,81,4017.95,3981.03,4118.46,4115.9,4101.03,4116.41,4114.36,4123.59,4152.31,4087.18,4143.08,4108.21,4064.1,4064.1,0
11_55_57,82,4020.51,3978.97,4116.41,4108.21,4107.69,4118.46,4117.95,4112.82,4155.38,4105.64,4154.87,4112.82,4097.95,4083.08,0
11_55_57,83,4031.28,3975.38,4116.41,4105.64,4108.72,4115.9,4120,4108.21,4148.21,4099.49,4157.95,4121.03,4115.9,4096.41,0
11_55_57,84,4038.97,3967.18,4116.92,4098.46,4098.97,4117.95,4116.92,4104.62,4136.92,4089.23,4160.51,4118.46,4130.77,4101.54,0
11_55_57,85,4039.49,3964.62,4116.41,4094.87,4085.13,4112.31,4110.26,4102.56,4143.59,4098.97,4180.51,4123.59,4181.03,4118.46,0
11_55_57,86,4045.64,3956.41,4121.03,4093.85,4082.05,4104.62,4105.64,4110.26,4159.49,4109.74,4198.46,4134.87,4240.51,4141.03,0
11_55_57,87,4058.46,3939.49,4126.15,4083.08,4086.15,4108.72,4111.28,4122.05,4158.97,4103.08,4206.67,4138.97,4283.08,4158.46,0
11_55_57,88,4067.69,3931.79,4121.03,4076.41,4082.56,4111.79,4111.28,4125.64,4154.87,4108.72,4218.46,4146.15,4322.56,4169.74,0
11_55_57,89,4073.85,3930.77,4119.49,4086.67,4075.9,4103.08,4103.08,4121.03,4154.87,4135.38,4231.79,4154.36,4358.46,4180.51,0
11_55_57,90,4083.08,3929.23,4129.74,4096.41,4083.59,4103.08,4110.26,4120,4150.77,4146.15,4243.59,4161.54,4388.21,4202.05,0
11_55_57,91,4097.44,3926.67,4133.33,4089.74,4096.41,4109.74,4122.05,4122.05,4152.82,4137.95,4254.87,4180.51,4411.28,4221.03,0
11_55_57,92,4098.97,3913.85,4130.26,4080.51,4082.05,4108.21,4122.05,4122.56,4157.95,4142.05,4261.54,4196.92,4427.69,4222.05,0
11_55_57,93,4076.41,3884.62,4124.62,4068.72,4056.92,4106.67,4113.85,4121.54,4150.77,4137.44,4262.56,4190.26,4432.82,4217.95,0
11_55_57,94,4051.28,3862.05,4121.54,4048.21,4069.23,4116.92,4113.33,4131.28,4158.97,4132.31,4271.79,4181.54,4439.49,4217.95,0
11_55_57,95,4043.08,3846.15,4118.97,4034.87,4093.33,4122.56,4118.46,4151.28,4178.46,4154.87,4286.15,4183.08,4449.23,4213.85,0
11_55_57,96,4031.79,3829.23,4115.38,4040.51,4082.05,4110.77,4114.36,4148.72,4168.72,4160,4280.51,4180.51,4434.87,4197.95,0
11_55_57,97,4023.08,3836.92,4115.38,4053.85,4075.9,4109.23,4115.38,4136.41,4162.05,4157.44,4270.26,4176.41,4420.51,4185.13,0
11_55_57,98,4024.62,3846.67,4120,4057.95,4081.54,4122.05,4130.77,4142.56,4172.31,4169.23,4267.18,4175.9,4416.41,4177.95,0
11_55_57,99,4017.95,3819.49,4113.85,4035.38,4045.13,4126.15,4139.49,4138.97,4161.03,4149.23,4245.64,4171.28,4388.72,4152.82,0
11_55_57,100,3992.82,3780,4109.74,3980.51,4020,4118.97,4128.72,4117.44,4145.13,4116.92,4224.62,4163.08,4351.28,4122.56,0
11_55_57,101,3964.62,3776.41,4122.05,3965.13,4069.74,4106.67,4110.77,4108.21,4151.28,4123.08,4211.79,4165.13,4342.05,4114.36,0
11_55_57,102,3958.46,3807.69,4125.64,4025.13,4105.13,4097.95,4107.69,4122.56,4161.54,4141.03,4202.56,4172.82,4342.56,4120,0
11_55_57,103,3990.26,3844.1,4117.44,4074.87,4072.31,4109.23,4123.59,4154.36,4177.95,4161.54,4235.38,4179.49,4340.51,4131.28,0
11_55_57,104,4023.59,3851.28,4118.97,4055.38,4060.51,4124.62,4138.46,4181.03,4196.41,4191.28,4289.74,4187.69,4353.33,4141.03,0
11_55_57,105,4012.31,3835.9,4127.18,4025.13,4094.87,4128.72,4140.51,4182.05,4185.64,4185.13,4283.08,4183.59,4360.51,4137.95,0
11_55_57,106,3969.74,3830.26,4124.62,4024.62,4074.87,4123.59,4133.85,4167.69,4168.72,4154.87,4233.85,4170.77,4338.97,4117.44,0
11_55_57,107,3945.64,3815.9,4116.41,4005.13,4022.05,4108.72,4126.15,4149.74,4163.59,4136.41,4224.62,4165.64,4318.46,4102.05,0
11_55_57,108,3961.54,3798.46,4115.38,3988.72,4037.44,4107.69,4129.23,4140.51,4168.72,4134.87,4233.33,4171.79,4319.49,4110.77,0
11_55_57,109,3990.77,3833.85,4120.51,4045.13,4104.62,4133.85,4141.03,4157.95,4187.18,4162.05,4223.59,4192.82,4326.67,4123.59,0
11_55_57,110,3996.92,3873.85,4124.62,4094.36,4113.33,4141.54,4138.46,4178.97,4197.44,4182.05,4234.87,4216.41,4328.72,4109.74,0
11_55_57,111,3968.21,3815.38,4132.31,4032.31,4034.36,4112.31,4116.92,4162.56,4182.05,4153.33,4258.46,4196.92,4320.51,4098.46,0
11_55_57,112,3948.21,3766.67,4133.85,3984.1,4022.56,4104.1,4108.21,4139.49,4168.21,4129.74,4257.95,4161.54,4310.26,4130.26,0
11_55_57,113,3973.85,3842.05,4118.97,4051.28,4102.05,4131.79,4128.21,4163.59,4183.59,4162.56,4250.26,4172.82,4310.26,4150.26,0
