TIME, ED_COUNTER, AF3, F7, F3, FC5, T7, P7, O1, O2, P8, T8, FC6, F4, F8, AF4, LABEL
11_43_45,10,3949.23,4072.82,3992.31,4017.44,3905.13,4008.72,3729.74,4020.51,4105.13,4028.72,4534.87,3314.36,3836.41,3997.95,0
11_43_45,11,3950.26,4076.92,3991.28,4017.44,3904.1,4011.28,3729.23,4020.51,4104.62,4028.21,4520,3317.44,3854.36,3998.46,0
11_43_45,12,3953.33,4081.03,3994.36,4015.9,3900.51,4013.33,3727.18,4021.54,4104.62,4029.23,4494.36,3317.95,3873.33,3997.44,0
11_43_45,13,3951.28,4081.54,3996.92,4015.38,3903.59,4014.36,3724.62,4022.56,4105.13,4028.21,4483.59,3313.85,3881.54,3996.41,0
11_43_45,14,3944.1,4077.95,3992.82,4014.87,3902.05,4014.87,3724.1,4023.08,4104.62,4023.08,4500,3313.33,3889.23,3988.72,0
11_43_45,15,3937.95,4075.9,3986.15,4015.38,3898.46,4012.82,3724.1,4026.67,4104.1,4020,4509.74,3313.85,3900.51,3981.54,0
11_43_45,16,3934.36,4076.92,3987.69,4019.49,3900.51,4010.77,3722.56,4024.62,4105.64,4022.05,4505.64,3312.31,3907.18,3978.46,0
11_43_45,17,3935.38,4077.44,3992.31,4020,3901.54,4009.74,3723.59,4018.97,4105.64,4022.05,4507.69,3311.28,3914.87,3978.97,0
11_43_45,18,3935.38,4075.9,3991.79,4014.87,3896.92,4011.79,3724.1,4020,4104.62,4021.03,4509.23,3311.28,3919.49,3977.95,0
11_43_45,19,3933.85,4075.38,3988.21,4014.36,3896.92,4014.36,3725.13,4020.51,4106.15,4026.15,4502.56,3310.26,3919.49,3976.92,0
11_43_45,20,3932.82,4075.9,3989.23,4019.49,3902.56,4014.36,3725.64,4019.49,4104.62,4031.79,4498.97,3308.72,3919.49,3978.46,0
11_43_45,21,3934.87,4076.41,3991.28,4020,3903.59,4011.28,3724.62,4025.64,4100.51,4029.74,4497.95,3309.74,3924.62,3980,0
11_43_45,22,3934.87,4071.79,3993.33,4017.44,3901.03,4011.79,3724.62,4030.26,4102.56,4029.23,4490.26,3311.79,3923.08,3979.49,0
11_43_45,23,3936.41,4067.18,3992.31,4021.03,3902.56,4012.31,3729.23,4027.18,4105.13,4032.82,4486.15,3312.82,3918.97,3980,0
11_43_45,24,3938.46,4066.67,3992.82,4029.23,3905.64,4013.33,3728.72,4026.67,4104.62,4028.72,4488.72,3314.87,3920,3979.49,0
11_43_45,25,3936.41,4066.67,3994.87,4031.28,3907.69,4011.79,3724.62,4026.15,4105.13,4020.51,4484.1,3315.38,3928.21,3979.49,0
11_43_45,26,3931.79,4066.15,3992.82,4028.72,3905.64,4009.74,3724.62,4024.62,4104.1,4020.51,4478.46,3315.38,3934.87,3980,0
11_43_45,27,3932.31,4064.62,3990.77,4031.28,3902.05,4010.26,3726.67,4025.13,4102.05,4022.05,4479.49,3315.38,3937.44,3981.03,0
11_43_45,28,3932.82,4061.03,3990.77,4032.31,3902.05,4013.85,3725.64,4028.72,4105.13,4019.49,4475.38,3314.87,3938.46,3980,0
11_43_45,29,3930.26,4060.51,3991.79,4029.74,3909.23,4012.82,3728.21,4030.26,4106.67,4022.05,4463.59,3313.85,3942.05,3979.49,0
11_43_45,30,3930.77,4062.56,3993.33,4031.79,3915.38,4010.77,3732.31,4027.69,4098.97,4029.23,4458.46,3314.36,3942.56,3980,0
11_43_45,31,3935.38,4061.54,3993.85,4034.87,3915.38,4012.31,3732.31,4026.67,4099.49,4030.77,4463.59,3313.85,3941.03,3980,0
11_43_45,32,3937.95,4058.97,3987.18,4034.36,3916.41,4012.31,3730.26,4026.67,4106.67,4029.74,4463.08,3309.74,3945.13,3978.97,0
11_43_45,33,3936.41,4058.97,3985.13,4031.79,3924.1,4011.79,3731.79,4023.59,4104.62,4029.74,4456.41,3307.69,3948.72,3976.41,0
11_43_45,34,3933.85,4057.44,3989.74,4030.77,3932.31,4012.82,3733.33,4023.08,4099.49,4029.74,4455.38,3310.77,3950.26,3973.85,0
11_43_45,35,3935.9,4055.38,3989.74,4034.36,3940.51,4012.82,3731.28,4022.56,4099.49,4029.23,4453.85,3313.33,3951.28,3972.82,0
11_43_45,36,3943.08,4051.79,3989.74,4035.38,3944.1,4011.79,3734.87,4018.46,4104.62,4029.23,4450.26,3311.28,3953.33,3975.38,0
11_43_45,37,3942.05,4047.18,3992.31,4031.28,3942.56,4013.85,3737.44,4021.03,4105.64,4029.23,4448.21,3311.28,3957.95,3974.36,0
11_43_45,38,3935.38,4050.26,3989.23,4028.72,3941.54,4014.36,3735.9,4028.21,4100.51,4029.23,4448.21,3311.79,3966.15,3974.36,0
11_43_45,39,3934.36,4052.82,3984.62,4030.77,3942.05,4011.79,3737.44,4026.15,4099.49,4029.23,4448.72,3310.26,3968.72,3972.82,0
11_43_45,40,3940,4048.21,3985.64,4030.77,3941.54,4010.77,3741.54,4023.59,4102.05,4029.23,4446.15,3308.72,3970.77,3972.82,0
11_43_45,41,3940.51,4043.59,3988.72,4029.23,3939.49,4012.82,3736.92,4027.18,4102.56,4029.23,4439.49,3309.23,3972.31,3972.31,0
11_43_45,42,3940.51,4044.62,3991.28,4029.74,3936.92,4013.33,3733.85,4027.18,4103.08,4029.23,4440.51,3309.74,3970.26,3971.28,0
11_43_45,43,3936.92,4044.62,3992.31,4034.87,3938.46,4012.31,3740,4024.1,4105.13,4029.23,4443.08,3311.28,3971.28,3967.18,0
11_43_45,44,3934.36,4041.54,3991.28,4037.95,3938.46,4012.31,3747.18,4025.64,4105.13,4029.23,4435.9,3311.28,3978.97,3966.15,0
11_43_45,45,3936.41,4037.95,3990.26,4035.9,3934.87,4014.36,3746.67,4024.62,4105.13,4029.23,4432.31,3309.74,3978.97,3967.69,0
11_43_45,46,3937.95,4035.38,3989.74,4034.36,3940,4013.85,3741.03,4021.03,4104.1,4029.23,4435.9,3310.26,3978.97,3970.77,0
11_43_45,47,3934.87,4036.41,3990.77,4037.44,3946.15,4011.79,3738.97,4021.54,4102.05,4029.23,4434.36,3313.85,3982.56,3971.28,0
11_43_45,48,3934.87,4035.9,3992.31,4043.08,3940,4012.31,3744.1,4025.13,4104.62,4029.23,4433.85,3314.87,3982.05,3969.74,0
11_43_45,49,3940,4033.33,3992.82,4046.67,3939.49,4013.85,3747.69,4026.15,4106.15,4029.23,4434.36,3312.82,3977.44,3970.26,0
11_43_45,50,3938.97,4031.79,3993.33,4042.05,3949.23,4012.82,3746.67,4022.56,4103.59,4029.23,4427.18,3312.31,3978.97,3971.28,0
11_43_45,51,3935.9,4028.72,3991.28,4033.85,3946.15,4012.82,3746.15,4026.15,4105.64,4029.23,4424.1,3314.36,3983.08,3971.79,0
11_43_45,52,3937.95,4026.15,3989.74,4034.36,3939.49,4013.85,3748.72,4032.82,4106.67,4029.23,4427.18,3313.33,3980,3973.33,0
11_43_45,53,3938.97,4030.26,3992.31,4040.51,3944.1,4014.36,3751.28,4029.74,4100.51,4029.23,4425.13,3312.31,3979.49,3974.36,0
11_43_45,54,3936.92,4033.85,3995.38,4045.64,3943.59,4013.85,3750.77,4022.56,4100,4029.23,4420,3314.87,3984.1,3969.23,0
11_43_45,55,3938.97,4032.82,3991.28,4048.72,3944.1,4012.31,3749.23,4026.67,4106.15,4029.23,4417.44,3315.38,3987.69,3966.67,0
11_43_45,56,3938.97,4031.28,3990.26,4048.72,3949.74,4013.33,3750.26,4031.79,4104.62,4029.23,4420.51,3311.79,3983.59,3967.69,0
11_43_45,57,3937.44,4029.23,3992.31,4048.72,3948.72,4012.82,3755.9,4029.23,4101.03,4029.23,4427.18,3312.82,3981.03,3966.15,0
11_43_45,58,3937.95,4028.21,3991.79,4050.26,3944.1,4012.31,3754.36,4029.74,4102.05,4029.23,4426.15,3317.95,3981.03,3964.1,0
11_43_45,59,3943.59,4026.67,3991.79,4050.26,3949.74,4013.85,3749.74,4030.77,4102.56,4029.23,4422.56,3316.41,3979.49,3969.23,0
11_43_45,60,3946.67,4022.05,3990.77,4050.26,3952.31,4015.38,3753.85,4027.18,4100.51,4029.23,4422.05,3312.82,3975.38,3973.33,0
11_43_45,61,3947.18,4021.03,3990.77,4053.33,3949.23,4012.31,3758.46,4026.67,4100.51,4029.23,4418.97,3312.31,3973.33,3974.36,0
11_43_46,62,3944.62,4023.08,3991.79,4052.82,3949.74,4012.31,3755.9,4030.77,4099.49,4029.23,4413.33,3314.36,3970.77,3975.38,0
11_43_46,63,3947.18,4022.05,3991.28,4053.85,3950.77,4014.87,3756.41,4030.77,4100.51,4029.23,4414.36,3315.38,3967.18,3977.44,0
11_43_46,64,3954.87,4018.97,3990.77,4059.49,3948.72,4014.87,3760,4030.77,4105.64,4029.23,4413.33,3315.38,3968.21,3978.97,0
11_43_46,65,3954.87,4020,3992.31,4056.41,3947.18,4013.85,3760,4031.79,4103.59,4029.23,4408.72,3313.85,3974.87,3981.54,0
11_43_46,66,3948.72,4017.44,3992.82,4051.28,3946.67,4012.31,3756.92,4027.69,4097.95,4029.23,4409.74,3313.85,3972.82,3983.08,0
11_43_46,67,3950.77,4012.31,3991.79,4056.92,3950.77,4012.31,3755.38,4025.13,4102.56,4029.23,4409.23,3314.87,3969.74,3982.56,0
11_43_46,68,3955.9,4009.74,3993.33,4061.54,3955.38,4014.36,3757.95,4030.26,4107.18,4029.23,4404.62,3313.85,3975.38,3982.56,0
11_43_46,69,3954.87,4006.67,3994.87,4056.41,3953.33,4013.85,3760.51,4031.79,4104.1,4029.23,4405.64,3314.36,3975.9,3986.15,0
11_43_46,70,3955.9,4002.05,3993.33,4054.87,3949.23,4012.82,3760.51,4028.72,4104.1,4029.23,4407.18,3316.41,3964.62,3991.28,0
11_43_46,71,3961.03,3999.49,3993.85,4057.95,3954.36,4013.85,3763.59,4027.69,4104.1,4029.23,4402.05,3318.97,3955.9,3995.9,0
11_43_46,72,3963.59,4002.56,3994.36,4057.95,3959.49,4014.36,3768.72,4029.23,4100,4029.23,4394.36,3317.95,3957.95,3999.49,0
11_43_46,73,3964.62,4002.05,3994.36,4061.54,3958.46,4012.82,3768.21,4029.74,4100.51,4029.23,4387.69,3317.44,3956.92,3997.44,0
11_43_46,74,3977.95,3993.85,3995.38,4063.59,3960.51,4013.33,3768.21,4030.26,4103.59,4029.23,4388.21,3320.51,3938.46,4002.05,0
11_43_46,75,3984.62,3990.77,3997.44,4056.92,3964.1,4015.38,3775.38,4032.31,4103.08,4029.23,4388.72,3319.49,3917.44,4009.74,0
11_43_46,76,3974.87,3997.95,3993.33,4052.31,3959.49,4014.87,3778.46,4033.33,4101.54,4029.23,4387.69,3316.41,3930.26,4015.9,0
11_43_46,77,3963.59,3994.36,3986.15,4056.41,3957.44,4013.85,3773.33,4030.26,4101.54,4029.23,4390.26,3317.44,3951.28,4015.38,0
11_43_46,78,3968.72,3976.41,3988.21,4058.46,3961.54,4014.36,3773.85,4028.72,4103.08,4029.23,4391.28,3318.46,3948.21,4016.92,0
11_43_46,79,3972.31,3963.59,3993.85,4053.33,3957.95,4013.85,3775.9,4034.36,4102.56,4029.23,4388.21,3315.9,3950.26,4025.64,0
11_43_46,80,3968.21,3957.95,3993.85,4051.28,3953.85,4011.79,3775.38,4035.9,4102.05,4029.23,4391.79,3315.9,3969.74,4035.9,0
11_43_46,81,3972.82,3956.41,3991.79,4052.31,3958.97,4013.33,3775.9,4029.23,4103.59,4029.23,4394.36,3318.46,3956.92,4037.95,0
11_43_46,82,3980,3960,3991.28,4051.79,3964.62,4015.9,3782.05,4028.72,4103.08,4029.23,4389.23,3314.87,3938.97,4033.33,0
11_43_46,83,3974.36,3957.44,3992.82,4048.72,3959.49,4016.41,3783.59,4035.38,4101.03,4028.72,4395.9,3313.33,3948.72,4028.72,0
11_43_46,84,3970.26,3954.36,3995.38,4047.18,3956.92,4014.36,3786.15,4034.87,4103.59,4029.23,4403.08,3318.97,3950.26,4028.21,0
11_43_46,85,3976.41,3956.41,3994.87,4049.23,3961.03,4014.87,3793.33,4030.26,4103.08,4029.23,4394.36,3317.95,3934.87,4027.18,0
11_43_46,86,3981.54,3961.03,3994.87,4049.74,3960.51,4015.38,3797.44,4029.23,4100,4028.21,4385.64,3316.41,3931.28,4028.72,0
11_43_46,87,3986.67,3957.95,3995.38,4049.23,3959.49,4013.85,3798.97,4029.23,4101.03,4030.77,4383.08,3321.54,3932.82,4035.38,0
11_43_46,88,3993.33,3950.26,3996.92,4052.31,3965.13,4014.36,3802.56,4030.77,4101.03,4033.85,4383.08,3324.62,3922.56,4040.51,0
11_43_46,89,3992.82,3952.82,3997.44,4049.74,3970.26,4015.38,3805.64,4032.31,4099.49,4034.36,4382.05,3320.51,3916.41,4037.44,0
11_43_46,90,3986.15,3959.49,3996.41,4045.64,3971.28,4015.38,3805.13,4032.31,4102.56,4033.85,4379.49,3321.03,3915.38,4033.85,0
11_43_46,91,3987.18,3957.44,3994.36,4047.69,3972.82,4013.85,3808.72,4032.82,4105.64,4033.85,4378.97,3322.05,3915.38,4036.92,0
11_43_46,92,3991.79,3951.79,3995.38,4051.79,3973.33,4013.85,3811.79,4031.79,4105.13,4032.82,4384.1,3321.54,3906.15,4040,0
11_43_46,93,3994.87,3954.87,3995.38,4049.74,3971.79,4013.85,3812.31,4031.28,4104.1,4032.82,4382.56,3323.08,3895.9,4042.56,0
11_43_46,94,3991.28,3952.82,3993.85,4049.23,3973.85,4014.87,3814.87,4034.87,4105.64,4033.85,4372.31,3324.62,3897.95,4037.95,0
11_43_46,95,3991.79,3947.18,3994.87,4051.28,3979.49,4016.92,3818.97,4034.87,4107.18,4033.33,4369.74,3323.08,3902.05,4036.92,0
11_43_46,96,3998.97,3948.72,3997.95,4050.26,3978.97,4016.41,3818.46,4029.74,4104.62,4033.33,4371.79,3323.59,3891.79,4042.56,0
11_43_46,97,4007.18,3949.23,3997.95,4050.77,3978.46,4014.36,3816.92,4031.28,4098.97,4033.85,4367.69,3326.67,3882.56,4047.69,0
11_43_46,98,4007.69,3947.69,3997.44,4051.79,3985.64,4014.87,3818.97,4033.85,4100,4033.85,4356.92,3327.18,3885.64,4045.64,0
11_43_46,99,4010.77,3944.1,3994.87,4051.79,3984.62,4014.87,3822.05,4028.21,4106.67,4033.85,4350.77,3324.62,3894.36,4046.67,0
11_43_46,100,4012.82,3940,3994.36,4052.82,3975.38,4012.82,3823.08,4028.21,4107.18,4033.85,4347.18,3325.13,3894.87,4049.23,0
11_43_46,101,4011.79,3940,3995.9,4053.85,3981.03,4013.85,3825.64,4032.82,4101.54,4033.85,4343.59,3326.15,3890.26,4048.72,0
11_43_46,102,4013.33,3945.13,3995.38,4051.79,3988.72,4017.44,3827.18,4032.31,4099.49,4033.85,4343.08,3325.13,3884.1,4047.69,0
11_43_46,103,4020,3949.74,3995.38,4050.77,3987.18,4015.9,3826.67,4030.26,4101.54,4033.85,4344.1,3324.1,3877.44,4049.23,0
11_43_46,104,4023.59,3953.33,3995.38,4051.28,3991.28,4013.85,3826.67,4031.79,4102.56,4033.85,4342.56,3322.56,3869.74,4047.18,0
11_43_46,105,4020.51,3959.49,3994.36,4051.79,3998.46,4016.41,3832.82,4031.28,4100.51,4033.85,4336.41,3323.59,3859.49,4042.56,0
11_43_46,106,4022.56,3963.08,3994.36,4052.31,4000,4019.49,3840,4027.69,4098.97,4033.85,4330.77,3325.64,3848.72,4044.1,0
11_43_46,107,4027.18,3965.13,3997.44,4051.28,3999.49,4018.46,3838.97,4025.13,4100.51,4033.85,4325.13,3322.05,3844.62,4050.26,0
11_43_46,108,4028.21,3968.72,3996.92,4050.26,3994.36,4018.46,3834.36,4027.18,4100,4033.85,4322.05,3322.05,3850.77,4058.97,0
11_43_46,109,4031.28,3967.69,3995.38,4048.72,3989.23,4018.46,3836.92,4032.82,4096.41,4033.85,4317.95,3329.23,3852.82,4067.18,0
11_43_46,110,4037.95,3964.62,3996.41,4046.15,3994.36,4016.41,3841.54,4032.31,4096.41,4033.85,4312.82,3328.72,3846.67,4071.28,0
11_43_46,111,4038.97,3969.74,3996.92,4044.62,3996.92,4016.41,3836.41,4029.23,4098.97,4033.85,4311.28,3324.1,3838.97,4069.23,0
11_43_46,112,4037.44,3981.03,3996.41,4045.13,3997.95,4017.95,3837.44,4031.79,4095.9,4033.85,4312.31,3324.62,3833.85,4070.77,0
11_43_46,113,4036.41,3985.13,3996.92,4047.18,4001.03,4016.92,3849.23,4031.79,4092.82,4033.85,4310.77,3326.67,3826.15,4070.26,0
11_43_46,114,4036.92,3987.69,3996.92,4046.67,4000.51,4015.38,3855.9,4028.72,4096.92,4033.85,4307.69,3324.62,3821.54,4068.72,0
11_43_46,115,4037.44,3994.36,3995.38,4045.64,4001.03,4018.46,3852.82,4027.18,4098.46,4033.85,4307.18,3322.56,3816.41,4066.67,0
11_43_46,116,4043.08,3995.38,3994.87,4045.64,4003.08,4022.05,3851.28,4025.64,4094.36,4033.85,4303.59,3322.56,3812.82,4072.82,0
11_43_46,117,4047.18,3990.26,3997.44,4045.64,4002.56,4022.56,3854.36,4028.72,4094.36,4033.85,4298.46,3323.08,3811.28,4076.92,0
11_43_46,118,4049.23,3985.64,3998.97,4045.64,4003.08,4020,3856.41,4034.36,4096.92,4033.85,4296.92,3323.08,3813.85,4075.9,0
11_43_46,119,4051.79,3982.05,3997.44,4041.54,4006.15,4018.97,3855.38,4032.31,4092.31,4033.85,4294.87,3322.05,3811.28,4076.92,0
11_43_46,120,4056.41,3983.59,3996.41,4037.44,4008.21,4017.44,3858.46,4029.23,4088.21,4033.85,4288.21,3322.56,3806.15,4080,0
11_43_46,121,4057.44,3987.18,3996.41,4037.95,4009.23,4015.38,3864.62,4031.28,4091.28,4033.85,4283.59,3323.59,3808.21,4074.36,0
11_43_46,122,4057.44,3985.13,3997.95,4038.46,4011.79,4016.41,3867.69,4032.82,4092.82,4033.85,4284.1,3323.59,3813.33,4069.23,0
11_43_46,123,4060,3985.64,3999.49,4033.85,4011.28,4018.46,3865.13,4031.28,4088.72,4033.85,4282.05,3324.1,3812.82,4076.41,0
11_43_46,124,4062.56,3990.26,3998.46,4030.77,4010.26,4018.97,3866.15,4030.77,4089.23,4033.85,4278.46,3325.13,3808.21,4083.08,0
11_43_46,124,4062.56,3990.26,3998.46,4030.77,4010.26,4018.97,3866.15,4030.77,4089.23,4033.85,4278.46,3325.13,3808.21,4083.08,0
11_43_46,125,4065.13,3986.67,3995.38,4031.79,4010.26,4017.44,3870.26,4034.36,4090.77,4033.85,4277.44,3324.62,3807.69,4082.05,0
11_43_46,126,4070.77,3986.67,3996.92,4032.31,4011.79,4019.49,3869.74,4036.41,4088.72,4033.85,4276.41,3324.1,3805.13,4081.54,0
11_43_46,127,4074.36,3994.36,3996.92,4029.74,4014.36,4022.05,3865.64,4031.79,4089.23,4033.85,4274.36,3323.59,3802.56,4085.13,0
11_43_46,128,4072.31,3992.82,3995.9,4023.08,4014.36,4020,3868.21,4027.69,4090.77,4033.85,4272.82,3324.1,3802.05,4085.64,0
11_43_46,0,4077.44,3989.74,3998.46,4019.49,4015.38,4018.97,3874.87,4032.31,4089.23,4033.85,4267.69,3324.1,3801.54,4085.13,0
11_43_46,1,4084.1,3993.33,3998.46,4020.51,4020,4022.56,3876.92,4036.41,4087.18,4033.85,4262.56,3323.59,3793.85,4084.62,0
11_43_46,2,4085.13,4000.51,3995.38,4020,4025.64,4023.59,3872.31,4035.38,4088.72,4033.85,4266.67,3323.59,3787.69,4086.67,0
11_43_46,3,4081.03,4003.59,3997.95,4017.44,4024.1,4020,3872.31,4032.82,4089.23,4033.85,4264.62,3325.64,3792.31,4087.18,0
11_43_46,4,4080.51,4001.03,3997.95,4015.9,4019.49,4020,3881.54,4031.79,4087.18,4033.85,4256.92,3325.64,3798.46,4089.23,0
11_43_46,5,4083.59,3998.46,3996.92,4013.33,4022.56,4022.05,3885.13,4033.33,4085.64,4033.85,4256.41,3324.1,3794.36,4088.21,0
11_43_46,6,4087.18,4000.51,4001.03,4007.69,4030.26,4023.08,3885.13,4035.38,4085.13,4033.33,4256.41,3324.1,3791.79,4086.15,0
11_43_46,7,4086.15,3997.44,4003.59,4003.59,4031.79,4025.13,3889.23,4036.41,4085.13,4033.85,4255.38,3327.69,3786.15,4084.1,0
11_43_46,8,4088.21,3994.87,4001.54,4004.1,4030.26,4020,3892.82,4033.85,4085.64,4033.85,4257.95,3328.21,3783.08,4086.67,0
11_43_46,9,4090.26,3996.92,4000,3999.49,4028.72,4017.44,3893.33,4032.31,4085.64,4033.33,4252.82,3326.67,3789.74,4090.77,0
11_43_46,10,4091.79,3993.33,4002.56,3991.28,4029.74,4022.56,3898.97,4033.33,4085.64,4033.85,4245.13,3327.69,3795.38,4094.87,0
11_43_46,11,4096.41,3990.26,4004.1,3990.77,4032.82,4025.13,3900.51,4035.9,4086.15,4034.87,4252.82,3329.23,3789.74,4093.85,0
11_43_46,12,4103.08,3997.44,4002.56,3988.21,4033.85,4020.51,3899.49,4035.38,4085.13,4034.87,4255.9,3327.69,3792.31,4090.26,0
11_43_46,13,4105.64,3993.85,4002.05,3977.95,4034.36,4020,3898.46,4034.36,4082.05,4034.87,4246.67,3326.67,3803.59,4091.79,0
11_43_46,14,4109.23,3987.18,4004.62,3975.9,4040,4021.03,3888.21,4035.38,4080.51,4034.87,4244.1,3328.72,3809.23,4096.92,0
11_43_46,15,4113.85,3994.87,4004.1,3973.33,4040.51,4016.41,3882.56,4033.33,4078.97,4034.87,4243.08,3326.67,3812.82,4100,0
11_43_46,16,4114.87,3998.46,4002.05,3962.56,4039.49,4016.92,3895.38,4032.31,4077.95,4034.87,4237.44,3324.62,3814.36,4098.46,0
11_43_46,17,4118.46,3992.82,4001.03,3953.85,4046.67,4022.05,3903.59,4035.38,4070.77,4034.87,4233.85,3325.64,3818.97,4100.51,0
11_43_46,18,4114.36,3994.36,4002.56,3949.23,4046.67,4024.62,3902.05,4036.41,4065.13,4034.87,4228.72,3326.67,3827.18,4104.1,0
11_43_46,19,4104.1,3998.97,4002.56,3944.62,4040.51,4023.08,3910.77,4034.87,4068.72,4034.87,4224.62,3328.21,3829.23,4106.67,0
11_43_46,20,4093.33,3995.38,4001.03,3938.46,4049.23,4021.03,3920,4034.87,4063.59,4034.87,4227.18,3329.23,3833.33,4108.72,0
11_43_46,21,4091.28,3996.41,4000,3931.79,4058.97,4020,3917.95,4034.87,4053.33,4034.87,4226.15,3327.69,3845.64,4113.85,0
11_43_46,29,4118.46,4008.21,4005.64,3893.85,4054.87,4024.62,3934.87,4032.82,4051.79,4034.87,4180,3327.18,3855.9,4131.79,0
11_43_46,30,4121.54,4004.1,4006.67,3890.77,4057.95,4025.13,3937.95,4032.31,4046.15,4034.87,4178.97,3329.74,3860.51,4133.33,0
11_43_46,31,4118.97,4005.64,4004.62,3889.23,4058.46,4024.1,3941.03,4033.85,4044.1,4033.33,4180,3331.79,3864.1,4133.33,0
11_43_46,32,4117.95,4013.85,4001.03,3883.08,4054.87,4023.59,3944.62,4032.82,4043.08,4033.85,4174.36,3328.72,3867.69,4134.36,0
11_43_46,33,4117.95,4012.31,4000,3880.51,4059.49,4023.08,3943.59,4032.31,4041.54,4033.85,4167.69,3326.15,3866.67,4134.87,0
11_43_46,34,4124.62,4007.69,4003.08,3881.54,4063.59,4021.54,3943.59,4035.9,4044.62,4033.85,4165.64,3327.18,3861.03,4140,0
11_43_46,35,4130.77,4011.79,4005.64,3879.49,4061.03,4023.08,3948.72,4035.38,4043.08,4033.85,4162.56,3327.18,3855.38,4144.1,0
11_43_46,36,4132.31,4012.82,4003.59,3880.51,4061.54,4024.62,3953.33,4033.33,4037.95,4033.85,4158.97,3328.21,3855.38,4143.59,0
11_43_46,37,4132.82,4008.72,4004.1,3876.92,4064.1,4025.64,3952.31,4034.87,4040,4033.85,4162.05,3329.74,3852.82,4146.67,0
11_43_46,38,4132.31,4013.85,4004.1,3868.21,4066.15,4026.15,3951.79,4035.9,4042.05,4033.85,4161.54,3328.72,3850.77,4151.28,0
11_43_46,39,4131.28,4017.44,4003.08,3870.77,4067.18,4025.64,3955.38,4034.36,4035.9,4033.85,4152.31,3330.26,3848.21,4151.28,0
11_43_46,40,4139.49,4009.74,4005.64,3877.95,4069.23,4024.1,3960,4033.85,4033.85,4034.87,4151.79,3329.74,3842.56,4152.31,0
11_43_46,41,4141.54,4005.13,4004.1,3875.9,4072.31,4025.64,3957.95,4034.87,4036.41,4035.9,4156.92,3324.1,3839.49,4150.26,0
11_43_46,42,4136.92,4012.82,3999.49,3874.87,4075.38,4025.13,3952.31,4034.36,4033.33,4035.9,4157.44,3324.62,3835.9,4154.87,0
11_43_46,43,4140,4012.82,4004.1,3880,4077.95,4024.62,3952.82,4033.33,4031.79,4033.33,4151.28,3330.26,3828.72,4158.46,0
11_43_46,44,4145.13,4007.18,4007.18,3878.46,4077.95,4025.13,3958.97,4031.79,4034.36,4032.31,4151.79,3329.74,3833.33,4152.82,0
11_43_46,45,4138.97,4005.13,4002.05,3877.95,4075.9,4025.13,3961.54,4032.31,4029.74,4034.36,4160,3328.72,3829.23,4155.38,0
11_43_46,46,4140,4002.05,4003.08,3889.74,4075.38,4023.59,3962.56,4033.85,4028.72,4034.87,4162.05,3329.23,3820.51,4159.49,0
11_43_46,47,4143.08,4005.64,4007.18,3896.41,4076.92,4024.62,3964.1,4031.79,4031.79,4033.85,4167.69,3330.26,3801.54,4151.28,0
11_43_46,48,4141.03,4016.92,4004.1,3898.46,4080.51,4023.59,3964.62,4030.26,4031.79,4034.87,4179.49,3333.33,3760,4163.59,0
11_43_46,49,4142.56,4012.82,4001.03,3904.62,4083.59,4023.59,3966.67,4031.79,4027.69,4035.9,4178.46,3331.28,3731.28,4190.77,0
11_43_46,50,4144.62,4010.26,4002.56,3916.41,4081.03,4027.69,3971.79,4034.87,4026.67,4035.38,4169.23,3326.15,3748.21,4175.38,0
11_43_46,51,4140.51,4020.51,4004.62,3926.15,4081.03,4028.72,3972.82,4034.36,4029.23,4035.38,4163.59,3323.08,3800,4120.51,0
11_43_46,52,4140,4016.92,4006.67,3928.72,4084.62,4026.15,3970.77,4032.82,4026.15,4035.38,4176.41,3326.67,3774.36,4130.26,0
11_43_46,53,4146.67,4011.79,4005.64,3932.31,4082.05,4024.1,3973.33,4034.36,4022.05,4035.38,4209.74,3332.31,3661.54,4203.59,0
11_43_46,54,4142.05,4019.49,4004.62,3944.62,4082.56,4024.1,3980,4035.38,4022.56,4035.38,4213.33,3328.72,3663.59,4183.08,0
11_43_46,55,4125.64,4018.97,4002.05,3955.38,4090.26,4023.59,3980,4033.33,4023.59,4035.38,4184.1,3322.56,3794.87,4088.72,0
11_43_46,56,4117.44,4013.85,4001.54,3956.92,4088.21,4023.08,3972.82,4033.33,4020.51,4035.38,4204.62,3330.26,3776.41,4094.36,0
11_43_46,57,4120,4019.49,4001.54,3957.95,4081.03,4022.56,3968.72,4035.38,4019.49,4035.38,4250.26,3334.87,3678.97,4149.23,0
11_43_46,58,4112.31,4012.31,4001.54,3959.49,4078.97,4024.62,3967.69,4035.9,4021.54,4035.38,4236.41,3326.15,3751.28,4111.28,0
11_43_46,59,4097.95,4000.51,4000.51,3963.08,4076.92,4028.72,3967.18,4034.87,4020.51,4035.38,4217.95,3326.67,3833.33,4074.87,0
11_43_46,60,4089.23,4002.56,4000.51,3970.26,4073.85,4028.21,3965.13,4034.36,4018.97,4035.38,4231.79,3333.33,3806.67,4089.74,0
11_43_46,61,4088.21,4002.56,4001.54,3974.36,4073.85,4026.15,3964.62,4034.36,4020.51,4035.38,4231.28,3331.79,3807.69,4086.67,0
11_43_46,62,4085.64,3997.44,4003.59,3976.92,4073.33,4027.18,3964.1,4035.38,4020.51,4035.38,4223.08,3331.28,3829.23,4076.41,0
11_43_47,63,4082.56,4001.03,4004.62,3982.56,4073.85,4026.15,3962.56,4035.9,4016.41,4035.38,4227.18,3331.28,3822.05,4081.03,0
11_43_47,64,4082.05,4004.1,4002.05,3987.18,4073.85,4024.1,3961.54,4035.38,4015.38,4035.38,4222.05,3330.77,3822.56,4083.08,0
11_43_47,65,4085.64,4007.69,4001.54,3988.21,4074.36,4026.15,3965.13,4034.36,4017.95,4035.38,4208.21,3329.74,3831.79,4082.05,0
11_43_47,66,4087.18,4012.82,4001.03,3992.31,4075.9,4027.69,3966.67,4033.33,4014.87,4035.38,4200.51,3328.72,3821.03,4087.18,0
11_43_47,67,4088.72,4008.21,4001.54,3999.49,4076.41,4025.64,3964.1,4034.36,4012.82,4035.38,4191.79,3328.72,3815.9,4090.26,0
11_43_47,68,4092.31,4001.54,4004.1,4004.1,4077.44,4024.62,3963.59,4036.92,4016.41,4035.38,4189.23,3330.26,3809.23,4094.36,0
11_43_47,69,4091.79,4006.67,4004.62,4006.15,4076.41,4026.15,3965.13,4035.9,4016.92,4035.38,4189.23,3332.82,3796.41,4098.46,0
11_43_47,70,4097.95,4009.74,4005.64,4009.74,4077.95,4026.67,3968.21,4034.36,4015.9,4035.38,4176.41,3332.31,3782.56,4097.95,0
11_43_47,71,4106.15,4002.05,4009.74,4016.41,4085.13,4026.15,3972.31,4034.36,4016.41,4035.38,4177.44,3331.79,3773.33,4089.74,0
11_43_47,72,4103.08,3990.26,4009.74,4020,4086.67,4027.18,3972.31,4034.36,4016.41,4035.38,4210.77,3332.82,3770.26,4077.44,0
11_43_47,73,4097.44,3977.44,4009.74,4021.54,4077.95,4026.67,3966.15,4034.36,4013.85,4035.38,4231.28,3333.85,3776.92,4071.28,0
11_43_47,74,4098.97,3970.77,4009.23,4026.67,4077.44,4023.08,3962.05,4033.85,4010.77,4035.38,4222.56,3331.79,3796.92,4071.79,0
11_43_47,75,4093.33,3966.67,4003.59,4034.36,4083.08,4023.59,3964.1,4034.36,4011.79,4034.87,4221.03,3330.26,3810.77,4070.77,0
11_43_47,76,4089.23,3956.92,4001.03,4036.41,4083.59,4027.69,3966.15,4035.9,4013.85,4033.85,4237.44,3330.26,3815.9,4070.77,0
11_43_47,77,4093.85,3947.69,4003.08,4033.85,4081.03,4028.72,3964.1,4035.38,4013.33,4033.85,4244.1,3330.77,3820.51,4070.26,0
11_43_47,78,4096.92,3942.05,4002.56,4032.82,4083.08,4025.64,3964.1,4034.87,4012.82,4034.87,4234.36,3330.26,3831.28,4071.79,0
11_43_47,79,4093.85,3930.77,4004.1,4037.95,4084.62,4024.1,3965.13,4035.9,4013.33,4034.87,4225.64,3329.74,3846.15,4072.82,0
11_43_47,80,4095.38,3906.67,4005.64,4045.64,4084.62,4025.13,3967.69,4034.36,4013.85,4034.36,4229.23,3330.26,3861.03,4077.95,0
11_43_47,81,4098.97,3877.95,4003.08,4046.67,4087.18,4026.67,3969.74,4031.79,4013.33,4034.87,4234.87,3329.74,3868.72,4081.54,0
11_43_47,82,4103.08,3858.97,4003.08,4044.1,4090.77,4024.62,3970.26,4032.82,4014.36,4034.87,4226.67,3328.21,3879.49,4086.67,0
11_43_47,83,4102.56,3836.92,4006.67,4051.28,4090.26,4024.1,3968.21,4034.36,4013.33,4034.87,4219.49,3328.72,3894.87,4090.77,0
11_43_47,84,4107.18,3796.41,4009.23,4058.97,4091.28,4024.62,3973.85,4033.85,4011.28,4034.87,4220,3329.23,3907.18,4095.9,0
11_43_47,85,4121.03,3767.18,4011.79,4060,4096.41,4025.13,3983.59,4033.85,4011.79,4034.87,4189.23,3329.74,3919.49,4107.18,0
11_43_47,86,4131.28,3769.74,4011.28,4063.59,4098.46,4026.15,3986.67,4034.87,4012.31,4034.87,4141.54,3330.77,3936.41,4120.51,0
11_43_47,87,4126.67,3776.92,4007.18,4067.69,4097.44,4026.15,3984.62,4035.9,4013.33,4034.87,4127.69,3331.28,3946.15,4123.59,0
11_43_47,88,4122.05,3779.49,4008.21,4068.21,4103.08,4027.18,3985.64,4035.38,4010.77,4034.36,4131.79,3330.26,3939.49,4119.49,0
11_43_47,89,4124.1,3786.15,4009.74,4073.85,4107.18,4028.21,3986.67,4031.79,4008.21,4034.87,4124.62,3329.74,3929.23,4121.03,0
11_43_47,90,4123.59,3792.82,4005.13,4081.03,4103.59,4027.18,3985.64,4030.26,4008.21,4034.87,4122.56,3329.23,3928.21,4122.56,0
11_43_47,91,4122.05,3803.59,4001.54,4082.56,4100,4024.62,3987.18,4033.85,4010.77,4034.36,4130.26,3329.23,3924.62,4120,0
11_43_47,92,4120.51,3820,4005.64,4083.08,4099.49,4025.13,3989.23,4036.41,4009.74,4034.87,4126.15,3331.79,3911.28,4114.36,0
11_43_47,93,4116.41,3836.41,4006.15,4084.1,4102.56,4026.15,3985.13,4036.41,4004.1,4035.38,4120.51,3330.26,3905.64,4110.26,0
11_43_47,94,4107.69,3851.28,4002.56,4083.08,4107.18,4026.67,3979.49,4034.87,4002.56,4035.9,4117.95,3327.69,3911.79,4104.1,0
11_43_47,95,4103.08,3870.77,4002.56,4081.54,4106.67,4029.23,3978.97,4034.36,4004.1,4036.41,4102.56,3327.18,3923.59,4099.49,0
11_43_47,96,4100.51,3888.72,4003.59,4082.56,4103.08,4029.23,3978.46,4035.38,4004.1,4036.41,4078.46,3326.15,3937.44,4095.38,0
11_43_47,97,4096.41,3905.64,4003.59,4082.56,4101.03,4026.15,3976.41,4034.87,4002.56,4036.41,4071.28,3324.1,3948.72,4092.31,0
11_43_47,98,4087.69,3918.97,4002.05,4082.56,4098.46,4025.64,3973.85,4034.36,4002.05,4036.41,4077.44,3327.18,3946.67,4087.18,0
11_43_47,99,4084.1,3920,4001.54,4086.67,4097.95,4027.69,3971.79,4036.41,4002.56,4037.44,4075.9,3329.74,3941.03,4087.69,0
11_43_47,100,4084.62,3921.03,4002.05,4089.74,4102.05,4027.18,3974.36,4036.41,4006.67,4037.95,4071.28,3325.13,3934.87,4086.67,0
11_43_47,101,4083.59,3931.28,4002.56,4091.79,4105.64,4025.64,3977.95,4033.85,4013.85,4038.46,4066.15,3323.59,3932.82,4081.54,0
11_43_47,102,4083.59,3930.77,4003.08,4094.36,4106.67,4027.69,3975.38,4034.36,4016.41,4038.97,4058.46,3326.15,3934.87,4079.49,0
11_43_47,103,4084.1,3923.08,4002.05,4092.82,4107.18,4029.74,3975.9,4035.38,4016.41,4036.41,4056.92,3326.15,3936.41,4083.59,0
11_43_47,104,4082.56,3929.74,4000,4090.77,4103.08,4027.18,3978.46,4035.38,4014.36,4037.95,4058.97,3324.1,3932.31,4084.1,0
11_43_47,105,4084.1,3939.49,4000.51,4095.38,4103.08,4024.62,3978.97,4034.36,4011.79,4045.13,4057.95,3325.13,3926.15,4082.56,0
11_43_47,106,4083.59,3936.92,4004.62,4098.97,4109.23,4027.69,3976.92,4034.87,4014.36,4044.1,4056.92,3325.13,3929.74,4081.54,0
11_43_47,107,4078.97,3938.97,4004.62,4096.92,4109.74,4029.23,3977.44,4035.9,4014.87,4036.41,4055.38,3325.64,3934.36,4080,0
11_43_47,108,4076.92,3949.74,4004.1,4097.44,4106.15,4026.67,3977.95,4035.9,4008.72,4035.9,4052.82,3327.18,3932.82,4079.49,0
11_43_47,109,4074.87,3956.41,4007.69,4099.49,4107.18,4027.69,3972.82,4035.9,4006.15,4038.46,4050.77,3325.13,3935.38,4074.87,0
11_43_47,110,4072.31,3953.85,4004.62,4098.46,4107.18,4028.72,3967.69,4035.38,4010.77,4036.92,4051.28,3324.1,3952.82,4072.31,0
11_43_47,111,4072.31,3950.26,3998.46,4098.46,4101.03,4029.74,3966.15,4035.9,4009.23,4034.87,4052.82,3327.18,3965.13,4071.28,0
11_43_47,112,4066.67,3954.87,3997.95,4096.41,4097.44,4028.72,3968.21,4035.38,4007.18,4035.9,4054.36,3327.69,3963.08,4070.77,0
11_43_47,113,4058.46,3955.9,4003.08,4097.44,4099.49,4027.69,3967.18,4034.87,4008.72,4036.41,4053.85,3325.64,3967.18,4067.18,0
11_43_47,114,4059.49,3952.31,4003.59,4101.54,4105.13,4027.18,3968.21,4035.9,4007.18,4037.44,4055.9,3324.62,3978.97,4065.13,0
11_43_47,115,4058.97,3952.31,4002.05,4105.13,4103.59,4029.23,3969.74,4036.41,4005.13,4036.92,4057.44,3326.15,3982.56,4065.64,0
11_43_47,116,4057.95,3948.21,4002.56,4105.13,4097.44,4028.72,3966.67,4036.41,4006.15,4036.92,4058.97,3326.67,3988.72,4069.74,0
11_43_47,117,4056.92,3937.95,4005.13,4102.05,4098.97,4027.18,3964.1,4036.41,4003.59,4036.92,4061.54,3326.15,3997.95,4067.69,0
11_43_47,118,4055.9,3928.72,4005.13,4098.97,4100,4029.23,3969.23,4034.36,4001.54,4037.44,4063.59,3324.62,4006.15,4061.54,0
11_43_47,119,4052.31,3922.56,4001.54,4098.46,4096.92,4029.74,3973.33,4034.36,4008.72,4036.92,4068.72,3323.59,4006.67,4058.46,0
11_43_47,120,4050.26,3924.62,4001.03,4098.46,4099.49,4027.18,3972.31,4035.9,4011.28,4036.92,4071.79,3323.08,4009.23,4057.44,0
11_43_47,121,4046.67,3926.15,4004.62,4096.92,4101.54,4029.23,3971.28,4036.92,4005.13,4041.54,4069.23,3321.03,4015.9,4055.38,0
11_43_47,122,4043.59,3922.05,4007.18,4097.44,4096.92,4030.26,3973.33,4036.41,4003.59,4044.62,4070.77,3320.51,4020,4056.92,0
11_43_47,123,4047.69,3923.08,4004.62,4097.95,4096.41,4028.21,3970.26,4035.9,4005.13,4046.15,4074.87,3322.05,4016.41,4057.95,0
11_43_47,124,4053.33,3925.64,4004.1,4098.46,4096.92,4027.69,3966.15,4035.38,4006.67,4045.13,4073.85,3324.1,4014.87,4056.41,0
11_43_47,125,4049.23,3922.05,4005.64,4097.95,4090.26,4030.26,3968.72,4035.38,4005.13,4041.03,4073.85,3325.13,4021.03,4054.87,0
11_43_47,126,4039.49,3921.03,4003.59,4092.82,4088.72,4029.23,3973.85,4035.9,4004.1,4039.49,4079.49,3325.64,4023.08,4055.9,0
11_43_47,127,4040.51,3923.08,4001.54,4089.23,4095.9,4027.69,3975.38,4035.38,4003.59,4042.05,4082.56,3324.62,4020,4057.95,0
11_43_47,128,4044.62,3924.1,4006.15,4090.77,4096.92,4031.28,3975.9,4035.38,4004.62,4042.56,4082.05,3324.62,4020.51,4051.79,0
11_43_47,0,4043.59,3922.56,4007.69,4093.85,4092.82,4028.21,3975.9,4035.9,4004.62,4041.03,4085.64,3326.15,4025.64,4047.18,0
11_43_47,1,4042.56,3920,4005.64,4091.28,4094.87,4014.36,3972.82,4036.92,4002.05,4041.54,4091.79,3326.15,4025.13,4051.79,0
11_43_47,2,4044.62,3922.05,4004.62,4093.33,4096.41,4007.69,3976.41,4036.41,4004.1,4043.59,4093.33,3325.64,4026.15,4056.41,0
11_43_47,3,4040.51,3922.05,4004.1,4101.03,4090.77,4015.38,3981.03,4036.41,4009.23,4046.67,4091.79,3325.13,4032.31,4050.77,0
11_43_47,4,4036.92,3916.92,4004.62,4101.54,4090.77,4017.44,3974.36,4035.9,4009.74,4048.72,4098.97,3324.1,4034.87,4051.79,0
11_43_47,5,4033.85,3916.41,4005.13,4096.41,4094.87,4014.87,3965.64,4036.41,4005.13,4048.21,4102.56,3323.59,4034.87,4053.85,0
11_43_47,6,4032.82,3917.95,4003.59,4098.46,4096.41,4020.51,3967.18,4035.9,4004.62,4048.21,4096.92,3324.1,4043.59,4048.72,0
11_43_47,7,4034.87,3917.44,4002.05,4097.44,4095.9,4023.59,3971.79,4034.87,4004.62,4048.21,4097.95,3324.1,4043.08,4044.62,0
11_43_47,8,4034.87,3928.21,4002.05,4089.23,4093.33,4020.51,3971.79,4036.41,4004.1,4048.21,4101.54,3322.56,4037.44,4049.74,0
11_43_47,9,4029.74,3929.74,4004.1,4089.23,4088.72,4022.56,3965.64,4036.41,4005.64,4048.21,4098.97,3322.56,4038.97,4050.77,0
11_43_47,10,4030.77,3920,4007.69,4091.28,4090.26,4025.64,3964.1,4034.87,4004.1,4048.21,4102.05,3325.13,4045.13,4049.23,0
11_43_47,11,4036.41,3922.05,4008.21,4078.46,4091.28,4023.59,3970.77,4035.38,4004.62,4048.21,4109.23,3326.15,4047.18,4050.77,0
11_43_47,12,4032.82,3926.67,4006.15,4066.67,4088.21,4022.05,3975.9,4036.92,4007.18,4047.69,4110.77,3326.15,4046.15,4051.79,0
11_43_47,13,4031.28,3918.46,4003.59,4072.31,4085.13,4025.13,3971.79,4036.41,4006.67,4048.21,4109.74,3326.15,4048.72,4049.23,0
11_43_47,14,4035.9,3913.85,4003.08,4083.08,4086.67,4026.15,3968.21,4034.87,4005.13,4048.72,4107.69,3326.15,4058.46,4048.21,0
11_43_47,14,4035.9,3913.85,4003.08,4083.08,4086.67,4026.15,3968.21,4034.87,4005.13,4048.72,4107.69,3326.15,4058.46,4048.21,0
11_43_47,15,4031.79,3912.31,4004.1,4087.18,4087.69,4024.1,3968.72,4034.87,4004.1,4045.64,4105.64,3325.13,4071.28,4049.23,0
11_43_47,16,4024.1,3904.62,4004.62,4092.31,4086.15,4023.59,3965.64,4035.38,4003.08,4041.54,4107.69,3323.08,4073.85,4045.64,0
11_43_47,17,4024.62,3904.62,4001.54,4097.95,4084.1,4023.59,3962.56,4036.41,4007.18,4043.59,4108.72,3321.03,4068.72,4041.54,0
11_43_47,18,4026.15,3909.23,4001.03,4101.03,4088.21,4023.59,3968.21,4036.92,4008.72,4046.67,4104.1,3322.56,4066.67,4040.51,0
11_43_47,19,4027.18,3908.72,4003.59,4103.08,4091.79,4026.15,3972.82,4036.92,4006.15,4045.64,4104.62,3323.59,4065.13,4043.59,0
11_43_47,20,4026.15,3904.62,4005.64,4105.64,4086.67,4026.67,3968.21,4036.41,4006.67,4046.15,4108.72,3324.1,4059.49,4043.59,0
11_43_47,21,4026.67,3904.62,4006.15,4102.56,4079.49,4022.56,3964.62,4036.41,4009.23,4046.15,4111.79,3324.62,4060,4042.05,0
11_43_47,22,4028.72,3903.59,4007.18,4099.49,4075.9,4024.62,3966.67,4036.92,4009.74,4040.51,4113.33,3324.62,4066.15,4043.08,0
11_43_47,23,4029.74,3901.03,4009.23,4097.95,4076.41,4027.18,3968.72,4036.41,4007.69,4036.41,4114.36,3322.56,4069.23,4046.67,0
11_43_47,24,4024.1,3898.97,4008.21,4097.95,4076.41,4026.15,3968.21,4034.87,4010.26,4036.41,4113.33,3324.62,4068.72,4046.15,0
11_43_47,25,4023.08,3902.05,4004.62,4098.46,4075.9,4028.21,3968.72,4036.92,4014.87,4037.95,4114.87,3328.21,4072.82,4046.67,0
11_43_47,26,4023.59,3904.62,4004.62,4097.95,4081.54,4027.69,3971.79,4037.95,4012.31,4042.56,4115.9,3325.64,4072.31,4042.05,0
11_43_47,27,4025.13,3902.05,4006.67,4098.97,4086.67,4018.46,3974.36,4035.38,4010.77,4047.18,4112.31,3321.03,4071.79,4038.46,0
11_43_47,28,4030.26,3900.51,4007.18,4100,4082.56,4015.38,3969.23,4034.36,4013.33,4044.62,4112.82,3322.56,4070.77,4040.51,0
11_43_47,29,4033.33,3901.54,4007.69,4098.97,4076.41,4020.51,3966.15,4036.41,4010.77,4041.54,4118.97,3325.13,4070.26,4046.15,0
11_43_47,30,4030.77,3896.92,4010.26,4097.95,4076.41,4022.05,3968.72,4036.41,4007.69,4045.13,4118.97,3326.15,4076.41,4046.67,0
11_43_47,31,4029.74,3888.21,4009.74,4093.85,4074.87,4022.05,3968.72,4035.38,4014.87,4046.67,4120,3327.18,4083.08,4048.72,0
11_43_47,32,4029.23,3886.15,4009.23,4088.72,4068.72,4023.59,3966.67,4035.9,4015.38,4044.1,4126.67,3327.18,4082.56,4052.31,0
11_43_47,33,4022.05,3888.72,4009.74,4089.74,4068.72,4020,3969.74,4036.92,4010.77,4043.59,4127.69,3324.1,4086.15,4051.28,0
11_43_47,34,4016.41,3886.67,4008.72,4093.33,4074.87,4015.38,3971.79,4036.92,4013.33,4045.13,4121.03,3323.08,4095.9,4050.77,0
11_43_47,35,4022.56,3886.67,4009.74,4090.26,4076.92,4016.41,3968.21,4036.41,4017.44,4045.13,4118.97,3326.15,4095.38,4050.77,0
11_43_47,36,4029.23,3891.28,4012.31,4086.15,4072.82,4020.51,3964.1,4036.41,4014.36,4044.62,4125.13,3326.67,4086.67,4053.85,0
11_43_47,37,4026.15,3889.74,4012.31,4088.72,4070.26,4021.03,3963.59,4036.41,4012.31,4045.13,4127.69,3325.13,4077.95,4055.9,0
11_43_47,38,4025.64,3885.64,4010.77,4093.33,4072.82,4021.03,3965.64,4035.38,4013.33,4045.13,4125.13,3321.54,4074.87,4056.41,0
11_43_47,39,4030.26,3888.72,4010.26,4094.36,4074.36,4022.56,3965.64,4036.41,4012.82,4045.13,4122.05,3321.03,4071.79,4053.85,0
11_43_47,40,4034.87,3894.36,4009.74,4093.33,4072.31,4022.05,3966.15,4039.49,4012.82,4045.13,4126.15,3324.1,4066.15,4055.9,0
11_43_47,41,4035.38,3891.79,4010.26,4091.28,4068.72,4022.05,3965.64,4039.49,4016.92,4045.13,4129.74,3325.64,4062.56,4059.49,0
11_43_47,42,4034.87,3889.74,4009.74,4089.74,4072.31,4022.56,3964.1,4035.9,4020.51,4045.13,4130.77,3323.08,4063.08,4060,0
11_43_47,43,4031.79,3892.31,4009.74,4090.77,4074.36,4022.05,3964.1,4036.41,4020,4045.13,4129.23,3324.1,4060,4058.97,0
11_43_47,44,4032.31,3898.46,4009.74,4090.77,4069.23,4018.97,3970.26,4039.49,4018.97,4045.13,4126.15,3327.18,4055.38,4062.05,0
11_43_47,45,4031.28,3902.56,4009.74,4088.72,4068.21,4019.49,3980,4039.49,4019.49,4045.13,4123.08,3325.13,4047.18,4062.56,0
11_43_47,46,4030.26,3899.49,4010.77,4084.1,4073.85,4019.49,3984.1,4037.44,4021.03,4045.13,4124.1,3324.62,4043.08,4063.08,0
11_43_47,47,4031.79,3897.44,4012.82,4081.54,4071.79,4017.95,3981.54,4035.38,4019.49,4045.13,4126.15,3324.1,4047.69,4065.13,0
11_43_47,48,4030.26,3905.13,4011.28,4083.08,4065.64,4018.97,3977.95,4035.38,4017.95,4045.13,4128.72,3321.03,4049.23,4066.15,0
11_43_47,49,4029.74,3907.18,4008.21,4082.05,4064.62,4017.95,3975.38,4036.41,4019.49,4045.13,4131.28,3321.03,4043.08,4066.15,0
11_43_47,50,4034.36,3903.08,4008.21,4082.56,4068.72,4014.36,3975.9,4036.41,4018.97,4045.13,4126.15,3324.62,4040.51,4068.21,0
11_43_47,51,4034.36,3907.69,4009.23,4087.69,4069.74,4017.44,3977.95,4035.9,4020,4045.13,4119.49,3324.62,4038.46,4067.69,0
11_43_47,52,4030.77,3915.9,4008.72,4087.69,4065.13,4021.03,3978.46,4036.41,4024.1,4045.13,4121.54,3323.59,4030.77,4067.69,0
11_43_47,53,4035.9,3915.38,4009.74,4082.56,4063.08,4017.44,3978.97,4037.95,4026.67,4045.13,4122.56,3325.13,4026.15,4070.77,0
11_43_47,54,4042.05,3915.9,4011.79,4085.13,4067.69,4017.95,3982.05,4036.92,4025.64,4045.13,4121.03,3326.67,4018.97,4071.79,0
11_43_47,55,4037.95,3918.97,4008.21,4087.69,4070.26,4020.51,3983.59,4034.36,4026.15,4045.13,4122.56,3325.64,4010.26,4073.85,0
11_43_47,56,4035.38,3920.51,4009.23,4084.62,4070.26,4020,3980.51,4036.41,4028.72,4045.13,4122.05,3323.08,4005.13,4076.41,0
11_43_48,57,4046.67,3927.69,4015.9,4085.13,4071.28,4020.51,3979.49,4040,4028.21,4045.13,4122.05,3324.1,3983.59,4083.59,0
11_43_48,58,4062.05,3931.79,4017.44,4088.72,4068.72,4022.05,3984.1,4037.44,4026.15,4045.13,4127.69,3328.21,3933.85,4093.33,0
11_43_48,59,4066.15,3933.85,4013.33,4090.26,4070.77,4023.08,3995.38,4033.85,4030.26,4045.13,4130.26,3326.67,3902.56,4102.05,0
11_43_48,60,4058.97,3941.54,4011.28,4089.23,4075.38,4024.1,4001.54,4036.92,4036.41,4045.13,4127.69,3324.62,3901.03,4101.03,0
11_43_48,61,4056.41,3947.69,4010.77,4084.1,4073.33,4024.1,4002.05,4037.44,4033.33,4045.13,4129.74,3324.1,3907.69,4097.95,0
11_43_48,62,4056.41,3945.13,4009.74,4081.03,4068.72,4022.56,3998.46,4035.38,4030.77,4045.13,4131.28,3324.62,3914.36,4097.95,0
11_43_48,63,4053.33,3952.31,4010.77,4082.05,4071.79,4023.59,3990.26,4036.92,4032.82,4045.13,4130.77,3325.13,3923.08,4098.46,0
11_43_48,64,4050.26,3968.21,4011.79,4084.62,4074.36,4025.13,3982.05,4038.46,4031.79,4045.13,4130.77,3323.59,3921.54,4094.36,0
11_43_48,65,4048.21,3984.62,4011.28,4085.64,4068.72,4025.13,3982.56,4037.95,4029.23,4045.13,4128.21,3322.05,3914.87,4089.74,0
11_43_48,66,4041.03,4004.1,4009.23,4086.15,4064.62,4024.1,3984.62,4038.46,4029.74,4045.13,4126.67,3322.05,3911.28,4083.08,0
11_43_48,67,4030.77,4028.72,4008.72,4088.21,4070.26,4023.08,3984.62,4036.92,4033.85,4045.13,4125.64,3323.08,3907.18,4073.33,0
11_43_48,68,4023.08,4046.67,4009.74,4087.18,4069.74,4025.13,3985.64,4034.87,4034.36,4045.13,4124.1,3322.05,3903.08,4066.15,0
11_43_48,69,4022.05,4056.41,4008.72,4079.49,4058.97,4026.67,3985.13,4036.41,4032.31,4045.13,4123.08,3322.56,3907.69,4065.13,0
11_43_48,70,4024.1,4069.74,4007.18,4076.92,4054.87,4024.62,3980.51,4035.38,4029.23,4045.13,4122.56,3322.56,3911.79,4063.59,0
11_43_48,71,4019.49,4084.62,4010.26,4083.08,4060,4026.15,3977.44,4037.44,4028.72,4045.13,4121.54,3321.54,3907.69,4061.54,0
11_43_48,72,4015.38,4093.33,4010.26,4082.05,4062.05,4029.23,3975.38,4042.05,4029.23,4044.62,4120.51,3322.05,3907.69,4062.05,0
11_43_48,73,4015.9,4097.44,4009.23,4076.92,4056.41,4026.67,3974.87,4040,4028.72,4044.62,4115.9,3321.54,3912.82,4059.49,0
11_43_48,74,4015.38,4103.59,4011.28,4078.97,4051.28,4022.56,3980,4034.87,4028.72,4045.13,4111.79,3319.49,3914.87,4055.9,0
11_43_48,75,4009.74,4108.72,4010.77,4076.41,4054.87,4024.1,3982.05,4035.9,4031.28,4044.62,4112.82,3319.49,3913.85,4050.77,0
11_43_48,76,4007.69,4108.72,4009.23,4074.87,4059.49,4024.1,3977.95,4036.41,4035.38,4044.62,4112.31,3320.51,3918.97,4050.26,0
11_43_48,77,4005.64,4107.69,4009.74,4082.05,4055.9,4023.08,3976.92,4035.9,4034.87,4045.64,4106.67,3322.05,3926.15,4050.77,0
11_43_48,78,4004.1,4109.74,4005.64,4085.13,4053.33,4024.1,3980,4038.97,4028.72,4046.67,4103.59,3322.56,3934.36,4048.21,0
11_43_48,79,4002.05,4113.33,4004.62,4081.54,4055.38,4024.1,3973.85,4041.03,4029.23,4046.67,4104.62,3321.54,3939.49,4043.59,0
11_43_48,80,4001.54,4118.46,4010.77,4082.56,4051.79,4022.05,3967.69,4039.49,4035.9,4046.67,4107.18,3320.51,3943.59,4044.62,0
11_43_48,81,4001.03,4124.62,4010.77,4083.08,4042.56,4021.54,3967.69,4038.97,4036.92,4046.67,4106.67,3321.03,3943.59,4042.05,0
11_43_48,82,4000.51,4131.28,4006.67,4083.08,4043.08,4021.54,3969.74,4042.05,4033.85,4046.67,4107.69,3321.03,3941.54,4037.95,0
11_43_48,83,3995.9,4132.82,4007.18,4087.69,4048.72,4023.08,3970.26,4044.62,4034.36,4046.67,4112.82,3322.05,3941.03,4034.87,0
11_43_48,84,3993.85,4134.36,4008.72,4086.67,4047.69,4024.62,3971.28,4042.05,4035.38,4046.67,4112.31,3320,3944.62,4034.36,0
11_43_48,85,3993.33,4134.36,4009.23,4081.54,4045.13,4024.1,3968.72,4039.49,4033.33,4046.67,4104.1,3317.44,3950.26,4035.38,0
11_43_48,86,3991.79,4130.77,4010.77,4082.56,4045.64,4023.08,3964.1,4039.49,4034.36,4046.67,4104.62,3315.9,3958.97,4035.9,0
11_43_48,87,3992.31,4130.26,4008.72,4087.18,4042.56,4023.59,3963.59,4037.44,4035.9,4046.67,4110.77,3316.92,3961.54,4033.85,0
11_43_48,88,3990.77,4133.33,4008.21,4089.74,4042.05,4023.59,3967.69,4036.41,4035.38,4046.67,4111.28,3316.41,3955.9,4034.36,0
11_43_48,89,3988.21,4131.79,4010.26,4095.38,4040.51,4023.59,3968.21,4039.49,4035.38,4046.67,4108.72,3315.38,3954.36,4036.92,0
11_43_48,90,3990.26,4130.77,4010.26,4103.59,4036.41,4024.1,3966.15,4037.44,4034.87,4046.67,4110.26,3314.87,3951.79,4033.85,0
11_43_48,91,3991.28,4131.79,4008.72,4105.13,4038.97,4024.62,3970.26,4034.87,4034.36,4046.67,4113.33,3316.92,3946.67,4031.28,0
11_43_48,92,3986.15,4128.72,4009.23,4102.56,4043.08,4025.13,3972.31,4042.05,4035.38,4046.67,4109.74,3316.92,3950.26,4031.79,0
11_43_48,93,3984.62,4123.59,4009.74,4103.08,4038.97,4024.1,3967.69,4045.64,4035.38,4046.67,4106.15,3314.87,3961.54,4033.85,0
11_43_48,94,3988.72,4124.1,4010.77,4106.15,4037.44,4022.56,3964.1,4036.41,4034.36,4046.67,4109.23,3316.92,3950.26,4033.33,0
11_43_48,95,3995.9,4126.15,4011.79,4108.21,4041.54,4023.59,3963.59,4034.87,4036.41,4046.67,4115.38,3316.41,3931.28,4038.97,0
11_43_48,96,3995.38,4123.59,4011.79,4106.15,4040,4026.15,3962.05,4040.51,4038.97,4046.67,4116.41,3315.9,3928.21,4044.1,0
11_43_48,97,3995.9,4118.46,4013.33,4107.18,4038.46,4024.1,3962.56,4035.9,4038.97,4046.67,4117.44,3320,3933.85,4046.15,0
11_43_48,98,3999.49,4114.36,4013.33,4109.74,4037.44,4024.62,3964.1,4034.36,4037.95,4046.67,4122.05,3321.54,3931.79,4044.62,0
11_43_48,99,3998.46,4116.41,4009.74,4111.28,4040,4028.21,3963.59,4041.03,4040,4046.67,4126.15,3320.51,3929.74,4043.08,0
11_43_48,100,3990.77,4116.92,4009.74,4108.21,4044.62,4025.64,3962.05,4038.97,4042.56,4046.67,4121.03,3321.03,3936.41,4037.95,0
11_43_48,101,3989.74,4114.36,4010.26,4107.18,4043.08,4022.56,3961.03,4037.44,4042.05,4046.67,4114.87,3322.05,3948.72,4037.44,0
11_43_48,102,3991.28,4110.26,4009.23,4113.85,4039.49,4025.13,3957.95,4043.08,4041.54,4046.67,4117.95,3320.51,3949.74,4038.97,0
11_43_48,103,3989.23,4102.56,4009.74,4120.51,4042.05,4025.13,3957.95,4037.95,4042.56,4046.67,4123.59,3324.1,3942.05,4040,0
11_43_48,104,3989.23,4098.46,4010.77,4120.51,4041.54,4022.05,3961.54,4033.33,4045.13,4046.67,4120.51,3322.56,3942.56,4038.97,0
11_43_48,105,3990.77,4102.05,4009.74,4118.97,4033.85,4025.13,3962.56,4043.59,4046.67,4046.67,4120.51,3316.92,3951.79,4038.97,0
11_43_48,106,3989.74,4103.08,4009.74,4120,4032.82,4027.18,3958.97,4048.21,4046.15,4046.67,4125.64,3318.97,3955.38,4040.51,0
11_43_48,107,3989.23,4096.92,4012.82,4117.44,4037.44,4023.08,3960,4040,4044.62,4046.67,4122.05,3321.03,3956.92,4039.49,0
11_43_48,108,3991.79,4091.28,4015.9,4114.87,4036.92,4022.56,3960.51,4036.41,4045.13,4046.67,4116.92,3317.44,3958.97,4036.92,0
11_43_48,109,3992.31,4090.77,4016.41,4116.41,4033.33,4028.21,3957.44,4037.95,4048.21,4046.67,4116.92,3319.49,3958.97,4035.9,0
11_43_48,110,3992.31,4090.77,4011.28,4115.9,4031.28,4029.23,3958.46,4039.49,4049.23,4046.67,4118.46,3322.05,3964.62,4037.44,0
11_43_48,111,3991.28,4086.15,4010.26,4115.38,4030.26,4027.18,3955.9,4043.08,4049.74,4046.67,4117.44,3318.46,3969.23,4038.97,0
11_43_48,112,3994.36,4081.54,4013.33,4116.41,4032.82,4028.21,3951.79,4041.54,4050.26,4046.67,4116.92,3317.95,3968.72,4041.54,0
11_43_48,113,3997.95,4085.13,4011.79,4114.87,4036.92,4029.74,3950.77,4036.92,4050.26,4046.67,4113.85,3321.54,3967.18,4041.03,0
11_43_48,114,3995.38,4086.67,4010.26,4115.9,4036.92,4027.18,3952.31,4042.05,4051.28,4046.67,4112.82,3318.97,3974.36,4039.49,0
11_43_48,115,3991.28,4075.38,4014.36,4122.05,4031.28,4026.67,3951.79,4048.21,4051.28,4046.67,4116.41,3318.46,3980,4038.97,0
11_43_48,116,3993.33,4071.28,4013.85,4122.56,4030.77,4029.23,3952.31,4044.62,4052.31,4046.67,4117.44,3321.54,3985.13,4040,0
11_43_48,117,3991.79,4074.36,4008.72,4118.97,4033.33,4028.72,3952.31,4043.08,4054.36,4046.67,4112.82,3322.05,3990.26,4036.41,0
11_43_48,118,3992.31,4073.33,4010.26,4121.03,4032.82,4025.64,3950.77,4044.1,4054.87,4046.67,4113.33,3318.97,3991.28,4032.82,0
11_43_48,119,3992.31,4070.77,4013.33,4121.54,4029.23,4026.15,3952.31,4039.49,4056.41,4046.67,4116.92,3315.9,3989.23,4031.79,0
11_43_48,120,3986.67,4067.18,4010.26,4124.1,4028.21,4027.69,3951.79,4037.44,4060,4046.67,4116.92,3319.49,3993.33,4033.33,0
11_43_48,121,3986.15,4060.51,4008.21,4131.28,4030.26,4028.21,3945.13,4040,4061.03,4046.67,4114.87,3324.1,3999.49,4034.36,0
11_43_48,122,3993.85,4053.33,4010.77,4127.18,4030.26,4028.21,3941.03,4041.54,4060,4046.67,4121.54,3322.05,4007.69,4038.46,0
11_43_48,123,3991.28,4047.69,4011.28,4117.95,4028.21,4027.69,3944.1,4041.03,4061.03,4046.67,4126.67,3317.44,4014.87,4041.54,0
11_43_48,124,3986.67,4042.56,4008.21,4117.95,4029.74,4027.69,3948.72,4040,4061.03,4046.67,4121.54,3320,4015.9,4037.95,0
11_43_48,125,3990.26,4041.03,4007.69,4125.13,4032.82,4029.74,3950.26,4038.97,4060,4046.67,4113.33,3322.56,4015.9,4035.9,0
11_43_48,126,3990.26,4038.46,4008.72,4133.85,4031.28,4028.72,3949.74,4040.51,4058.46,4046.67,4112.31,3321.54,4020,4038.46,0
11_43_48,127,3990.26,4035.38,4008.21,4133.85,4027.69,4025.64,3949.23,4044.1,4056.92,4046.67,4115.9,3322.05,4025.13,4039.49,0
11_43_48,128,3989.23,4036.92,4009.74,4123.08,4028.72,4026.67,3948.72,4044.62,4062.05,4046.67,4116.41,3322.05,4027.18,4034.36,0
11_43_48,0,3987.69,4031.28,4008.72,4118.97,4026.67,4028.72,3949.23,4041.54,4069.74,4046.67,4117.95,3318.97,4030.77,4033.85,0
11_43_48,1,3985.64,4022.05,4007.18,4122.05,4021.03,4028.21,3948.21,4040,4071.28,4046.67,4120,3319.49,4034.36,4036.92,0
11_43_48,2,3983.59,4022.05,4009.74,4122.05,4022.56,4026.67,3948.21,4044.1,4075.38,4046.67,4118.46,3320.51,4035.9,4036.92,0
11_43_48,3,3982.56,4022.56,4014.36,4120.51,4025.64,4027.69,3947.69,4046.15,4078.97,4046.67,4114.87,3319.49,4034.87,4033.85,0
11_43_48,4,3990.77,4020.51,4009.23,4124.1,4025.64,4027.69,3947.69,4044.1,4074.36,4046.67,4115.38,3320.51,4036.41,4035.38,0
11_43_48,5,3994.87,4018.97,4006.15,4130.77,4027.18,4027.18,3949.23,4046.67,4071.79,4046.67,4115.9,3322.05,4038.46,4033.33,0
11_43_48,6,3989.74,4014.36,4011.28,4134.87,4029.74,4030.26,3948.21,4047.69,4074.87,4046.67,4115.38,3321.03,4045.64,4031.28,0
11_43_48,7,3986.15,4006.15,4013.33,4133.85,4028.21,4030.77,3944.1,4045.64,4077.44,4046.67,4116.41,3323.59,4047.69,4029.23,0
11_43_48,8,3989.23,4006.67,4013.85,4131.79,4028.21,4025.64,3945.13,4044.1,4080,4046.67,4117.95,3318.97,4043.59,4026.15,0
11_43_48,9,3989.23,4006.67,4014.36,4130.77,4026.67,4026.67,3951.28,4043.08,4081.54,4046.67,4117.95,3313.85,4043.59,4023.59,0
11_43_48,10,3991.28,4004.1,4010.77,4131.28,4022.56,4031.28,3951.79,4042.05,4082.56,4046.67,4115.38,3319.49,4048.72,4025.64,0
11_43_48,11,3992.82,4003.08,4010.26,4130.26,4024.1,4029.23,3945.13,4045.13,4082.56,4046.67,4112.82,3324.1,4046.15,4029.23,0
11_43_48,12,3993.85,4002.05,4017.44,4124.62,4027.18,4026.67,3947.69,4046.15,4082.56,4046.15,4116.41,3321.03,4043.59,4030.77,0
11_43_48,13,3993.85,4000,4015.38,4122.56,4025.64,4030.26,3953.33,4044.62,4084.1,4047.18,4116.41,3321.03,4049.23,4030.77,0
11_43_48,14,3993.33,3997.95,4009.74,4122.05,4022.56,4030.77,3950.26,4045.13,4087.69,4049.74,4112.82,3323.08,4055.38,4032.82,0
11_43_48,15,3990.77,3994.87,4012.82,4121.54,4023.08,4027.69,3949.74,4044.1,4085.64,4049.74,4114.87,3320.51,4055.38,4033.33,0
11_43_48,16,3988.21,3994.36,4014.87,4129.23,4026.67,4026.67,3956.41,4043.59,4083.59,4048.72,4118.46,3320,4049.23,4030.26,0
11_43_48,17,3989.23,3995.38,4011.79,4134.87,4023.59,4028.72,3956.92,4046.15,4086.67,4049.74,4115.9,3321.54,4047.18,4029.23,0
11_43_48,18,3989.74,3989.23,4011.28,4131.28,4021.03,4030.77,3954.87,4048.21,4087.69,4050.77,4115.38,3320,4050.77,4030.26,0
11_43_48,19,3989.23,3982.56,4011.79,4129.23,4022.05,4030.26,3955.9,4048.21,4089.23,4050.26,4118.46,3320,4057.44,4030.26,0
11_43_48,20,3986.67,3984.1,4010.77,4128.72,4020.51,4029.23,3952.31,4045.13,4089.74,4050.26,4120,3320,4065.13,4031.79,0
11_43_48,21,3986.67,3983.59,4008.72,4128.72,4018.46,4030.26,3949.74,4043.08,4088.72,4050.26,4120,3317.44,4072.31,4033.33,0
11_43_48,22,3985.13,3978.46,4008.72,4133.33,4023.59,4031.28,3953.33,4047.69,4090.77,4050.26,4121.03,3317.44,4071.79,4025.64,0
11_43_48,23,3985.13,3977.44,4009.74,4135.38,4026.15,4029.23,3954.87,4046.67,4092.31,4050.26,4124.62,3320,4071.79,4023.59,0
11_43_48,24,3987.69,3974.36,4010.26,4134.87,4018.46,4028.72,3953.33,4038.46,4090.77,4050.26,4122.56,3321.03,4069.74,4028.21,0
11_43_48,25,3992.82,3968.72,4010.26,4136.41,4017.44,4029.74,3953.85,4038.97,4089.74,4050.26,4119.49,3319.49,4067.18,4032.82,0
11_43_48,26,3991.28,3967.69,4011.79,4136.92,4023.08,4028.21,3952.82,4044.1,4090.77,4050.26,4116.92,3318.46,4065.64,4029.74,0
11_43_48,27,3989.23,3968.21,4011.28,4134.87,4021.03,4027.69,3951.79,4041.54,4092.82,4050.26,4114.36,3320,4070.77,4029.74,0
11_43_48,28,3990.26,3965.64,4009.74,4134.87,4013.33,4029.74,3950.26,4042.05,4095.38,4050.26,4117.95,3323.59,4072.82,4032.31,0
11_43_48,29,3990.26,3964.1,4010.77,4136.41,4014.87,4029.23,3949.23,4047.69,4091.79,4050.26,4121.03,3325.64,4069.74,4032.82,0
11_43_48,30,3987.18,3961.03,4008.72,4137.95,4019.49,4028.72,3952.31,4043.59,4092.82,4050.26,4117.44,3324.1,4069.74,4033.33,0
11_43_48,31,3986.67,3960,4008.72,4138.46,4013.33,4030.26,3956.41,4041.03,4102.56,4050.26,4119.49,3324.62,4074.87,4034.87,0
11_43_48,32,3988.72,3962.56,4012.31,4137.95,4011.79,4029.74,3953.85,4047.69,4101.54,4050.26,4124.1,3324.62,4078.46,4032.82,0
11_43_48,33,3986.15,3966.15,4014.36,4136.41,4014.87,4027.18,3950.26,4047.69,4090.77,4050.26,4117.95,3324.1,4083.08,4030.26,0
11_43_48,34,3981.54,3973.33,4011.79,4135.9,4009.23,4026.15,3949.23,4043.08,4091.79,4050.26,4115.9,3323.59,4085.64,4032.31,0
11_43_48,35,3978.46,3987.69,4010.77,4136.41,4008.72,4028.21,3948.21,4043.08,4096.92,4050.26,4121.54,3323.59,4077.44,4029.23,0
11_43_48,36,3976.92,4000.51,4014.36,4136.41,4017.95,4029.23,3948.21,4045.64,4093.33,4050.26,4115.38,3324.1,4065.13,4022.05,0
11_43_48,37,3973.33,4014.87,4014.87,4137.95,4015.9,4029.23,3950.26,4045.64,4093.85,4050.26,4108.21,3325.13,4057.95,4020.51,0
11_43_48,38,3970.77,4032.31,4010.26,4137.95,4010.77,4029.23,3948.21,4048.21,4098.97,4050.26,4108.72,3324.62,4055.38,4020.51,0
11_43_48,39,3965.64,4043.59,4008.72,4137.44,4015.9,4028.72,3943.59,4048.72,4097.95,4050.26,4104.62,3324.1,4050.77,4016.41,0
11_43_48,40,3967.18,4052.31,4010.26,4143.08,4016.41,4029.23,3943.59,4045.64,4091.79,4050.26,4097.95,3324.1,4048.72,4014.36,0
11_43_48,41,3971.79,4057.44,4011.28,4146.15,4009.74,4030.77,3948.21,4045.64,4089.74,4050.26,4098.97,3324.1,4045.64,4013.85,0
11_43_48,42,3969.23,4061.03,4012.31,4137.95,4011.79,4028.72,3948.21,4046.67,4092.31,4050.26,4104.62,3323.59,4042.56,4015.9,0
11_43_48,43,3965.13,4066.67,4015.38,4131.79,4016.41,4027.69,3944.62,4048.21,4093.85,4050.26,4103.08,3324.1,4038.46,4016.41,0
11_43_48,44,3966.15,4070.77,4013.33,4137.95,4016.92,4030.77,3946.15,4049.23,4092.82,4050.26,4100,3324.62,4038.46,4014.87,0
11_43_48,45,3960.51,4067.18,4010.26,4142.56,4016.41,4029.74,3948.21,4047.69,4092.31,4050.26,4102.05,3324.62,4038.46,4012.82,0
11_43_48,46,3957.95,4065.64,4012.31,4141.03,4018.97,4027.18,3948.72,4044.62,4093.33,4050.26,4108.21,3322.56,4043.08,4013.33,0
11_43_48,47,3960,4068.21,4013.33,4138.97,4023.59,4031.79,3948.72,4044.1,4090.26,4050.77,4106.15,3321.03,4047.18,4013.33,0
11_43_48,48,3959.49,4066.15,4013.33,4138.46,4024.62,4032.82,3947.69,4044.1,4089.23,4050.26,4098.46,3321.54,4046.67,4012.31,0
11_43_48,49,3961.54,4064.1,4012.31,4142.56,4021.03,4029.74,3947.69,4044.1,4089.74,4049.74,4097.44,3322.05,4043.59,4010.26,0
11_43_48,50,3963.08,4069.74,4012.31,4143.08,4021.03,4029.74,3950.77,4046.15,4086.67,4050.77,4099.49,3321.54,4046.15,4009.23,0
11_43_48,51,3955.9,4074.87,4010.77,4136.92,4024.1,4030.77,3951.28,4046.67,4085.64,4050.26,4099.49,3322.05,4052.31,4009.23,0
11_43_48,52,3953.85,4071.79,4011.28,4135.9,4022.05,4029.23,3951.28,4046.67,4087.18,4045.64,4098.97,3323.08,4050.26,4010.26,0
11_43_48,53,3962.56,4066.67,4014.36,4137.95,4015.9,4029.74,3953.33,4048.72,4087.18,4045.13,4104.1,3325.13,4048.21,4012.82,0
11_43_48,54,3964.1,4069.23,4015.9,4138.46,4016.41,4031.28,3951.28,4048.21,4084.1,4047.69,4105.64,3325.64,4051.79,4014.87,0
11_43_48,55,3961.54,4073.85,4013.33,4141.03,4024.1,4031.28,3945.64,4042.56,4078.97,4046.67,4102.05,3321.54,4056.92,4010.26,0
11_43_49,56,3960.51,4069.23,4011.79,4142.56,4024.62,4030.77,3943.08,4040.51,4078.97,4044.62,4102.56,3320,4057.44,4002.56,0
11_43_49,57,3961.54,4067.18,4012.31,4137.44,4017.95,4030.77,3946.67,4045.64,4085.13,4046.15,4103.59,3324.1,4060.51,4005.13,0
11_43_49,58,3961.03,4073.85,4012.82,4133.85,4014.87,4031.28,3952.31,4048.72,4082.56,4047.18,4101.54,3323.08,4062.56,4005.64,0
11_43_49,59,3961.03,4077.44,4012.82,4140,4017.44,4030.77,3953.33,4044.62,4075.9,4046.67,4105.13,3319.49,4057.44,4002.05,0
11_43_49,60,3962.56,4069.74,4015.38,4147.18,4017.44,4031.28,3951.79,4041.54,4080,4046.67,4110.77,3322.56,4052.31,4001.03,0
11_43_49,61,3965.13,4066.15,4014.36,4143.08,4013.33,4031.28,3952.82,4043.08,4084.1,4046.67,4106.67,3325.13,4059.49,4004.62,0
11_43_49,62,3963.59,4068.72,4010.26,4135.9,4008.21,4030.26,3949.74,4046.15,4081.03,4046.67,4102.05,3325.13,4069.23,4006.67,0
11_43_49,63,3965.64,4066.67,4010.77,4136.92,4009.23,4029.74,3945.64,4046.15,4078.46,4046.67,4108.21,3324.62,4076.41,4008.21,0
11_43_49,64,3966.67,4059.49,4012.82,4140,4012.31,4030.26,3942.05,4045.64,4077.95,4046.67,4111.28,3324.62,4081.54,4006.67,0
11_43_49,65,3966.15,4054.87,4012.82,4136.41,4012.31,4028.21,3943.08,4047.69,4081.03,4046.67,4111.28,3325.13,4085.64,4009.74,0
11_43_49,66,3964.62,4054.87,4013.85,4135.38,4011.79,4028.72,3947.18,4048.72,4082.05,4047.69,4108.72,3326.15,4080.51,4014.87,0
11_43_49,67,3968.21,4055.38,4014.87,4138.46,4010.77,4032.31,3950.77,4045.13,4076.41,4050.77,4106.15,3323.08,4074.36,4012.31,0
11_43_49,68,3971.79,4053.33,4013.85,4137.44,4011.79,4030.77,3951.28,4044.1,4074.36,4051.79,4104.62,3320,4077.95,4008.72,0
11_43_49,69,3972.31,4051.28,4012.31,4135.38,4013.33,4028.72,3949.23,4046.67,4081.03,4050.77,4106.67,3322.56,4081.54,4014.36,0
11_43_49,70,3971.28,4051.79,4010.77,4136.92,4013.33,4030.77,3948.72,4049.23,4083.59,4050.26,4111.28,3324.62,4074.87,4013.85,0
11_43_49,71,3970.77,4051.28,4011.28,4138.46,4012.31,4031.28,3948.72,4051.79,4077.44,4050.77,4112.82,3324.1,4069.74,4005.64,0
11_43_49,72,3971.79,4049.23,4013.33,4135.9,4009.74,4029.74,3949.74,4049.74,4075.9,4050.77,4114.36,3325.13,4073.33,4007.69,0
11_43_49,73,3968.72,4049.74,4013.33,4134.87,4007.18,4031.28,3951.28,4045.64,4082.56,4050.26,4114.36,3327.69,4080,4014.36,0
11_43_49,74,3967.18,4051.28,4012.82,4136.41,4006.67,4032.31,3950.26,4047.69,4085.64,4050.26,4116.41,3326.67,4089.23,4015.38,0
11_43_49,75,3965.13,4052.31,4013.33,4135.9,4008.21,4033.33,3948.21,4049.23,4077.95,4050.26,4114.36,3323.59,4093.85,4011.28,0
11_43_49,76,3965.13,4052.31,4008.72,4135.9,4008.21,4034.87,3946.15,4046.15,4074.87,4050.26,4109.23,3324.1,4093.85,4009.74,0
11_43_49,77,3965.64,4047.69,4008.72,4145.13,4008.21,4034.36,3946.67,4047.18,4079.49,4050.26,4108.72,3325.64,4091.28,4007.69,0
11_43_49,78,3968.72,4045.64,4011.79,4156.41,4007.69,4030.77,3948.72,4049.74,4078.97,4050.26,4112.82,3324.62,4089.23,4008.21,0
11_43_49,79,3968.72,4048.72,4009.74,4150.77,4007.18,4029.23,3947.18,4048.21,4076.41,4050.26,4115.38,3324.1,4087.69,4007.18,0
11_43_49,80,3966.67,4047.18,4009.23,4142.05,4007.69,4029.23,3947.18,4048.21,4080.51,4050.26,4116.92,3324.1,4090.77,4004.62,0
11_43_49,81,3965.64,4045.64,4014.87,4147.69,4005.13,4029.23,3947.69,4048.72,4082.05,4050.26,4119.49,3322.56,4090.26,4004.1,0
11_43_49,82,3966.67,4048.72,4015.38,4156.41,4001.54,4029.23,3948.21,4048.72,4077.44,4050.26,4117.44,3324.1,4091.79,4006.67,0
11_43_49,83,3968.21,4044.62,4012.82,4148.72,4002.05,4029.74,3948.21,4050.77,4077.95,4050.26,4116.41,3327.18,4091.28,4006.67,0
11_43_49,84,3970.26,4041.54,4014.36,4141.54,4004.62,4032.31,3950.26,4050.77,4080,4050.26,4118.46,3326.15,4083.59,4007.69,0
11_43_49,85,3971.28,4042.05,4014.87,4146.15,4003.08,4031.28,3952.31,4048.21,4078.97,4050.26,4115.9,3323.08,4081.54,4009.23,0
11_43_49,86,3972.82,4041.03,4013.85,4143.08,4003.08,4027.69,3951.28,4048.21,4081.54,4050.26,4111.79,3324.1,4086.15,4010.77,0
11_43_49,87,3972.82,4042.56,4013.85,4140,4003.08,4029.23,3951.28,4049.23,4082.56,4050.26,4111.79,3325.13,4086.67,4011.79,0
11_43_49,88,3973.33,4046.67,4012.31,4149.74,4001.54,4032.31,3949.23,4046.15,4078.97,4050.26,4115.9,3323.59,4085.64,4010.26,0
11_43_49,89,3971.79,4046.15,4009.23,4153.33,4005.64,4029.74,3947.69,4043.59,4079.49,4050.26,4117.44,3323.08,4088.21,4007.18,0
11_43_49,90,3971.28,4044.1,4012.31,4149.74,4005.13,4027.18,3948.72,4044.1,4081.03,4050.26,4118.97,3326.15,4087.18,4008.72,0
11_43_49,91,3972.31,4046.15,4015.9,4152.31,3996.92,4029.23,3949.74,4047.69,4080.51,4050.26,4123.08,3326.15,4083.59,4013.33,0
11_43_49,92,3974.36,4049.23,4016.92,4149.23,3995.38,4031.28,3949.74,4052.82,4084.1,4050.26,4123.59,3324.1,4079.49,4011.28,0
11_43_49,93,3976.92,4052.82,4015.38,4139.49,4002.05,4030.26,3949.23,4049.74,4086.15,4050.26,4119.49,3322.05,4079.49,4008.72,0
11_43_49,94,3975.9,4051.79,4014.87,4148.21,4003.08,4029.23,3949.23,4043.59,4083.08,4050.26,4119.49,3324.1,4082.56,4008.21,0
11_43_49,95,3973.85,4049.23,4012.31,4154.36,4001.54,4031.28,3950.26,4047.18,4082.56,4050.26,4124.62,3326.15,4078.46,4009.23,0
11_43_49,96,3972.31,4052.82,4012.31,4142.05,4003.08,4032.82,3950.77,4053.33,4085.13,4050.26,4124.62,3326.15,4070.77,4003.59,0
11_43_49,97,3977.44,4054.36,4012.82,4134.36,4001.54,4029.74,3948.21,4050.77,4086.67,4050.26,4125.13,3325.13,4074.36,3997.44,0
11_43_49,98,3980,4051.79,4012.82,4136.41,4001.54,4028.21,3947.69,4048.21,4085.64,4050.26,4130.26,3325.13,4078.46,3996.92,0
11_43_49,99,3978.97,4053.33,4015.9,4136.41,4004.62,4029.74,3950.77,4049.74,4083.08,4050.26,4128.72,3323.08,4080.51,4000.51,0
11_43_49,100,3974.87,4054.87,4017.44,4134.36,4003.59,4030.26,3949.23,4048.21,4084.1,4050.26,4122.05,3321.54,4083.59,3997.95,0
11_43_49,101,3975.9,4048.72,4015.38,4135.38,4003.08,4028.72,3949.74,4047.18,4086.67,4050.26,4122.05,3322.56,4087.18,3996.92,0
11_43_49,102,3976.92,4044.1,4012.31,4136.41,4007.18,4028.72,3951.79,4048.21,4087.18,4050.26,4124.1,3324.62,4086.67,3997.95,0
11_43_49,103,3974.36,4047.69,4013.33,4135.38,4009.74,4030.77,3952.31,4049.74,4088.72,4050.26,4123.08,3326.15,4086.15,3998.46,0
11_43_49,104,3977.44,4047.69,4015.38,4134.87,4005.13,4029.23,3954.87,4049.23,4091.79,4050.26,4126.15,3327.18,4086.15,3997.44,0
11_43_49,105,3983.59,4041.03,4013.85,4135.9,4002.56,4028.72,3957.44,4048.72,4093.33,4050.26,4129.23,3326.67,4087.69,3995.9,0
11_43_49,106,3985.64,4036.41,4011.79,4135.38,4004.62,4031.28,3954.36,4047.69,4091.79,4050.26,4126.67,3324.62,4086.15,3995.38,0
11_43_49,107,3987.18,4037.44,4013.33,4135.9,4008.21,4030.77,3955.9,4047.18,4089.23,4050.26,4125.13,3322.56,4079.49,3996.92,0
11_43_49,108,3990.26,4036.92,4015.38,4136.41,4007.18,4028.72,3960,4048.21,4091.28,4050.26,4128.21,3321.54,4081.54,3996.92,0
11_43_49,109,3986.15,4035.9,4012.82,4133.85,4002.05,4031.79,3961.03,4046.15,4093.33,4050.26,4129.23,3322.05,4087.18,3995.9,0
11_43_49,110,3981.03,4036.41,4010.26,4131.28,4001.54,4032.31,3959.49,4042.56,4093.33,4050.26,4130.26,3321.54,4085.64,3997.95,0
11_43_49,111,3984.1,4034.87,4013.33,4134.36,4000.51,4029.23,3955.38,4044.62,4092.82,4050.26,4133.85,3323.59,4085.64,3998.97,0
11_43_49,112,3986.67,4031.79,4014.87,4134.36,3995.9,4032.31,3953.85,4049.74,4091.79,4050.26,4135.9,3323.59,4088.21,3998.46,0
11_43_49,113,3984.1,4030.26,4013.85,4132.82,3994.87,4034.36,3957.95,4050.77,4096.92,4050.26,4132.31,3322.56,4087.69,4001.03,0
11_43_49,114,3985.64,4029.74,4012.82,4137.95,3997.95,4029.74,3958.46,4049.74,4102.05,4050.26,4129.74,3323.59,4089.23,4005.64,0
11_43_49,115,3986.67,4028.72,4013.33,4132.82,3998.46,4030.26,3955.38,4049.23,4098.46,4050.26,4130.77,3323.59,4088.21,4002.56,0
11_43_49,116,3987.18,4028.72,4012.31,4121.03,3998.97,4031.79,3958.97,4048.72,4096.92,4050.26,4130.26,3322.05,4087.18,3999.49,0
11_43_49,117,3987.69,4028.72,4013.85,4127.18,4000,4027.69,3958.46,4051.28,4098.97,4050.26,4130.26,3324.1,4087.69,4003.08,0
11_43_49,118,3990.26,4026.67,4017.44,4138.97,3998.46,4026.67,3954.36,4051.79,4097.44,4050.26,4132.82,3327.18,4087.18,4006.15,0
11_43_49,119,3988.21,4023.59,4017.44,4136.41,3997.95,4033.85,3953.33,4048.72,4097.44,4050.26,4130.26,3327.18,4081.54,4002.05,0
11_43_49,120,3987.18,4026.15,4016.41,4132.82,3997.44,4033.85,3953.85,4048.72,4097.95,4050.26,4127.69,3325.13,4086.15,4002.05,0
11_43_49,121,3987.18,4025.64,4016.92,4135.38,3993.85,4029.23,3953.33,4049.23,4094.36,4050.26,4130.77,3322.56,4096.92,4004.1,0
11_43_49,122,3987.18,4018.46,4016.92,4136.41,3991.28,4029.74,3957.95,4047.69,4097.95,4050.26,4131.79,3321.54,4100.51,4006.67,0
11_43_49,123,3986.15,4015.38,4015.9,4135.38,3991.28,4030.77,3960.51,4049.74,4104.1,4050.26,4128.21,3323.59,4098.97,4004.1,0
11_43_49,124,3985.13,4017.95,4016.41,4136.41,3994.36,4030.26,3958.46,4053.33,4100.51,4050.26,4128.72,3324.1,4095.38,3998.46,0
11_43_49,125,3988.72,4017.44,4017.44,4144.1,3996.41,4029.74,3954.36,4051.28,4096.92,4050.77,4126.15,3323.08,4094.87,3999.49,0
11_43_49,126,3991.79,4014.87,4018.97,4153.33,3996.92,4028.72,3952.31,4047.69,4099.49,4050.26,4121.54,3324.62,4096.92,4000.51,0
11_43_49,127,3989.74,4012.82,4016.41,4150.26,3995.9,4028.72,3957.95,4049.23,4099.49,4050.26,4125.13,3325.13,4095.38,3998.46,0
11_43_49,128,3986.15,4011.28,4015.38,4148.72,3997.44,4029.74,3964.62,4049.23,4096.92,4051.28,4127.69,3322.05,4089.74,3997.95,0
11_43_49,0,3987.18,4011.28,4016.41,4153.85,3994.36,4030.77,3964.62,4049.23,4096.92,4051.28,4123.08,3321.54,4094.36,4001.54,0
11_43_49,1,3985.13,4011.28,4016.92,4147.69,3988.21,4032.31,3957.95,4050.26,4102.56,4050.77,4124.62,3325.13,4103.59,4001.54,0
11_43_49,2,3984.62,4010.26,4017.44,4142.56,3992.31,4032.31,3955.38,4049.74,4101.03,4051.28,4129.74,3323.59,4105.64,4002.56,0
11_43_49,3,3987.69,4007.18,4020,4151.79,4000,4030.26,3956.92,4049.23,4095.38,4052.31,4124.62,3321.03,4105.13,4000,0
11_43_49,4,3989.23,4006.67,4020,4153.33,3997.95,4030.77,3957.95,4048.72,4100.51,4052.31,4116.92,3323.08,4110.26,3998.46,0
11_43_49,5,3984.62,4012.82,4016.41,4139.49,3994.36,4032.82,3958.46,4049.23,4105.64,4051.79,4118.46,3325.13,4112.31,4000.51,0
11_43_49,6,3982.05,4016.92,4015.9,4137.44,3994.36,4030.77,3961.54,4050.26,4100.51,4052.31,4123.59,3322.05,4111.79,4000.51,0
11_43_49,7,3981.54,4011.28,4019.49,4146.15,3991.28,4031.79,3962.56,4049.74,4097.44,4052.31,4120.51,3322.05,4108.21,3997.95,0
11_43_49,8,3985.13,4010.26,4021.03,4145.13,3991.79,4033.85,3961.54,4049.23,4102.56,4051.79,4114.36,3324.1,4105.13,4001.03,0
11_43_49,9,3986.15,4013.85,4017.44,4140.51,3996.41,4035.9,3960.51,4051.28,4105.64,4052.31,4114.36,3322.05,4102.05,4002.05,0
11_43_49,10,3986.67,4009.74,4017.44,4144.1,3994.36,4036.92,3962.56,4052.31,4101.54,4052.31,4116.92,3319.49,4104.62,4003.59,0
11_43_49,11,3988.72,4000.51,4021.54,4150.77,3992.31,4034.36,3965.13,4051.79,4098.97,4050.26,4115.38,3322.05,4110.26,4005.64,0
11_43_49,12,3989.74,3996.41,4020,4152.82,3994.87,4031.28,3965.13,4049.74,4102.56,4049.74,4121.03,3326.15,4114.36,4006.15,0
11_43_49,13,3987.18,3998.97,4016.41,4149.23,3992.31,4031.79,3962.05,4050.26,4106.15,4051.28,4128.21,3325.13,4113.85,4003.08,0
11_43_49,14,3983.59,4001.03,4017.44,4141.03,3990.26,4032.82,3965.13,4051.79,4105.13,4051.28,4125.64,3320,4112.82,4001.54,0
11_43_49,15,3981.03,4006.67,4018.46,4134.87,3991.79,4031.28,3969.23,4049.74,4104.62,4050.26,4125.13,3321.03,4114.87,4001.03,0
11_43_49,16,3980.51,4020.51,4014.87,4136.92,3989.74,4030.26,3966.15,4045.64,4105.64,4050.26,4129.23,3323.08,4112.82,3998.97,0
11_43_49,17,3981.03,4030.77,4012.82,4136.92,3990.26,4031.28,3961.54,4048.21,4099.49,4050.26,4130.26,3318.97,4106.67,3997.44,0
11_43_49,18,3978.46,4037.95,4013.85,4131.28,3995.9,4033.85,3962.56,4052.31,4097.44,4050.26,4129.23,3320,4100.51,3996.92,0
11_43_49,19,3980.51,4051.79,4013.85,4130.26,3995.38,4035.38,3965.64,4050.77,4100,4051.28,4126.15,3324.1,4096.92,3997.44,0
11_43_49,20,3984.62,4065.13,4014.87,4135.38,3992.31,4034.87,3964.62,4050.26,4097.44,4051.28,4123.59,3322.56,4088.72,3994.87,0
11_43_49,21,3979.49,4071.28,4012.82,4132.31,3990.77,4033.33,3959.49,4050.77,4098.46,4051.28,4127.18,3319.49,4083.59,3994.36,0
11_43_49,22,3971.28,4076.92,4012.82,4122.05,3988.72,4033.33,3956.92,4048.72,4102.56,4051.28,4129.74,3320.51,4086.67,3995.38,0
11_43_49,23,3974.87,4082.56,4016.92,4118.97,3989.23,4033.33,3961.54,4049.23,4102.56,4051.28,4123.59,3320,4092.31,3997.44,0
11_43_49,24,3975.9,4085.13,4018.97,4120.51,3989.23,4032.82,3965.64,4051.28,4101.03,4051.28,4118.97,3320.51,4090.26,3997.44,0
11_43_49,25,3972.82,4083.59,4016.41,4120,3987.18,4032.82,3965.64,4050.77,4100.51,4051.28,4123.08,3322.05,4085.13,3997.95,0
11_43_49,26,3973.85,4083.08,4019.49,4120.51,3989.74,4033.33,3965.64,4050.26,4097.95,4051.28,4122.56,3322.56,4081.54,3995.9,0
11_43_49,27,3977.44,4090.77,4024.1,4123.08,3992.82,4033.85,3969.74,4052.31,4097.44,4051.28,4113.85,3323.59,4076.92,3996.92,0
11_43_49,28,3978.97,4092.82,4021.54,4125.13,3990.77,4034.36,3972.82,4052.31,4098.46,4051.28,4110.26,3322.56,4068.72,3999.49,0
11_43_49,29,3982.05,4088.21,4017.95,4123.08,3990.26,4033.85,3971.79,4049.74,4098.46,4051.28,4111.79,3320,4066.15,3998.97,0
11_43_49,30,3981.03,4091.28,4020.51,4121.54,3993.33,4031.79,3967.69,4051.28,4100,4051.28,4109.74,3320.51,4066.15,3998.46,0
11_43_49,31,3979.49,4096.41,4023.59,4121.03,3993.85,4029.74,3965.64,4052.82,4096.92,4051.28,4107.18,3322.56,4067.18,4004.62,0
11_43_49,32,3980,4091.79,4021.03,4118.97,3990.26,4031.28,3968.21,4051.28,4093.85,4051.28,4105.64,3321.03,4074.36,4007.69,0
11_43_49,33,3980.51,4089.74,4020,4118.46,3987.69,4035.38,3970.26,4050.77,4098.46,4051.28,4102.56,3320,4084.62,4005.13,0
11_43_49,34,3984.1,4093.85,4022.56,4120,3985.64,4032.82,3970.26,4050.77,4101.54,4051.28,4104.62,3321.54,4080.51,4006.15,0
11_43_49,35,3988.21,4094.87,4023.08,4118.46,3985.13,4028.21,3969.23,4049.23,4100,4051.79,4105.13,3322.56,4071.79,4008.21,0
11_43_49,36,3988.72,4092.82,4020,4117.95,3987.18,4030.26,3967.18,4050.77,4099.49,4052.82,4102.05,3323.59,4072.82,4011.28,0
11_43_49,37,3988.72,4093.33,4021.03,4120.51,3989.23,4034.87,3963.08,4053.85,4097.95,4052.31,4100,3321.03,4074.36,4014.36,0
11_43_49,38,3990.77,4093.85,4023.08,4121.03,3986.15,4031.28,3960,4051.28,4097.95,4051.79,4103.59,3314.87,4077.44,4014.87,0
11_43_49,39,3986.67,4090.26,4022.05,4120,3983.08,4027.69,3961.03,4050.77,4101.03,4053.85,4106.67,3317.95,4080,4013.85,0
11_43_49,40,3983.59,4092.82,4021.03,4118.97,3985.13,4031.28,3964.62,4055.38,4101.54,4054.36,4104.62,3324.62,4075.38,4015.9,0
11_43_49,41,3984.62,4094.36,4021.54,4120.51,3988.21,4033.33,3964.1,4054.36,4099.49,4051.79,4101.03,3321.54,4069.23,4017.95,0
11_43_49,42,3988.21,4090.77,4021.54,4121.54,3987.69,4031.28,3965.64,4049.23,4100.51,4050.77,4101.03,3316.92,4075.38,4018.97,0
11_43_49,43,3987.69,4087.18,4021.03,4120.51,3985.64,4032.82,3969.74,4050.26,4102.05,4051.79,4100,3321.03,4077.95,4016.41,0
11_43_49,44,3989.23,4086.67,4021.03,4120,3987.69,4033.85,3971.79,4052.82,4102.56,4050.77,4098.46,3324.1,4075.38,4014.36,0
11_43_49,45,3989.74,4085.13,4023.08,4121.03,3989.23,4032.82,3971.28,4051.28,4102.56,4052.31,4098.97,3322.56,4073.85,4012.82,0
11_43_49,46,3986.15,4085.64,4024.62,4120,3981.54,4033.33,3971.28,4050.26,4105.13,4055.38,4101.54,3321.03,4079.49,4012.82,0
11_43_49,47,3986.15,4086.67,4023.59,4118.97,3970.77,4033.85,3967.69,4051.28,4106.15,4053.85,4103.08,3321.03,4086.67,4015.38,0
11_43_49,48,3993.85,4084.1,4023.59,4120,3970.77,4032.82,3965.13,4051.28,4103.08,4050.26,4103.08,3320.51,4089.23,4020,0
11_43_49,49,3997.95,4080.51,4023.59,4118.97,3975.9,4035.38,3965.64,4050.77,4102.56,4049.74,4101.54,3319.49,4085.13,4017.44,0
11_43_49,50,3996.92,4081.54,4022.56,4120,3974.87,4035.38,3966.15,4050.26,4103.59,4051.28,4101.03,3318.46,4083.08,4016.92,0
11_43_50,51,3997.44,4083.08,4022.56,4118.97,3974.36,4032.31,3966.67,4050.77,4101.54,4051.28,4100,3319.49,4085.13,4023.08,0
11_43_50,52,4001.03,4081.54,4024.62,4115.9,3978.97,4032.31,3967.69,4050.26,4100.51,4051.79,4101.54,3322.56,4083.08,4022.05,0
11_43_50,53,4002.56,4076.92,4025.13,4117.44,3976.92,4032.31,3965.64,4049.23,4100,4049.23,4106.67,3322.05,4080,4018.46,0
11_43_50,54,4003.08,4071.79,4026.67,4118.97,3969.74,4030.77,3967.18,4051.79,4096.92,4050.26,4109.23,3322.05,4082.56,4020,0
11_43_50,55,4005.64,4068.21,4021.54,4114.36,3971.28,4030.26,3970.26,4053.33,4098.97,4056.41,4106.67,3324.1,4088.72,4021.03,0
11_43_50,56,4008.21,4069.74,4015.9,4111.79,3975.9,4029.23,3968.21,4051.28,4103.08,4056.41,4102.56,3324.62,4087.69,4018.46,0
11_43_50,57,4009.74,4071.79,4018.97,4115.38,3974.36,4028.21,3967.18,4049.23,4100.51,4051.28,4101.03,3321.03,4083.08,4020.51,0
11_43_50,58,4008.72,4067.18,4022.05,4119.49,3972.31,4031.28,3969.74,4051.28,4099.49,4051.28,4101.03,3319.49,4081.03,4022.05,0
11_43_50,59,4006.67,4067.69,4021.03,4118.97,3977.95,4034.36,3970.26,4053.33,4100,4053.33,4100.51,3321.03,4084.1,4022.56,0
11_43_50,60,4006.15,4068.21,4024.1,4114.36,3982.56,4032.31,3969.23,4052.82,4097.44,4052.82,4098.97,3322.05,4084.1,4022.56,0
11_43_50,61,4007.69,4063.08,4028.21,4113.33,3979.49,4030.77,3973.85,4050.77,4096.41,4050.77,4100,3318.46,4083.59,4025.64,0
11_43_50,62,4005.64,4056.92,4027.18,4112.31,3975.38,4035.9,3976.92,4050.26,4098.97,4051.28,4100.51,3317.95,4084.62,4028.21,0
11_43_50,63,4007.18,4050.77,4024.1,4106.67,3973.85,4037.44,3978.46,4050.26,4100,4052.82,4101.54,3321.54,4087.69,4030.77,0
11_43_50,64,4010.26,4041.03,4022.56,4111.28,3973.85,4034.36,3978.46,4050.26,4098.46,4053.85,4106.15,3323.59,4087.69,4031.28,0
11_43_50,65,4010.77,4033.33,4023.59,4122.56,3977.44,4034.36,3974.87,4051.79,4099.49,4053.33,4109.23,3323.08,4090.26,4030.26,0
11_43_50,66,4013.33,4028.21,4027.18,4121.03,3974.87,4036.92,3974.36,4052.31,4103.08,4052.31,4107.18,3323.59,4093.85,4029.23,0
11_43_50,67,4017.44,4023.08,4027.69,4116.41,3979.49,4034.87,3981.03,4051.79,4104.1,4055.9,4103.59,3324.1,4090.26,4027.18,0
11_43_50,68,4010.77,4015.9,4023.59,4117.95,4017.44,4031.28,3978.46,4052.82,4098.97,4061.03,4102.56,3322.05,4080.51,4019.49,0
11_43_50,69,4001.54,4011.28,4021.54,4117.95,4061.54,4032.82,3971.28,4051.79,4097.95,4056.92,4103.59,3318.97,4075.9,4010.26,0
11_43_50,70,4004.62,4006.67,4023.59,4115.9,4068.72,4037.44,3971.28,4050.26,4100,4048.72,4102.56,3319.49,4076.92,4010.77,0
11_43_50,71,4008.21,3999.49,4026.15,4116.92,4058.97,4038.46,3973.33,4052.82,4097.95,4051.28,4101.54,3320,4079.49,4013.85,0
11_43_50,72,4004.62,3993.33,4023.59,4118.46,4060.51,4034.36,3970.26,4055.9,4098.46,4055.38,4102.56,3316.92,4086.15,4009.23,0
11_43_50,73,4003.59,3991.79,4022.56,4120,4064.62,4032.31,3967.69,4052.82,4101.54,4051.28,4106.67,3318.46,4091.79,4006.15,0
11_43_50,74,4009.23,3987.69,4022.05,4120.51,4066.67,4034.36,3967.18,4049.23,4102.05,4050.26,4108.72,3322.05,4085.64,4011.79,0
11_43_50,75,4010.77,3985.13,4021.54,4118.46,4069.74,4035.38,3967.18,4051.79,4101.54,4051.79,4106.67,3318.97,4073.85,4012.31,0
11_43_50,76,4009.74,3984.62,4024.1,4117.44,4071.79,4036.92,3969.23,4054.87,4101.03,4052.31,4106.15,3319.49,4074.87,4008.21,0
11_43_50,77,4011.28,3977.44,4026.67,4117.95,4073.85,4038.97,3973.33,4052.82,4098.46,4051.79,4107.69,3322.56,4075.9,4007.69,0
11_43_50,78,4012.31,3973.85,4026.15,4117.95,4076.41,4037.95,3977.44,4049.74,4098.46,4050.77,4113.33,3316.92,4069.74,4008.72,0
11_43_50,79,4009.74,3974.36,4024.62,4117.44,4074.36,4036.92,3975.38,4050.77,4101.03,4051.28,4121.54,3314.87,4070.26,4003.59,0
11_43_50,80,4009.23,3970.77,4023.59,4117.95,4072.31,4037.44,3969.23,4051.28,4100,4052.82,4128.72,3317.95,4078.97,4004.1,0
11_43_50,81,4007.69,3964.1,4024.62,4117.95,4075.38,4037.44,3968.21,4051.79,4097.44,4054.87,4130.26,3316.41,4079.49,4009.23,0
11_43_50,82,4008.21,3965.64,4026.15,4117.95,4076.92,4036.92,3969.74,4051.79,4097.95,4052.82,4129.23,3315.9,4076.92,4011.28,0
11_43_50,83,4009.23,3966.15,4022.56,4117.44,4072.82,4036.92,3968.72,4051.28,4101.03,4049.23,4131.28,3320.51,4077.95,4009.23,0
11_43_50,84,4008.72,3958.46,4019.49,4116.92,4072.31,4037.95,3972.82,4053.33,4100.51,4052.82,4138.46,3319.49,4078.46,4009.74,0
11_43_50,85,4010.26,3950.77,4021.54,4115.9,4074.87,4037.44,3976.92,4055.38,4100,4057.44,4142.05,3315.9,4076.92,4012.31,0
11_43_50,86,4014.36,3950.26,4025.64,4113.85,4069.74,4035.9,3972.82,4052.31,4104.1,4053.85,4138.46,3320.51,4078.97,4012.82,0
11_43_50,87,4011.28,3954.36,4025.64,4113.33,4063.08,4036.92,3973.85,4049.74,4106.15,4050.77,4137.44,3322.05,4083.08,4012.31,0
11_43_50,88,4007.69,3954.87,4022.56,4112.82,4066.67,4038.97,3982.05,4051.28,4103.59,4052.82,4142.56,3320,4085.64,4010.77,0
11_43_50,89,4009.23,3952.31,4022.56,4111.79,4070.26,4036.41,3984.62,4051.79,4100.51,4057.44,4144.1,3320,4084.62,4008.72,0
11_43_50,90,4008.72,3949.23,4026.15,4113.85,4068.72,4033.85,3980,4051.79,4098.97,4060.51,4141.03,3322.56,4082.05,4007.18,0
11_43_50,91,4011.79,3948.72,4024.62,4117.44,4066.67,4035.38,3975.38,4051.28,4097.44,4056.41,4140.51,3321.54,4080,4009.23,0
11_43_50,92,4016.41,3950.77,4021.54,4118.97,4063.59,4037.95,3974.36,4050.77,4098.46,4051.28,4144.1,3319.49,4077.95,4009.74,0
11_43_50,93,4017.44,3953.33,4023.08,4120.51,4060,4037.44,3976.41,4052.31,4099.49,4052.31,4143.08,3317.95,4083.08,4009.23,0
11_43_50,94,4012.31,3953.85,4026.67,4118.46,4062.05,4037.95,3971.79,4052.82,4099.49,4052.31,4139.49,3319.49,4088.21,4008.72,0
11_43_50,95,4011.28,3951.79,4025.13,4112.82,4061.03,4038.46,3968.21,4050.77,4099.49,4052.31,4142.05,3322.56,4093.85,4009.74,0
11_43_50,96,4013.85,3947.69,4023.59,4115.9,4054.87,4037.95,3974.87,4051.28,4096.92,4057.44,4140,3319.49,4098.97,4012.82,0
11_43_50,97,4015.9,3948.21,4023.08,4119.49,4057.44,4036.92,3978.46,4052.31,4097.95,4061.03,4134.87,3317.95,4101.54,4013.33,0
11_43_50,98,4008.72,3950.26,4020,4117.95,4061.03,4037.44,3974.87,4055.38,4101.54,4061.54,4135.9,3322.56,4101.54,4005.64,0
11_43_50,99,4005.13,3948.72,4019.49,4121.03,4060,4037.44,3977.44,4058.46,4102.56,4060.51,4140.51,3317.95,4108.21,4004.62,0
11_43_50,100,4007.69,3944.62,4024.1,4117.44,4062.05,4038.46,3977.95,4054.87,4099.49,4056.92,4138.97,3312.82,4112.31,4007.18,0
11_43_50,101,4007.69,3946.15,4026.15,4108.21,4062.05,4038.97,3975.38,4052.82,4099.49,4060.51,4135.38,3318.46,4109.23,4009.74,0
11_43_50,102,4006.15,3946.67,4024.1,4113.85,4056.41,4037.95,3974.87,4055.38,4102.05,4060.51,4132.31,3321.54,4108.72,4012.31,0
11_43_50,103,4009.23,3940,4024.62,4120.51,4057.44,4038.46,3973.85,4053.85,4100.51,4053.33,4129.74,3315.9,4112.82,4013.85,0
11_43_50,104,4011.79,3935.9,4025.64,4116.41,4061.03,4038.46,3974.87,4050.26,4097.95,4053.33,4129.74,3318.46,4113.33,4010.77,0
11_43_50,105,4012.82,3943.08,4025.13,4118.46,4058.46,4037.95,3981.54,4051.79,4098.46,4055.38,4128.21,3321.03,4112.82,4010.77,0
11_43_50,106,4012.82,3944.62,4024.1,4122.05,4056.41,4036.92,3983.59,4053.33,4099.49,4052.82,4124.62,3314.87,4115.9,4012.31,0
11_43_50,107,4013.33,3936.92,4022.05,4119.49,4056.92,4036.41,3980,4052.31,4097.95,4056.92,4125.64,3317.44,4121.54,4011.28,0
11_43_50,108,4015.38,3938.46,4022.05,4121.03,4056.41,4037.44,3974.36,4053.33,4095.38,4064.1,4127.69,3324.1,4124.62,4012.31,0
11_43_50,109,4014.36,3943.59,4025.13,4122.56,4053.33,4040,3969.74,4054.87,4097.44,4063.08,4121.03,3321.54,4126.15,4012.31,0
11_43_50,110,4010.26,3936.92,4024.62,4124.62,4053.33,4036.41,3969.23,4053.85,4098.97,4060.51,4115.38,3316.92,4128.72,4012.82,0
11_43_50,111,4010.26,3932.31,4024.1,4125.64,4054.87,4031.79,3972.31,4052.31,4098.97,4061.54,4115.9,3317.95,4131.28,4013.33,0
11_43_50,112,4016.92,3936.41,4027.18,4122.05,4053.85,4036.92,3974.36,4050.77,4098.46,4062.56,4111.79,3321.54,4131.28,4012.31,0
11_43_50,113,4020,3940,4028.72,4127.18,4049.74,4041.54,3976.92,4051.28,4096.92,4064.1,4104.1,3322.05,4123.59,4010.77,0
11_43_50,114,4023.59,3942.05,4026.15,4130.26,4051.79,4038.97,3981.03,4052.82,4095.9,4061.54,4101.54,3315.9,4116.41,4014.87,0
11_43_50,115,4030.26,3944.62,4025.64,4108.72,4058.97,4039.49,3983.59,4053.33,4098.46,4061.03,4098.97,3315.38,4119.49,4017.95,0
11_43_50,116,4031.79,3948.72,4026.15,4089.74,4060,4041.54,3982.56,4051.79,4099.49,4063.08,4098.46,3324.1,4124.62,4023.08,0
11_43_50,117,4023.08,3947.69,4027.69,4092.31,4053.85,4037.95,3981.03,4050.26,4096.92,4060.51,4102.56,3325.13,4121.03,4029.23,0
11_43_50,118,4026.67,3946.67,4027.69,4090.77,4051.28,4031.79,3984.1,4053.85,4097.95,4051.79,4103.59,3316.92,4124.62,4029.74,0
11_43_50,119,4033.85,3949.74,4026.67,4076.92,4054.36,4035.38,3984.62,4054.36,4101.03,4049.23,4101.54,3315.38,4132.31,4026.15,0
11_43_50,120,4031.28,3951.28,4027.18,4066.67,4052.82,4042.05,3982.56,4051.28,4099.49,4055.9,4106.15,3319.49,4137.95,4030.77,0
11_43_50,121,4029.74,3946.67,4029.74,4060.51,4047.18,4040,3986.67,4052.82,4096.92,4060,4108.72,3323.59,4141.03,4035.9,0
11_43_50,122,4030.26,3946.67,4029.23,4053.85,4048.72,4034.87,3994.36,4052.82,4100,4057.44,4106.15,3323.08,4142.56,4036.92,0
11_43_50,123,4028.21,3950.77,4027.69,4050.26,4053.85,4036.92,3993.85,4050.26,4101.03,4055.9,4104.62,3320,4138.46,4037.95,0
11_43_50,124,4034.36,3950.26,4029.74,4050.77,4056.41,4039.49,3991.79,4051.28,4092.31,4058.97,4104.62,3320,4129.23,4040,0
11_43_50,125,4044.62,3952.31,4030.77,4048.21,4057.44,4038.97,3995.38,4052.82,4092.31,4063.08,4099.49,3320.51,4123.08,4038.97,0
11_43_50,126,4044.62,3953.85,4031.79,4045.64,4054.87,4038.97,3998.97,4051.28,4101.03,4063.08,4096.41,3322.05,4122.56,4038.46,0
11_43_50,127,4046.67,3950.77,4030.77,4045.64,4051.79,4038.46,4000,4052.82,4101.03,4062.56,4101.03,3323.08,4125.13,4042.56,0
11_43_50,128,4050.26,3950.77,4028.72,4041.03,4050.26,4038.46,4001.03,4053.85,4100.51,4063.08,4103.08,3320,4125.13,4045.13,0
11_43_50,0,4045.13,3951.28,4030.26,4034.36,4051.28,4040.51,4000.51,4051.28,4104.1,4063.08,4100,3318.97,4127.69,4046.67,0
11_43_50,1,4042.05,3950.26,4032.31,4034.36,4048.72,4039.49,3997.95,4051.28,4101.03,4063.08,4099.49,3324.1,4130.26,4050.77,0
11_43_50,2,4046.15,3954.36,4028.21,4031.28,4050.26,4036.92,3999.49,4052.82,4097.44,4062.05,4101.54,3326.15,4128.72,4052.31,0
11_43_50,3,4043.08,3958.46,4025.64,4025.13,4053.33,4038.46,3999.49,4052.82,4095.9,4063.08,4096.92,3324.62,4127.18,4046.67,0
11_43_50,4,4040,3972.31,4027.69,4024.62,4049.23,4037.95,3997.44,4051.79,4092.31,4063.08,4090.26,3325.64,4129.74,4043.08,0
11_43_50,5,4038.46,3998.97,4029.23,4023.08,4046.15,4034.87,3996.92,4051.79,4092.82,4056.41,4090.77,3323.08,4124.1,4038.97,0
11_43_50,6,4036.41,4009.74,4029.74,4020.51,4047.18,4037.44,3998.97,4053.33,4095.9,4053.33,4096.41,3318.97,4115.9,4038.46,0
11_43_50,7,4034.87,4007.69,4030.77,4025.13,4047.69,4041.54,3997.95,4052.82,4093.33,4059.49,4095.9,3320,4113.33,4040.51,0
11_43_50,8,4043.59,4023.59,4029.74,4029.74,4047.69,4040,3996.41,4051.28,4092.82,4060.51,4092.82,3306.15,4110.77,4042.56,0
11_43_50,9,4049.74,4042.05,4031.28,4032.82,4048.21,4038.97,3996.41,4053.33,4093.85,4056.41,4096.41,3291.79,4090.26,4038.46,0
11_43_50,10,4051.79,4048.72,4034.36,4034.36,4051.79,4040.51,4001.03,4052.82,4093.85,4059.49,4094.87,3302.05,4074.36,4030.26,0
11_43_50,11,4052.31,4055.38,4032.31,4029.74,4055.38,4041.03,4005.64,4051.28,4095.38,4063.08,4081.54,3316.41,4071.28,4023.59,0
11_43_50,12,4051.79,4055.38,4030.77,4028.21,4056.41,4041.03,4004.1,4051.28,4094.87,4061.54,4083.59,3312.31,4066.15,4028.21,0
11_43_50,13,4048.72,4047.69,4031.28,4033.85,4054.36,4042.56,4001.54,4051.28,4093.85,4061.03,4095.38,3310.77,4061.54,4035.38,0
11_43_50,14,4046.67,4054.87,4029.23,4034.36,4053.85,4042.05,4002.05,4051.28,4092.82,4062.05,4087.69,3313.85,4070.77,4030.77,0
11_43_50,15,4048.21,4062.56,4026.67,4034.36,4051.79,4040,4002.56,4052.82,4092.31,4061.54,4078.46,3313.33,4072.31,4025.64,0
11_43_50,16,4049.74,4057.95,4031.79,4035.9,4048.21,4040.51,4002.05,4052.31,4090.26,4061.54,4088.21,3316.41,4055.9,4034.87,0
11_43_50,17,4049.23,4057.44,4035.38,4031.28,4048.21,4040,4000,4051.28,4088.72,4061.54,4093.33,3315.9,4060.51,4044.1,0
11_43_50,18,4051.28,4052.82,4034.87,4031.79,4044.62,4041.03,4004.62,4053.33,4089.74,4061.54,4087.18,3315.38,4068.21,4041.54,0
11_43_50,19,4059.49,4042.05,4034.36,4035.9,4043.08,4044.1,4012.31,4052.82,4091.79,4061.54,4089.74,3321.03,4044.62,4045.13,0
11_43_50,20,4061.03,4046.67,4032.31,4030.77,4049.23,4043.59,4012.82,4050.77,4090.77,4061.54,4093.85,3323.08,4026.15,4050.77,0
11_43_50,21,4056.92,4056.92,4031.28,4028.72,4055.9,4041.54,4011.79,4053.85,4087.69,4061.54,4084.1,3318.97,4037.95,4046.15,0
11_43_50,22,4060.51,4055.9,4035.38,4032.82,4055.9,4043.08,4017.95,4053.85,4087.69,4061.54,4073.33,3322.05,4036.41,4043.59,0
11_43_50,23,4066.15,4050.26,4036.92,4034.36,4050.26,4043.08,4018.46,4049.74,4090.26,4061.54,4077.44,3324.1,4020,4051.28,0
11_43_50,24,4062.05,4045.64,4033.85,4031.79,4046.67,4041.03,4010.26,4051.28,4094.36,4061.54,4089.74,3319.49,4020.51,4053.33,0
11_43_50,25,4059.49,4049.74,4029.74,4028.72,4047.69,4039.49,4008.21,4053.33,4091.28,4061.54,4097.95,3321.03,4017.95,4057.44,0
11_43_50,26,4063.59,4062.05,4030.77,4027.69,4051.79,4040,4012.31,4051.79,4084.62,4061.54,4085.13,3324.62,4003.08,4061.54,0
11_43_50,27,4064.1,4070.77,4033.33,4033.85,4054.36,4042.56,4016.41,4053.85,4087.18,4061.54,4070.26,3321.03,4003.59,4056.41,0
11_43_50,28,4058.97,4061.03,4033.85,4041.54,4050.77,4043.08,4017.95,4055.9,4093.33,4061.54,4093.33,3321.03,3973.85,4063.08,0
11_43_50,29,4060,4056.41,4030.26,4045.64,4049.74,4040.51,4014.36,4052.31,4091.28,4061.54,4122.05,3326.15,3944.1,4074.36,0
11_43_50,30,4061.03,4069.23,4029.74,4053.33,4051.79,4040.51,4012.31,4054.87,4086.67,4061.54,4133.85,3322.05,3949.23,4050.26,0
11_43_50,31,4060.51,4076.92,4031.28,4064.62,4048.72,4041.03,4014.36,4060.51,4089.74,4061.54,4172.31,3318.97,3918.97,4032.31,0
11_43_50,32,4050.77,4065.13,4026.15,4067.18,4041.54,4041.03,4008.21,4058.46,4090.77,4061.54,4228.21,3323.59,3877.44,4046.15,0
11_43_50,33,4041.03,4056.92,4026.15,4062.05,4041.54,4042.05,4003.08,4051.79,4087.18,4061.54,4234.36,3324.62,3902.05,4043.59,0
11_43_50,34,4044.1,4064.62,4033.33,4061.03,4040.51,4041.03,4008.21,4051.28,4086.15,4061.54,4225.13,3322.05,3914.36,4023.08,0
11_43_50,35,4046.15,4064.1,4035.38,4061.54,4036.92,4040.51,4008.72,4056.41,4086.67,4061.54,4257.95,3321.03,3890.26,4018.46,0
11_43_50,36,4037.44,4062.05,4031.79,4050.77,4038.46,4043.08,4000.51,4056.92,4086.15,4061.54,4270.26,3319.49,3920,4011.28,0
11_43_50,37,4033.85,4071.79,4033.33,4047.18,4041.03,4042.05,4001.54,4053.33,4087.69,4061.54,4233.85,3323.08,3956.41,4000.51,0
11_43_50,38,4043.08,4078.46,4032.31,4051.79,4038.97,4037.44,4007.18,4053.33,4089.74,4061.54,4213.33,3326.67,3943.08,4011.28,0
11_43_50,39,4040.51,4075.38,4029.23,4048.21,4037.44,4038.46,4003.08,4055.9,4087.69,4061.54,4226.67,3323.08,3938.46,4014.36,0
11_43_50,40,4034.36,4076.92,4030.26,4044.1,4040,4041.54,3998.97,4053.33,4089.23,4061.54,4229.23,3321.03,3944.62,4011.28,0
11_43_50,41,4036.41,4087.69,4031.28,4047.18,4040,4040.51,4002.05,4052.82,4089.23,4061.54,4213.33,3323.08,3935.9,4014.87,0
11_43_50,42,4038.46,4089.74,4032.31,4047.18,4039.49,4039.49,4004.62,4055.9,4086.15,4061.54,4214.87,3324.1,3931.28,4017.44,0
11_43_50,43,4033.33,4082.05,4033.85,4046.15,4040,4040.51,4002.56,4053.33,4085.64,4061.54,4238.46,3325.13,3927.18,4011.28,0
11_43_50,44,4036.41,4090.77,4036.41,4049.74,4042.56,4042.05,4007.18,4051.79,4087.69,4061.54,4219.49,3328.72,3923.59,4018.46,0
11_43_50,45,4046.15,4096.92,4036.92,4050.77,4044.1,4043.08,4010.26,4055.9,4088.21,4061.54,4181.54,3330.26,3922.05,4031.28,0
11_43_50,46,4038.46,4089.74,4032.31,4045.13,4041.03,4039.49,4001.03,4056.92,4086.15,4061.54,4242.56,3327.18,3907.69,4020.51,0
11_43_50,47,4064.1,4105.64,4044.1,4052.82,4054.36,4038.46,4018.46,4051.79,4086.67,4061.54,4113.85,3331.79,3925.13,4042.56,0
11_43_50,48,4155.38,4151.28,4066.15,4078.97,4087.18,4045.13,4070.77,4053.33,4095.9,4061.54,3649.74,3344.62,4005.13,4139.49,0
11_43_50,49,4214.87,4179.49,4064.1,4090.77,4102.05,4051.28,4093.33,4056.92,4102.05,4062.05,3361.54,3346.15,4062.05,4209.23,0
11_43_51,50,4203.08,4178.97,4049.23,4083.08,4093.85,4047.69,4078.46,4053.33,4093.33,4061.54,3449.23,3335.38,4050.26,4197.44,0
11_43_51,51,4193.85,4174.87,4050.77,4080.51,4091.79,4046.15,4073.33,4053.85,4089.23,4060.51,3508.72,3332.31,4035.38,4185.64,0
11_43_51,52,4204.1,4168.72,4053.85,4084.62,4100.51,4048.72,4080.51,4054.87,4094.87,4063.08,3455.9,3338.46,4042.56,4198.97,0
11_43_51,53,4198.97,4161.03,4047.69,4085.64,4102.56,4046.67,4077.95,4053.33,4094.36,4060.51,3485.64,3341.03,4037.95,4192.82,0
11_43_51,54,4193.85,4158.46,4047.69,4087.69,4098.46,4042.56,4076.92,4053.85,4089.74,4054.87,3514.36,3334.36,4033.85,4185.13,0
11_43_51,55,4198.97,4163.08,4049.74,4094.36,4095.9,4044.1,4081.03,4055.38,4091.28,4056.92,3493.85,3327.69,4040.51,4192.31,0
11_43_51,56,4197.95,4162.56,4049.74,4094.87,4096.41,4047.18,4081.03,4052.31,4094.87,4060.51,3487.69,3331.28,4047.69,4194.36,0
11_43_51,57,4196.41,4153.33,4045.64,4092.82,4096.92,4045.64,4078.46,4051.28,4095.38,4057.95,3489.74,3333.85,4058.97,4191.28,0
11_43_51,58,4186.67,4184.1,4041.03,4092.31,4090.26,4046.67,4066.15,4053.85,4091.28,4056.92,3499.49,3329.23,4059.49,4179.49,0
11_43_51,59,4165.13,4263.59,4038.46,4088.21,4083.59,4048.21,4051.28,4055.9,4088.21,4059.49,3505.64,3327.18,4054.36,4158.97,0
11_43_51,60,4140.51,4310.26,4036.41,4080.51,4080.51,4046.67,4045.13,4056.41,4090.77,4059.49,3515.38,3329.23,4052.31,4138.97,0
11_43_51,61,4134.36,4300,4037.95,4081.54,4080.51,4044.1,4050.26,4054.87,4091.28,4061.03,3530.77,3328.72,4056.41,4135.9,0
11_43_51,62,4138.97,4286.15,4043.08,4087.69,4078.97,4043.59,4050.77,4055.38,4089.23,4063.08,3537.44,3329.23,4062.05,4135.9,0
11_43_51,63,4137.95,4288.21,4043.08,4088.21,4076.41,4042.56,4046.15,4056.41,4086.67,4062.05,3534.87,3327.69,4070.77,4133.33,0
11_43_51,64,4133.33,4288.21,4042.05,4089.23,4076.92,4043.59,4047.18,4053.85,4082.56,4062.05,3532.82,3328.21,4075.9,4126.15,0
11_43_51,65,4134.87,4284.1,4043.08,4089.23,4076.92,4045.13,4053.33,4053.33,4083.59,4062.56,3536.92,3331.28,4081.03,4120.51,0
11_43_51,66,4130.77,4275.9,4041.54,4082.05,4075.9,4043.59,4052.82,4055.9,4083.08,4063.08,3544.1,3330.77,4088.72,4117.95,0
11_43_51,67,4125.64,4274.36,4041.03,4081.54,4076.41,4043.08,4049.74,4055.9,4081.54,4062.56,3550.77,3328.72,4091.28,4115.9,0
11_43_51,68,4127.18,4270.77,4044.1,4083.08,4073.33,4046.15,4049.74,4053.85,4085.64,4063.08,3555.9,3330.26,4094.87,4114.87,0
11_43_51,69,4130.77,4259.49,4045.13,4076.41,4071.28,4046.67,4051.79,4055.9,4089.23,4062.05,3562.56,3331.28,4103.08,4117.44,0
11_43_51,70,4131.28,4256.92,4043.08,4074.36,4071.28,4043.59,4051.28,4058.46,4086.67,4062.56,3570.26,3329.74,4101.54,4117.44,0
11_43_51,71,4124.62,4255.9,4042.05,4077.95,4071.28,4043.59,4050.26,4053.33,4087.18,4063.08,3576.92,3328.21,4104.62,4111.79,0
11_43_51,72,4112.82,4245.64,4042.05,4075.38,4072.31,4043.59,4050.77,4049.23,4090.77,4060.51,3583.08,3329.23,4125.64,4113.33,0
11_43_51,73,4106.15,4234.36,4043.08,4072.31,4069.74,4043.59,4049.74,4053.85,4086.67,4058.46,3590.26,3329.74,4143.08,4116.92,0
11_43_51,74,4107.18,4230.26,4041.03,4073.85,4064.62,4044.62,4045.64,4057.44,4086.67,4061.03,3595.9,3330.26,4148.21,4111.79,0
11_43_51,75,4106.67,4225.64,4041.03,4078.46,4063.59,4045.64,4045.64,4054.87,4088.72,4063.08,3596.41,3329.74,4149.74,4104.62,0
11_43_51,76,4106.67,4215.9,4044.62,4082.56,4065.13,4045.13,4051.79,4054.87,4086.15,4062.56,3601.03,3329.74,4150.77,4107.69,0
11_43_51,77,4105.13,4206.15,4044.1,4079.49,4065.64,4045.13,4052.82,4055.38,4083.59,4059.49,3609.74,3330.77,4151.28,4111.28,0
11_43_51,78,4099.49,4205.13,4041.54,4075.38,4069.23,4043.08,4050.77,4050.77,4085.13,4056.92,3617.44,3329.74,4154.87,4108.21,0
11_43_51,79,4094.36,4204.62,4043.59,4079.49,4071.28,4042.05,4052.82,4049.74,4086.67,4059.49,3623.59,3329.23,4155.9,4100,0
11_43_51,80,4095.38,4200,4041.54,4082.56,4070.26,4043.59,4054.87,4054.87,4084.1,4062.56,3628.72,3329.74,4157.44,4098.97,0
11_43_51,81,4096.41,4197.95,4035.9,4081.03,4069.74,4044.1,4051.79,4054.87,4082.56,4061.03,3635.38,3330.26,4155.38,4103.08,0
11_43_51,82,4097.44,4200,4036.92,4082.05,4068.72,4043.08,4048.72,4051.79,4083.08,4060,3643.08,3329.74,4153.33,4104.62,0
11_43_51,83,4094.36,4193.33,4037.95,4080.51,4064.62,4042.56,4047.18,4057.44,4084.1,4062.05,3642.56,3329.74,4155.9,4101.54,0
11_43_51,84,4091.28,4184.62,4035.9,4075.38,4062.05,4043.59,4049.23,4061.54,4083.59,4062.05,3643.59,3330.77,4163.08,4101.54,0
11_43_51,85,4090.26,4179.49,4037.44,4076.41,4065.64,4045.13,4053.33,4057.95,4081.03,4062.05,3653.85,3330.77,4160.51,4100.51,0
11_43_51,86,4092.82,4177.44,4041.03,4082.05,4070.77,4043.08,4053.33,4056.41,4083.59,4061.54,3660,3329.74,4154.36,4096.92,0
11_43_51,87,4095.9,4174.87,4041.03,4081.54,4069.74,4041.54,4051.28,4057.95,4084.62,4061.03,3657.44,3328.72,4154.87,4094.87,0
11_43_51,88,4095.38,4178.97,4040,4077.95,4068.72,4043.08,4056.41,4053.85,4083.08,4063.08,3660.51,3329.23,4150.26,4095.9,0
11_43_51,89,4097.44,4186.67,4042.05,4078.46,4068.72,4043.08,4060.51,4051.28,4080.51,4060,3669.74,3329.74,4130.26,4099.49,0
11_43_51,90,4105.13,4177.44,4045.13,4081.03,4067.18,4043.08,4058.97,4056.41,4081.54,4055.38,3678.46,3329.74,4112.82,4105.64,0
11_43_51,91,4102.05,4197.95,4040,4076.41,4064.1,4044.1,4052.82,4057.44,4083.08,4056.41,3684.62,3329.23,4109.74,4101.54,0
11_43_51,92,4078.97,4284.62,4034.36,4069.74,4054.87,4044.1,4042.05,4054.36,4082.05,4061.03,3683.08,3328.72,4102.05,4080,0
11_43_51,93,4062.05,4350.26,4035.9,4068.72,4044.62,4042.56,4033.33,4054.87,4082.05,4062.05,3681.54,3329.74,4085.13,4063.59,0
11_43_51,94,4064.62,4347.18,4039.49,4068.72,4049.74,4043.08,4036.92,4055.9,4082.05,4062.05,3680.51,3329.74,4075.38,4062.05,0
11_43_51,95,4068.21,4333.85,4037.44,4069.74,4058.46,4042.56,4038.46,4054.36,4081.03,4063.59,3682.05,3328.21,4087.69,4063.59,0
11_43_51,96,4059.49,4333.33,4036.41,4071.79,4052.31,4043.08,4029.74,4055.38,4080.51,4062.56,3691.28,3329.23,4102.56,4063.08,0
11_43_51,97,4053.33,4322.05,4037.95,4071.79,4045.64,4044.1,4030.77,4054.87,4083.59,4062.05,3704.1,3330.26,4107.18,4067.69,0
11_43_51,98,4051.28,4306.15,4040,4068.72,4048.72,4042.56,4037.95,4052.82,4081.54,4062.05,3707.69,3329.23,4107.18,4070.77,0
11_43_51,99,4051.79,4295.9,4038.97,4068.72,4052.82,4041.54,4036.41,4056.92,4076.41,4062.56,3707.18,3328.21,4111.28,4072.82,0
11_43_51,100,4055.38,4282.05,4037.95,4070.77,4053.85,4043.08,4037.95,4062.56,4077.44,4062.56,3711.28,3329.23,4115.9,4074.36,0
11_43_51,101,4056.41,4277.95,4037.95,4070.77,4052.31,4042.05,4045.13,4060,4077.95,4062.56,3712.82,3331.28,4119.49,4072.82,0
11_43_51,102,4045.64,4298.97,4036.41,4069.23,4047.69,4041.03,4039.49,4057.44,4076.92,4062.56,3710.77,3328.72,4118.46,4064.1,0
11_43_51,103,4037.95,4326.15,4037.44,4069.74,4043.59,4042.56,4029.23,4060.51,4080,4062.56,3712.31,3325.64,4120,4057.95,0
11_43_51,104,4041.03,4333.85,4040,4069.74,4041.03,4043.08,4029.74,4059.49,4082.56,4062.56,3714.87,3326.67,4123.59,4055.9,0
11_43_51,105,4037.44,4340.51,4039.49,4067.69,4042.05,4041.54,4030.77,4052.31,4077.95,4062.56,3714.87,3329.74,4122.56,4052.31,0
11_43_51,106,4027.69,4355.38,4039.49,4068.72,4046.15,4041.54,4027.18,4050.26,4075.38,4062.56,3713.85,3328.21,4113.33,4046.67,0
11_43_51,107,4029.74,4361.03,4042.05,4071.79,4043.59,4043.59,4028.21,4055.38,4077.44,4062.56,3715.9,3328.21,4107.18,4045.64,0
11_43_51,108,4031.79,4368.72,4038.46,4069.23,4038.97,4043.59,4030.77,4059.49,4075.9,4062.56,3714.87,3326.15,4108.21,4046.15,0
11_43_51,109,4024.62,4376.41,4035.38,4066.67,4039.49,4043.08,4028.72,4060,4073.85,4062.56,3715.38,3324.62,4108.72,4042.56,0
11_43_51,110,4024.62,4367.18,4037.44,4068.21,4040.51,4042.56,4027.18,4058.97,4075.9,4062.56,3722.05,3327.69,4112.31,4040.51,0
11_43_51,111,4028.21,4357.95,4038.46,4067.69,4037.44,4042.56,4029.74,4058.46,4078.97,4062.56,3727.18,3331.28,4118.46,4041.54,0
11_43_51,112,4028.72,4351.79,4038.97,4069.74,4037.95,4044.62,4031.28,4058.97,4077.95,4062.56,3731.79,3329.74,4124.1,4038.97,0
11_43_51,113,4029.23,4342.56,4042.56,4073.33,4040,4045.13,4027.18,4058.46,4073.33,4062.56,3737.44,3327.18,4126.67,4025.13,0
11_43_51,114,4028.72,4343.59,4042.56,4071.28,4041.54,4041.03,4028.21,4057.95,4072.82,4062.56,3736.41,3327.18,4130.77,4018.46,0
11_43_51,115,4024.62,4346.67,4041.54,4069.74,4043.08,4041.54,4034.36,4057.95,4074.87,4062.56,3732.31,3328.72,4134.36,4022.05,0
11_43_51,116,4027.69,4345.13,4041.03,4070.26,4042.05,4044.1,4032.82,4058.46,4075.38,4062.56,3738.46,3329.74,4133.85,4026.15,0
11_43_51,117,4025.64,4362.56,4039.49,4066.15,4037.95,4043.08,4024.1,4060.51,4075.9,4062.56,3743.08,3328.21,4126.15,4021.54,0
11_43_51,118,4014.36,4403.59,4038.46,4064.62,4036.92,4041.54,4018.46,4060,4076.41,4062.56,3737.95,3325.64,4120.51,4015.38,0
11_43_51,119,4008.21,4428.21,4037.95,4068.72,4033.33,4043.08,4015.9,4056.41,4071.79,4062.56,3737.44,3325.13,4115.9,4008.21,0
11_43_51,120,4011.28,4441.03,4036.92,4068.21,4026.67,4042.05,4014.36,4053.85,4067.69,4062.56,3744.1,3325.64,4105.64,4007.18,0
11_43_51,121,4002.56,4472.31,4037.44,4065.64,4024.62,4040,4011.28,4053.85,4068.21,4062.56,3743.08,3325.13,4094.36,4003.08,0
11_43_51,122,3990.77,4510.77,4036.92,4064.1,4026.15,4040.51,4009.74,4055.9,4068.72,4062.56,3741.54,3325.13,4089.23,3993.33,0
11_43_51,123,3989.74,4526.67,4034.36,4061.54,4026.15,4041.03,4007.69,4058.46,4066.15,4062.56,3748.21,3324.62,4080,3989.23,0
11_43_51,124,3987.69,4529.74,4034.87,4060.51,4025.13,4042.56,4007.18,4055.9,4066.67,4062.56,3751.79,3324.1,4072.82,3989.74,0
11_43_51,125,3978.46,4543.59,4036.41,4063.59,4022.05,4042.05,4005.13,4056.92,4066.67,4062.56,3748.21,3322.05,4073.33,3987.69,0
11_43_51,126,3978.97,4552.82,4037.95,4066.67,4020.51,4040.51,4003.59,4060.51,4064.62,4062.56,3748.72,3322.56,4070.26,3985.64,0
11_43_51,127,3986.67,4543.59,4037.95,4062.56,4022.05,4042.56,4004.62,4057.95,4063.08,4062.56,3755.38,3325.64,4066.67,3989.23,0
11_43_51,128,3985.13,4541.03,4036.41,4059.49,4022.56,4043.08,4008.21,4054.36,4066.15,4062.56,3757.95,3328.21,4068.21,3990.77,0
11_43_51,0,3981.03,4546.15,4035.9,4062.56,4021.54,4041.03,4012.31,4058.46,4068.21,4062.56,3757.44,3325.64,4067.18,3989.74,0
11_43_51,1,3978.46,4538.46,4038.46,4065.13,4023.08,4041.03,4016.92,4061.54,4066.67,4062.56,3757.95,3322.05,4062.56,3989.74,0
11_43_51,2,3979.49,4526.15,4038.97,4064.1,4025.64,4040.51,4022.56,4059.49,4065.13,4062.56,3761.03,3322.56,4064.62,3990.77,0
11_43_51,3,3979.49,4522.56,4037.44,4065.13,4025.64,4041.54,4022.05,4055.9,4066.67,4062.56,3763.08,3325.64,4065.13,3990.26,0
11_43_51,4,3983.08,4521.54,4037.95,4066.15,4022.05,4043.59,4019.49,4055.38,4067.69,4062.56,3764.1,3325.13,4063.08,3991.28,0
11_43_51,5,3984.1,4516.41,4039.49,4066.15,4021.03,4041.03,4018.97,4060,4065.13,4062.56,3766.67,3323.59,4064.1,3992.31,0
11_43_51,6,3982.56,4508.72,4037.44,4066.67,4022.56,4040,4020.51,4060.51,4065.13,4062.56,3772.31,3324.62,4074.36,3994.36,0
11_43_51,7,3980,4501.54,4036.41,4066.67,4018.97,4043.08,4019.49,4055.9,4064.1,4062.56,3776.41,3327.18,4083.08,3997.44,0
11_43_51,8,3978.97,4499.49,4035.9,4066.15,4018.46,4040,4015.9,4051.28,4060.51,4062.56,3782.05,3326.67,4081.03,4000,0
11_43_51,9,3975.38,4497.44,4031.79,4066.15,4023.08,4039.49,4018.46,4052.31,4058.97,4062.56,3786.67,3324.1,4074.87,3995.38,0
11_43_51,10,3974.87,4494.36,4029.23,4067.69,4025.13,4042.56,4026.15,4057.95,4061.03,4062.56,3787.18,3324.62,4077.44,3992.82,0
11_43_51,11,3979.49,4490.77,4032.31,4068.72,4026.15,4043.08,4025.64,4057.95,4060.51,4062.56,3787.18,3324.62,4077.95,3990.77,0
11_43_51,12,3984.62,4485.64,4035.38,4068.72,4026.67,4043.08,4020,4052.82,4057.44,4062.56,3790.26,3324.1,4070.77,3992.82,0
11_43_51,13,3984.62,4482.56,4035.38,4068.21,4021.54,4043.08,4018.46,4053.85,4057.44,4062.56,3796.41,3323.59,4068.21,4000.51,0
11_43_51,14,3985.64,4478.97,4036.92,4068.21,4017.95,4043.08,4017.95,4057.95,4059.49,4062.56,3803.59,3322.56,4073.33,4005.13,0
11_43_51,15,3990.26,4470.77,4036.41,4067.18,4021.03,4045.13,4013.33,4057.44,4061.54,4062.56,3804.62,3322.56,4076.41,4004.1,0
11_43_51,16,3992.31,4461.03,4033.33,4067.18,4022.05,4043.59,4014.87,4057.95,4059.49,4062.56,3804.62,3324.62,4078.46,4004.62,0
11_43_51,17,3988.72,4453.85,4033.33,4065.64,4023.59,4039.49,4021.54,4058.46,4056.41,4062.56,3811.79,3323.59,4085.13,4006.15,0
11_43_51,18,3985.64,4447.18,4035.38,4063.08,4026.15,4043.08,4021.54,4055.9,4057.44,4062.56,3816.41,3321.54,4092.31,4002.56,0
11_43_51,19,3987.69,4440,4036.92,4062.56,4025.64,4044.62,4020,4056.92,4060.51,4062.56,3815.38,3323.59,4091.79,4002.56,0
11_43_51,20,3990.26,4429.74,4037.44,4064.62,4023.59,4041.54,4024.1,4061.03,4059.49,4062.56,3815.9,3326.67,4089.74,4006.15,0
11_43_51,21,3991.79,4420,4037.95,4064.1,4021.54,4043.08,4024.1,4061.54,4056.41,4062.56,3818.97,3324.62,4094.87,4009.23,0
11_43_51,22,3991.79,4412.31,4038.97,4064.62,4018.46,4042.56,4021.54,4058.97,4058.46,4062.56,3823.08,3323.08,4094.36,4009.74,0
11_43_51,23,3994.36,4411.79,4036.92,4070.26,4020,4041.03,4022.05,4056.92,4060.51,4062.56,3826.15,3322.56,4088.21,4012.82,0
11_43_51,24,3993.85,4412.82,4035.38,4072.31,4023.08,4044.62,4021.03,4057.44,4059.49,4062.56,3824.62,3323.08,4087.69,4013.85,0
11_43_51,25,3991.79,4410.26,4036.41,4069.23,4024.62,4045.13,4022.56,4056.92,4058.97,4062.56,3827.18,3325.64,4092.31,4011.28,0
11_43_51,26,3988.72,4411.28,4036.41,4066.67,4025.13,4042.05,4026.67,4056.41,4057.44,4062.56,3831.28,3325.13,4089.23,4007.18,0
11_43_51,27,3987.18,4408.21,4034.36,4068.21,4026.15,4044.62,4027.18,4057.44,4055.38,4065.13,3833.33,3322.56,4089.74,4009.23,0
11_43_51,28,3984.62,4392.31,4037.44,4070.77,4023.59,4047.18,4024.62,4057.95,4053.85,4066.67,3839.49,3323.08,4094.36,4013.33,0
11_43_51,29,3985.64,4383.08,4038.97,4071.79,4022.05,4043.08,4026.67,4056.92,4053.85,4065.64,3845.13,3323.59,4100.51,4013.85,0
11_43_51,30,3987.69,4382.56,4035.38,4072.31,4021.54,4041.54,4026.15,4058.97,4056.41,4065.13,3841.03,3322.05,4105.13,4011.28,0
11_43_51,31,3987.69,4379.49,4035.38,4071.28,4021.54,4044.1,4023.08,4061.54,4056.41,4065.64,3841.54,3322.05,4106.67,4011.79,0
11_43_51,32,3984.62,4374.36,4037.95,4072.31,4025.13,4045.13,4023.59,4059.49,4053.85,4065.64,3844.62,3321.03,4105.64,4010.26,0
11_43_51,33,3986.67,4370.26,4037.44,4079.49,4026.67,4043.59,4024.62,4056.41,4053.33,4065.13,3845.13,3322.05,4108.21,4007.69,0
11_43_51,34,3991.28,4365.13,4036.92,4081.03,4025.13,4042.56,4024.62,4056.92,4054.87,4065.13,3850.26,3324.1,4110.26,4008.21,0
11_43_51,35,3988.72,4364.62,4036.41,4073.33,4026.15,4043.08,4025.64,4061.03,4053.33,4065.13,3853.33,3321.54,4108.21,4008.72,0
11_43_51,36,3985.64,4363.08,4038.46,4073.33,4026.67,4042.56,4026.15,4062.05,4052.31,4065.13,3850.77,3321.54,4109.74,4011.28,0
11_43_51,37,3987.69,4355.38,4042.56,4080,4023.59,4042.56,4026.15,4057.95,4055.38,4065.13,3852.31,3326.67,4113.85,4011.28,0
11_43_51,38,3990.77,4348.72,4040.51,4079.49,4025.13,4043.08,4028.21,4057.44,4054.87,4065.13,3854.87,3326.67,4112.31,4011.28,0
11_43_51,39,3991.79,4346.67,4037.44,4075.9,4029.23,4042.05,4024.62,4061.54,4051.79,4065.13,3853.33,3325.64,4107.69,4014.36,0
11_43_51,40,3992.82,4345.64,4038.97,4078.97,4026.67,4043.08,4017.44,4060.51,4051.28,4065.13,3858.46,3325.13,4112.31,4022.05,0
11_43_51,41,3993.85,4339.49,4042.05,4078.97,4022.56,4043.59,4015.9,4056.41,4052.31,4065.13,3866.67,3323.08,4121.54,4020.51,0
11_43_51,42,3995.9,4331.28,4041.03,4075.38,4024.1,4040.51,4021.54,4056.41,4052.82,4065.13,3868.72,3323.08,4124.62,4016.92,0
11_43_51,43,3994.36,4322.56,4038.46,4077.95,4025.64,4040.51,4025.64,4059.49,4054.36,4065.13,3870.26,3325.13,4121.54,4018.97,0
11_43_51,44,3994.36,4320,4035.9,4080.51,4022.56,4043.59,4027.69,4059.49,4053.85,4065.13,3872.31,3323.59,4125.13,4022.05,0
11_43_52,45,3998.97,4316.92,4037.95,4080,4021.54,4045.64,4028.21,4060,4051.28,4065.13,3869.74,3325.13,4125.64,4021.54,0
11_43_52,46,4005.13,4306.15,4040.51,4081.54,4029.23,4045.13,4029.74,4058.97,4051.28,4065.13,3864.62,3328.72,4119.49,4022.56,0
11_43_52,47,4004.1,4301.03,4038.46,4082.56,4033.33,4042.56,4028.21,4057.44,4051.79,4065.13,3865.13,3329.23,4116.92,4022.05,0
11_43_52,48,4004.1,4302.56,4036.41,4082.05,4027.18,4040.51,4026.67,4057.95,4052.31,4065.13,3876.92,3327.69,4120,4022.05,0
11_43_52,49,4005.13,4295.38,4035.9,4082.56,4023.59,4043.08,4027.69,4057.95,4052.31,4065.13,3884.62,3327.18,4117.44,4023.59,0
11_43_52,50,4005.13,4284.1,4038.97,4083.59,4026.15,4044.1,4028.72,4055.9,4051.79,4065.13,3882.56,3327.69,4116.92,4024.62,0
11_43_52,51,4007.18,4282.05,4040.51,4082.56,4023.08,4042.56,4027.69,4058.46,4052.31,4065.13,3883.08,3327.18,4123.08,4021.54,0
11_43_52,52,4011.28,4277.95,4038.97,4083.59,4020,4042.56,4026.67,4062.56,4054.36,4065.13,3886.67,3324.62,4125.64,4020.51,0
11_43_52,53,4013.33,4268.72,4035.38,4083.08,4023.59,4043.59,4027.69,4062.05,4053.33,4065.13,3883.59,3323.08,4128.21,4023.59,0
11_43_52,54,4009.74,4267.18,4035.38,4082.56,4025.64,4042.05,4027.18,4059.49,4050.77,4065.13,3885.64,3325.13,4133.85,4025.64,0
11_43_52,55,4005.64,4271.28,4037.95,4081.54,4025.13,4042.56,4023.59,4059.49,4053.33,4065.13,3900,3325.64,4132.31,4026.67,0
11_43_52,56,4005.13,4267.69,4038.97,4080.51,4023.59,4042.56,4020,4061.03,4054.87,4065.13,3902.56,3325.64,4128.72,4025.64,0
11_43_52,57,4012.82,4260,4038.97,4081.54,4021.54,4041.54,4021.54,4058.97,4051.28,4065.13,3895.9,3325.64,4131.79,4025.64,0
11_43_52,58,4017.95,4257.95,4040,4083.08,4023.59,4043.08,4025.64,4056.41,4050.77,4065.13,3897.44,3324.62,4129.74,4025.13,0
11_43_52,59,4015.9,4256.41,4040.51,4085.64,4023.08,4044.1,4027.69,4057.44,4057.95,4065.13,3903.08,3326.15,4122.05,4028.72,0
11_43_52,60,4011.79,4248.72,4041.03,4084.62,4019.49,4042.56,4025.13,4058.97,4058.97,4065.13,3902.05,3327.69,4120.51,4032.31,0
11_43_52,61,4015.38,4245.13,4039.49,4083.59,4024.1,4042.56,4023.59,4058.97,4054.36,4065.13,3902.56,3326.67,4124.1,4034.87,0
11_43_52,62,4016.92,4241.54,4037.44,4084.62,4029.23,4043.59,4025.64,4061.03,4054.36,4065.13,3905.64,3326.67,4125.13,4035.9,0
11_43_52,63,4014.36,4237.95,4038.46,4086.15,4026.15,4044.62,4028.72,4061.54,4055.9,4065.13,3905.64,3326.15,4124.62,4036.92,0
11_43_52,64,4014.36,4237.44,4040,4085.64,4023.08,4043.08,4026.67,4057.95,4059.49,4065.13,3907.18,3326.15,4122.56,4034.87,0
11_43_52,65,4017.44,4233.33,4039.49,4086.67,4024.62,4039.49,4022.56,4058.46,4064.1,4065.13,3914.36,3327.18,4127.69,4033.33,0
11_43_52,66,4015.9,4226.15,4040.51,4088.21,4023.59,4041.54,4023.08,4061.03,4064.1,4065.13,3912.82,3327.18,4130.77,4032.31,0
11_43_52,67,4014.36,4224.1,4042.56,4088.21,4023.08,4046.15,4027.69,4059.49,4064.1,4065.13,3905.13,3325.64,4128.21,4033.33,0
11_43_52,68,4018.97,4223.08,4042.56,4090.26,4026.67,4045.13,4029.23,4058.46,4065.13,4065.13,3902.56,3326.67,4123.59,4032.82,0
11_43_52,69,4024.1,4223.59,4042.05,4091.79,4031.79,4044.1,4028.21,4061.54,4061.54,4065.13,3907.69,3329.23,4115.9,4030.77,0
11_43_52,70,4024.1,4221.54,4039.49,4089.74,4032.31,4045.64,4025.13,4062.05,4060.51,4065.13,3911.79,3327.69,4114.87,4031.79,0
11_43_52,71,4023.59,4211.79,4038.46,4088.72,4027.18,4043.59,4020.51,4059.49,4063.59,4065.13,3914.87,3326.67,4123.59,4036.41,0
11_43_52,72,4026.15,4204.1,4038.46,4093.85,4023.59,4041.54,4017.95,4060,4064.1,4065.13,3920.51,3325.64,4126.67,4036.92,0
11_43_52,73,4025.13,4208.72,4035.9,4093.85,4023.59,4042.05,4023.59,4060,4065.13,4065.13,3922.05,3325.13,4125.13,4032.82,0
11_43_52,74,4020,4211.28,4037.95,4089.74,4024.1,4043.59,4027.69,4058.46,4064.62,4065.13,3922.56,3324.1,4129.23,4032.82,0
11_43_52,75,4018.46,4205.64,4043.08,4095.38,4027.18,4043.08,4028.21,4058.97,4062.56,4065.13,3924.62,3323.08,4123.59,4031.79,0
11_43_52,76,4018.46,4209.74,4041.03,4102.05,4031.28,4040.51,4031.28,4059.49,4062.05,4065.13,3922.56,3323.08,4115.38,4028.72,0
11_43_52,77,4014.36,4218.97,4036.41,4095.38,4031.79,4040.51,4032.31,4059.49,4064.1,4065.13,3917.44,3325.64,4117.95,4025.64,0
11_43_52,78,4015.9,4216.41,4037.44,4090.77,4024.62,4044.1,4027.18,4058.97,4062.05,4065.13,3921.03,3327.69,4119.49,4031.79,0
11_43_52,79,4018.97,4210.77,4038.97,4096.41,4018.46,4044.62,4021.54,4058.46,4063.08,4065.13,3925.64,3327.69,4116.92,4034.87,0
11_43_52,80,4017.95,4215.38,4037.44,4098.97,4020.51,4039.49,4021.03,4057.95,4068.21,4065.13,3922.56,3325.64,4123.59,4031.79,0
11_43_52,81,4016.92,4212.82,4040,4096.92,4024.62,4040.51,4023.08,4059.49,4069.23,4065.13,3920.51,3323.08,4124.62,4029.23,0
11_43_52,82,4018.46,4206.67,4041.03,4097.95,4024.1,4045.13,4028.72,4060.51,4067.18,4065.13,3927.18,3321.54,4118.46,4027.18,0
11_43_52,83,4013.33,4207.18,4036.92,4100.51,4025.13,4045.64,4033.33,4061.54,4067.69,4065.13,3932.31,3321.54,4118.46,4023.08,0
11_43_52,84,4010.26,4206.67,4036.92,4101.54,4028.21,4043.59,4032.31,4061.03,4069.23,4065.13,3936.41,3324.1,4122.56,4027.18,0
11_43_52,85,4009.74,4205.13,4042.05,4097.44,4023.08,4043.08,4025.13,4057.95,4067.69,4065.13,3940,3324.62,4122.56,4030.77,0
11_43_52,86,4011.28,4207.18,4040,4091.79,4018.46,4045.13,4021.54,4056.92,4067.18,4065.13,3940,3321.54,4125.13,4028.21,0
11_43_52,87,4014.36,4207.18,4035.9,4094.87,4021.03,4044.62,4026.15,4060,4067.69,4065.13,3935.38,3322.56,4126.67,4024.62,0
11_43_52,88,4015.9,4203.59,4040,4101.03,4025.13,4042.56,4029.23,4060,4068.21,4065.13,3938.97,3326.15,4125.13,4026.15,0
11_43_52,89,4012.82,4194.36,4043.08,4102.05,4023.08,4042.05,4026.67,4057.44,4066.67,4065.13,3945.64,3324.62,4126.15,4027.18,0
11_43_52,90,4010.26,4189.23,4042.56,4101.03,4019.49,4043.59,4026.67,4060,4065.13,4065.13,3943.08,3324.1,4126.15,4024.62,0
11_43_52,91,4012.82,4192.31,4038.97,4102.05,4023.08,4042.56,4030.77,4061.03,4066.67,4065.13,3942.56,3325.64,4124.1,4022.56,0
11_43_52,92,4014.87,4190.26,4036.92,4101.54,4028.21,4042.05,4030.26,4056.41,4065.64,4065.13,3954.87,3325.64,4120.51,4023.08,0
11_43_52,93,4014.87,4189.23,4038.46,4099.49,4025.64,4044.62,4025.64,4054.87,4064.1,4065.13,3962.05,3323.59,4115.9,4024.1,0
11_43_52,94,4011.79,4200.51,4041.54,4103.08,4022.56,4045.13,4025.13,4058.97,4065.64,4065.13,3952.82,3326.15,4110.77,4018.46,0
11_43_52,95,4009.74,4213.85,4038.97,4106.15,4023.08,4043.08,4026.67,4058.46,4065.64,4065.13,3953.33,3325.64,4111.79,4015.38,0
11_43_52,96,4006.15,4227.69,4037.44,4103.08,4022.56,4042.56,4025.13,4056.41,4059.49,4065.13,3962.56,3324.1,4106.67,4018.97,0
11_43_52,97,3998.46,4253.33,4039.49,4098.97,4020,4041.54,4024.1,4059.49,4058.97,4065.13,3958.97,3323.59,4096.41,4017.95,0
11_43_52,98,3991.79,4280.51,4038.46,4101.54,4020,4042.05,4019.49,4065.13,4064.62,4065.13,3949.74,3324.1,4086.67,4007.69,0
11_43_52,99,3993.33,4298.46,4035.9,4105.64,4021.03,4042.56,4018.46,4064.62,4064.62,4065.13,3952.31,3324.62,4080.51,4001.54,0
11_43_52,100,3990.26,4306.67,4038.46,4103.59,4018.46,4044.1,4021.03,4058.46,4060.51,4065.13,3957.44,3324.62,4074.36,3999.49,0
11_43_52,101,3983.08,4309.23,4040,4099.49,4016.92,4045.13,4018.46,4056.92,4059.49,4065.13,3958.97,3324.62,4071.28,3997.95,0
11_43_52,102,3984.62,4309.74,4040,4100,4017.95,4044.1,4015.9,4060.51,4060,4065.13,3962.05,3324.62,4071.28,3997.95,0
11_43_52,103,3991.28,4311.28,4042.05,4104.62,4019.49,4041.03,4020.51,4060.51,4060,4065.13,3958.97,3324.1,4067.18,4002.05,0
11_43_52,104,3987.18,4312.82,4040.51,4106.67,4018.46,4039.49,4020.51,4056.92,4057.95,4065.13,3960,3323.08,4058.97,4001.54,0
11_43_52,105,3984.62,4311.28,4037.95,4106.67,4016.92,4042.05,4018.46,4055.38,4057.95,4065.13,3968.21,3325.13,4057.44,4000.51,0
11_43_52,106,3990.77,4310.77,4037.95,4107.69,4016.92,4043.59,4021.54,4058.97,4061.03,4065.13,3962.56,3329.23,4060.51,4000.51,0
11_43_52,107,3991.28,4315.9,4037.44,4107.69,4020.51,4041.54,4023.59,4063.08,4059.49,4065.13,3953.33,3325.13,4056.41,3998.97,0
11_43_52,108,3986.67,4315.38,4039.49,4105.13,4022.56,4039.49,4020.51,4060.51,4056.92,4065.13,3960.51,3323.08,4055.38,3999.49,0
11_43_52,109,3986.67,4302.05,4043.08,4104.1,4019.49,4042.05,4021.03,4057.44,4055.9,4065.13,3969.23,3327.18,4063.59,4004.1,0
11_43_52,110,3987.18,4289.74,4041.54,4106.67,4021.03,4044.1,4023.08,4061.03,4055.9,4065.13,3967.69,3329.74,4069.74,4007.69,0
11_43_52,111,3986.67,4283.08,4040.51,4107.69,4025.64,4041.03,4023.08,4062.05,4055.9,4065.13,3967.69,3326.67,4069.23,4007.18,0
11_43_52,112,3990.77,4270.77,4044.1,4109.23,4025.64,4040.51,4020,4058.97,4055.9,4065.13,3973.33,3326.15,4071.28,4010.26,0
11_43_52,113,3990.77,4264.1,4043.08,4108.72,4022.05,4042.56,4021.03,4057.95,4056.41,4065.13,3973.85,3329.23,4072.82,4012.31,0
11_43_52,114,3990.26,4267.69,4038.97,4109.74,4025.13,4041.03,4026.67,4060.51,4055.38,4065.13,3968.21,3328.21,4072.31,4013.85,0
11_43_52,115,3992.31,4264.62,4040.51,4115.38,4028.21,4041.54,4026.15,4063.08,4051.79,4065.13,3964.1,3328.21,4072.31,4015.38,0
11_43_52,116,3994.36,4258.97,4042.05,4121.03,4026.15,4043.59,4022.56,4064.62,4051.28,4065.13,3970.77,3329.23,4074.87,4017.44,0
11_43_52,117,3996.92,4256.41,4040.51,4116.92,4020.51,4042.56,4021.03,4066.67,4056.41,4065.13,3975.38,3327.18,4074.36,4018.46,0
11_43_52,118,4002.05,4251.28,4038.46,4108.72,4018.97,4041.54,4017.95,4064.62,4055.9,4065.13,3975.38,3323.08,4077.95,4025.64,0
11_43_52,119,4006.15,4243.08,4036.92,4106.67,4017.95,4041.54,4008.21,4060,4052.31,4065.13,3974.87,3326.15,4084.62,4034.87,0
11_43_52,120,4013.33,4238.46,4036.92,4106.67,4011.28,4040.51,4000,4058.46,4052.82,4065.13,3970.77,3329.74,4086.15,4045.13,0
11_43_52,121,4023.59,4229.23,4036.92,4105.64,4006.15,4041.54,3995.9,4059.49,4053.85,4065.13,3968.21,3328.72,4086.67,4056.41,0
11_43_52,122,4029.23,4216.92,4036.92,4104.62,4005.13,4041.54,3990.77,4057.44,4054.87,4065.13,3969.74,3327.69,4097.44,4066.15,0
11_43_52,123,4029.23,4209.23,4036.41,4105.13,4005.13,4041.54,3988.21,4055.9,4052.31,4065.13,3968.21,3325.13,4100,4067.18,0
11_43_52,124,4028.72,4205.13,4037.95,4107.69,4005.13,4042.05,3992.82,4060,4050.26,4065.13,3969.74,3324.1,4091.28,4064.1,0
11_43_52,125,4025.64,4203.59,4040,4111.79,4006.15,4043.08,4001.54,4059.49,4051.79,4065.13,3972.82,3329.23,4094.36,4059.49,0
11_43_52,126,4020.51,4200.51,4041.03,4110.26,4011.79,4041.54,4009.23,4055.9,4053.33,4065.13,3972.82,3331.79,4104.1,4054.36,0
11_43_52,127,4014.36,4193.33,4040,4106.67,4015.9,4040,4007.18,4058.46,4054.36,4065.13,3976.92,3330.26,4105.13,4051.79,0
11_43_52,128,4011.28,4184.1,4042.56,4115.9,4020,4042.56,4004.62,4062.56,4058.46,4065.13,3983.08,3329.23,4106.67,4048.21,0
11_43_52,0,4013.85,4183.08,4045.64,4123.59,4022.05,4045.64,4010.26,4061.03,4058.46,4065.13,3981.54,3329.74,4108.72,4044.1,0
11_43_52,1,4012.82,4185.13,4042.05,4117.44,4021.03,4044.62,4013.85,4058.97,4055.9,4065.13,3979.49,3331.28,4106.15,4041.03,0
11_43_52,2,4010.26,4182.05,4037.95,4114.36,4021.03,4042.05,4013.33,4060.51,4056.92,4065.13,3980.51,3329.23,4108.21,4040.51,0
11_43_52,3,4008.72,4179.49,4040.51,4120,4022.05,4042.05,4018.46,4060,4056.92,4065.13,3976.41,3325.64,4108.21,4036.41,0
11_43_52,4,4009.74,4178.46,4043.59,4124.62,4026.15,4040.51,4023.08,4058.97,4057.95,4065.13,3976.41,3325.64,4104.1,4033.33,0
11_43_52,5,4010.26,4176.92,4042.56,4123.59,4029.74,4041.03,4021.03,4061.03,4056.92,4065.13,3983.08,3326.15,4101.54,4030.77,0
11_43_52,6,4010.77,4176.41,4038.97,4120.51,4030.77,4043.08,4021.03,4059.49,4053.85,4065.13,3986.15,3325.13,4103.08,4030.26,0
11_43_52,7,4008.72,4171.79,4038.97,4120.51,4029.23,4043.08,4021.03,4059.49,4055.38,4065.13,3985.64,3328.21,4101.03,4030.26,0
11_43_52,8,4010.26,4165.64,4042.05,4122.05,4029.23,4042.56,4021.03,4060.51,4058.46,4065.64,3990.77,3330.77,4099.49,4033.33,0
11_43_52,9,4013.85,4162.05,4044.62,4122.05,4029.74,4044.1,4021.03,4060,4058.46,4066.67,3993.33,3327.18,4104.1,4035.38,0
11_43_52,10,4013.85,4160,4041.54,4122.05,4028.72,4044.62,4020.51,4062.56,4058.46,4066.15,3992.82,3328.21,4111.79,4034.87,0
11_43_52,11,4007.69,4157.95,4040,4121.54,4029.23,4044.1,4019.49,4063.59,4061.03,4064.62,3995.9,3328.21,4109.74,4031.28,0
11_43_52,12,4006.15,4154.87,4042.05,4121.54,4030.26,4043.59,4022.05,4058.46,4063.08,4065.64,3998.97,3325.13,4108.21,4030.26,0
11_43_52,13,4012.31,4146.67,4042.56,4124.1,4032.31,4044.1,4023.59,4058.46,4061.03,4067.18,3998.46,3325.13,4110.26,4030.77,0
11_43_52,14,4019.49,4143.59,4042.05,4124.1,4031.28,4044.1,4021.03,4061.03,4057.95,4066.67,3998.97,3326.15,4106.15,4030.77,0
11_43_52,15,4020,4147.18,4040.51,4123.08,4027.69,4042.56,4018.97,4061.03,4058.97,4065.64,3996.41,3326.15,4102.56,4032.82,0
11_43_52,16,4015.9,4141.54,4039.49,4127.18,4030.77,4043.59,4021.54,4061.54,4060.51,4066.15,3996.41,3325.64,4105.64,4036.41,0
11_43_52,17,4015.9,4132.31,4040.51,4128.21,4032.31,4045.13,4024.1,4060,4057.95,4066.15,4002.56,3325.13,4105.13,4040,0
11_43_52,18,4020,4125.13,4043.08,4123.59,4031.79,4040.51,4024.62,4056.92,4057.95,4066.15,4004.62,3327.18,4103.08,4039.49,0
11_43_52,19,4023.08,4120.51,4043.08,4124.62,4033.33,4040.51,4027.18,4062.05,4060.51,4066.15,4001.03,3328.21,4108.21,4036.92,0
11_43_52,20,4020.51,4116.41,4042.05,4126.15,4031.79,4045.64,4030.26,4066.15,4061.03,4066.15,4003.08,3327.18,4111.79,4036.41,0
11_43_52,21,4020,4111.28,4040,4123.59,4027.69,4042.56,4028.72,4062.56,4062.05,4066.15,4009.74,3326.15,4115.38,4038.97,0
11_43_52,22,4021.54,4107.18,4038.46,4123.59,4031.79,4040.51,4026.67,4060.51,4061.03,4066.15,4011.79,3324.62,4118.97,4037.44,0
11_43_52,23,4023.08,4104.62,4041.03,4126.15,4035.9,4044.1,4028.72,4061.03,4057.95,4066.15,4009.74,3322.05,4119.49,4036.41,0
11_43_52,24,4023.08,4102.56,4044.1,4124.62,4033.33,4045.13,4027.69,4062.05,4058.97,4066.15,4012.31,3325.13,4116.41,4038.46,0
11_43_52,25,4025.64,4100,4044.1,4126.15,4033.33,4041.54,4025.13,4063.08,4060,4066.15,4013.33,3327.18,4117.44,4042.56,0
11_43_52,26,4027.18,4092.31,4044.1,4133.85,4033.85,4042.05,4029.23,4062.56,4060.51,4066.15,4010.77,3325.13,4116.92,4042.05,0
11_43_52,27,4027.18,4084.1,4043.08,4133.33,4032.31,4043.08,4033.85,4063.59,4064.62,4066.15,4009.74,3325.64,4118.46,4041.03,0
11_43_52,28,4026.15,4081.54,4042.56,4130.77,4031.79,4043.08,4029.23,4063.08,4064.62,4066.15,4008.21,3328.72,4128.21,4040.51,0
11_43_52,29,4026.67,4080,4043.59,4135.38,4030.26,4042.05,4027.69,4058.46,4056.41,4066.15,4010.77,3327.18,4135.38,4043.08,0
11_43_52,30,4026.67,4072.31,4045.13,4135.9,4029.23,4041.54,4030.77,4058.46,4055.9,4066.15,4016.41,3326.67,4125.13,4042.05,0
11_43_52,31,4026.15,4067.69,4045.13,4133.85,4034.36,4043.08,4034.87,4061.03,4062.05,4066.15,4016.92,3328.72,4115.9,4038.46,0
11_43_52,32,4025.13,4066.67,4043.08,4134.87,4039.49,4042.56,4036.41,4059.49,4061.03,4066.15,4014.36,3328.72,4119.49,4040,0
11_43_52,33,4024.1,4064.62,4042.05,4134.87,4037.95,4042.05,4033.85,4057.95,4058.97,4066.15,4018.46,3326.67,4126.15,4044.62,0
11_43_52,34,4023.08,4062.56,4043.59,4132.31,4034.36,4042.56,4032.82,4061.03,4063.08,4066.15,4020,3328.21,4127.69,4043.59,0
11_43_52,35,4023.59,4055.9,4045.13,4132.82,4035.9,4041.54,4035.9,4062.05,4066.67,4066.15,4015.38,3330.77,4126.67,4041.54,0
11_43_52,36,4026.15,4049.23,4043.59,4132.31,4036.92,4041.54,4035.9,4059.49,4065.64,4066.15,4019.49,3331.28,4127.69,4044.62,0
11_43_52,37,4026.15,4048.72,4042.56,4130.77,4033.33,4044.62,4031.28,4060,4063.59,4066.15,4026.15,3330.77,4131.28,4046.67,0
11_43_52,38,4025.64,4051.79,4042.56,4134.87,4031.79,4044.1,4031.79,4058.97,4062.56,4066.15,4022.05,3329.23,4132.82,4045.13,0
11_43_52,39,4027.69,4047.18,4043.59,4135.9,4033.85,4044.62,4037.44,4055.9,4063.59,4066.15,4016.92,3330.26,4129.74,4041.03,0
11_43_52,40,4030.77,4037.44,4045.64,4133.33,4032.31,4045.64,4040.51,4056.92,4063.08,4066.15,4020,3331.28,4130.77,4043.08,0
11_43_52,41,4030.77,4030.26,4046.67,4133.85,4032.82,4043.08,4036.41,4060.51,4063.59,4066.15,4025.64,3331.28,4131.28,4046.67,0
11_43_52,42,4031.79,4030.26,4045.13,4135.9,4040.51,4041.54,4034.36,4062.56,4064.62,4066.15,4028.72,3331.79,4128.72,4047.18,0
11_43_52,43,4029.23,4029.23,4044.1,4136.92,4042.05,4042.05,4036.41,4063.59,4065.64,4066.15,4027.18,3332.82,4124.62,4046.15,0
11_43_53,44,4027.18,4021.03,4043.59,4135.38,4037.44,4040,4038.46,4061.54,4066.67,4066.15,4031.79,3333.33,4125.13,4048.72,0
11_43_53,45,4026.67,4014.87,4044.62,4135.38,4037.44,4042.05,4037.44,4061.54,4066.67,4066.15,4040.51,3334.87,4125.13,4050.77,0
11_43_53,46,4029.23,4016.41,4045.64,4135.9,4038.46,4047.18,4035.38,4065.64,4066.67,4066.15,4038.97,3333.33,4127.18,4051.28,0
11_43_53,47,4028.72,4016.92,4043.08,4135.38,4038.46,4046.15,4036.92,4063.59,4065.64,4066.15,4032.31,3329.23,4128.21,4049.23,0
11_43_53,48,4026.67,4017.44,4042.05,4134.36,4038.46,4044.1,4044.62,4058.46,4067.18,4066.15,4036.92,3329.74,4125.13,4046.15,0
11_43_53,49,4025.64,4014.87,4044.1,4134.36,4036.92,4045.13,4048.21,4061.03,4067.18,4066.15,4041.03,3333.33,4120.51,4045.13,0
11_43_53,50,4030.26,4005.13,4045.13,4136.92,4036.41,4040.51,4042.56,4061.03,4067.69,4066.15,4041.03,3333.85,4123.59,4045.64,0
11_43_53,51,4032.82,4000.51,4042.05,4137.95,4036.41,4038.97,4036.92,4058.46,4067.18,4066.15,4043.59,3333.85,4129.74,4044.62,0
11_43_53,52,4031.79,4003.59,4042.56,4137.44,4034.36,4044.1,4041.54,4060,4065.64,4066.15,4041.03,3337.44,4128.72,4043.59,0
11_43_53,53,4034.36,4000.51,4044.62,4137.44,4035.9,4045.64,4043.59,4059.49,4066.15,4066.15,4036.41,3338.46,4125.13,4045.13,0
11_43_53,54,4034.87,3997.44,4046.15,4136.92,4041.03,4043.08,4041.03,4056.41,4067.18,4066.15,4041.54,3338.46,4122.56,4045.64,0
11_43_53,55,4030.77,4001.03,4044.62,4136.92,4040.51,4043.59,4039.49,4058.97,4066.15,4066.15,4050.26,3339.49,4120.51,4043.08,0
11_43_53,56,4029.74,4000,4042.56,4137.95,4037.95,4045.13,4040.51,4062.05,4065.13,4066.15,4051.79,3340.51,4118.97,4039.49,0
11_43_53,57,4036.41,3994.36,4043.59,4137.95,4040.51,4043.59,4041.54,4059.49,4066.15,4065.64,4049.23,3340,4124.1,4040,0
11_43_53,58,4035.38,3994.87,4045.13,4137.44,4042.05,4044.1,4040.51,4060,4065.64,4066.15,4049.74,3338.97,4128.21,4042.05,0
11_43_53,59,4029.74,3995.9,4043.59,4136.41,4040.51,4045.13,4039.49,4062.05,4065.13,4067.69,4051.28,3337.95,4131.79,4043.59,0
11_43_53,60,4033.33,3988.21,4044.1,4136.92,4037.44,4043.08,4040,4059.49,4066.67,4067.18,4047.18,3338.46,4133.33,4043.59,0
11_43_53,61,4040.51,3980.51,4045.13,4136.92,4038.46,4042.05,4043.59,4056.92,4066.67,4066.15,4046.15,3340.51,4129.74,4047.69,0
11_43_53,62,4036.92,3985.13,4044.1,4135.38,4039.49,4044.1,4041.54,4060,4066.15,4065.64,4051.79,3338.97,4131.28,4049.23,0
11_43_53,63,4032.31,3994.36,4044.1,4134.36,4037.44,4044.62,4037.44,4064.1,4066.67,4066.15,4054.36,3336.41,4139.49,4046.67,0
11_43_53,64,4031.28,3997.44,4044.1,4136.41,4036.92,4042.56,4035.38,4066.15,4067.18,4066.15,4054.36,3337.44,4134.87,4043.59,0
11_43_53,65,4028.72,4008.21,4043.59,4135.9,4039.49,4042.05,4032.31,4064.1,4067.18,4066.15,4058.46,3338.97,4124.1,4042.05,0
11_43_53,66,4025.13,4034.36,4043.59,4134.36,4035.9,4043.59,4029.23,4058.97,4066.15,4065.13,4060.51,3338.46,4114.87,4037.95,0
11_43_53,67,4022.56,4056.92,4044.1,4135.9,4028.21,4044.1,4026.67,4058.97,4066.67,4064.62,4060.51,3335.9,4109.23,4036.41,0
11_43_53,68,4017.44,4069.74,4043.59,4135.9,4028.21,4043.08,4024.62,4062.05,4067.18,4065.64,4060,3334.87,4103.59,4036.92,0
11_43_53,69,4015.9,4088.21,4042.05,4135.38,4027.18,4042.05,4024.62,4061.54,4064.62,4066.67,4058.46,3336.41,4100,4033.85,0
11_43_53,70,4016.41,4103.08,4041.54,4134.87,4023.08,4042.05,4024.1,4061.03,4062.56,4066.67,4056.92,3336.41,4093.85,4028.72,0
11_43_53,71,4013.85,4103.08,4044.1,4136.41,4032.31,4043.59,4023.08,4062.05,4062.05,4065.64,4055.9,3335.9,4084.1,4026.15,0
11_43_53,72,4010.26,4108.72,4044.62,4136.92,4040,4045.64,4024.1,4063.08,4061.54,4065.13,4053.33,3338.97,4080,4028.21,0
11_43_53,73,4007.18,4118.46,4043.08,4128.72,4033.85,4043.08,4027.18,4063.59,4061.03,4065.64,4051.28,3337.44,4082.56,4029.23,0
11_43_53,74,4005.64,4117.44,4042.05,4123.59,4029.74,4038.97,4027.18,4064.1,4062.56,4065.64,4054.36,3331.79,4085.13,4025.13,0
