TIME, ED_COUNTER, AF3, F7, F3, FC5, T7, P7, O1, O2, P8, T8, FC6, F4, F8, AF4, LABEL
12_28_41,54,4120.51,4129.74,4107.18,4115.9,4094.87,4086.15,4099.49,4118.46,4087.18,4049.74,4077.95,4110.77,4029.23,4080,0
12_28_41,55,4122.05,4129.74,4104.62,4109.23,4118.97,4098.97,4106.15,4122.56,4096.92,4105.13,4072.31,4108.72,4031.28,4080.51,0
12_28_41,56,4116.41,4142.05,4104.1,4099.49,4141.54,4113.33,4100,4110.77,4096.41,4121.54,4059.49,4102.56,4045.13,4078.97,0
12_28_41,57,4116.92,4139.49,4104.62,4108.21,4126.15,4106.67,4100,4111.79,4085.64,4069.23,4068.21,4113.85,4049.23,4077.95,0
12_28_41,58,4123.59,4129.74,4106.15,4119.49,4098.97,4102.56,4106.15,4125.13,4098.46,4076.92,4081.03,4126.67,4038.97,4081.54,0
12_28_41,59,4110.77,4122.05,4106.67,4111.79,4072.31,4103.59,4097.44,4118.46,4106.67,4091.28,4081.54,4121.54,4033.33,4081.54,0
12_28_41,60,4104.1,4120,4106.15,4103.08,4090.26,4101.03,4090.77,4109.23,4092.31,4075.9,4081.54,4117.44,4034.36,4075.9,0
12_28_41,61,4123.08,4130.77,4109.74,4109.74,4148.72,4106.15,4106.15,4122.56,4094.87,4096.41,4083.59,4126.67,4039.49,4082.56,0
12_28_41,62,4121.03,4120,4109.23,4111.79,4135.38,4114.36,4111.28,4127.69,4102.05,4097.44,4078.97,4121.03,4033.85,4085.64,0
12_28_41,63,4105.64,4108.72,4105.64,4108.21,4083.59,4110.26,4101.03,4119.49,4097.44,4071.28,4078.46,4114.87,4029.74,4082.05,0
12_28_41,64,4109.23,4123.08,4107.69,4106.15,4091.28,4105.13,4097.95,4119.49,4096.41,4079.49,4078.97,4120.51,4038.97,4080.51,0
12_28_41,65,4105.64,4122.05,4102.05,4104.62,4105.64,4104.62,4095.38,4116.41,4102.05,4103.59,4071.28,4109.74,4037.44,4072.82,0
12_28_42,66,4094.36,4104.62,4090.26,4102.56,4101.03,4106.15,4089.74,4097.95,4088.72,4096.41,4069.74,4096.92,4026.67,4066.15,0
12_28_42,67,4104.1,4113.33,4089.74,4098.97,4117.95,4103.59,4090.26,4089.23,4075.9,4087.69,4071.79,4105.13,4035.9,4074.36,0
12_28_42,68,4110.77,4132.31,4096.41,4100,4127.18,4100,4092.31,4100,4081.03,4086.15,4068.21,4109.74,4048.72,4078.97,0
12_28_42,69,4099.49,4121.03,4094.36,4108.72,4095.38,4102.56,4091.79,4101.54,4078.46,4061.54,4071.79,4102.05,4030.77,4069.23,0
12_28_42,70,4103.08,4108.72,4095.38,4110.77,4076.41,4106.67,4096.41,4099.49,4079.49,4063.08,4086.15,4106.15,4020,4070.77,0
12_28_42,71,4111.79,4115.9,4100,4101.54,4108.21,4107.18,4096.92,4105.64,4090.77,4107.18,4078.97,4110.26,4040,4080,0
12_28_42,72,4106.67,4124.62,4094.36,4093.85,4132.82,4108.72,4085.64,4096.92,4080.51,4102.56,4062.05,4100.51,4050.26,4080,0
12_28_42,73,4110.26,4125.13,4094.36,4098.97,4120,4107.69,4080.51,4087.18,4071.28,4059.49,4075.9,4101.03,4041.54,4080.51,0
12_28_42,74,4117.95,4117.95,4103.08,4111.79,4100,4098.46,4090.26,4105.64,4095.38,4082.56,4096.92,4114.87,4044.62,4084.62,0
12_28_42,75,4114.36,4115.38,4101.03,4111.79,4092.31,4100,4096.92,4117.95,4101.54,4111.79,4091.28,4116.41,4056.92,4084.62,0
12_28_42,76,4098.46,4107.18,4089.23,4094.36,4096.41,4107.18,4085.64,4096.41,4068.21,4071.79,4066.67,4097.95,4044.1,4070.77,0
12_28_42,77,4088.72,4101.03,4087.69,4084.1,4109.23,4098.46,4076.41,4083.08,4057.44,4055.9,4060.51,4089.23,4026.67,4063.08,0
12_28_42,78,4107.18,4123.08,4098.97,4098.97,4120,4093.85,4086.67,4097.95,4078.97,4094.36,4080.51,4105.13,4044.1,4078.46,0
12_28_42,79,4137.95,4153.33,4110.26,4118.46,4106.67,4103.59,4098.97,4114.36,4091.79,4100,4095.38,4120.51,4071.28,4097.95,0
12_28_42,80,4133.85,4141.03,4110.77,4118.46,4081.54,4109.23,4093.85,4105.64,4078.46,4065.13,4086.67,4112.82,4054.36,4091.28,0
12_28_42,81,4114.36,4113.85,4103.59,4111.28,4092.82,4103.59,4086.67,4095.38,4067.69,4060,4075.9,4103.59,4032.31,4081.03,0
12_28_42,82,4126.15,4128.21,4107.18,4110.26,4123.59,4098.97,4092.82,4108.72,4080.51,4078.46,4081.54,4114.36,4049.23,4092.31,0
12_28_42,83,4128.72,4143.08,4111.79,4105.64,4112.82,4102.56,4093.33,4110.26,4083.08,4077.44,4079.49,4115.38,4059.49,4090.26,0
12_28_42,84,4111.28,4127.69,4105.13,4106.67,4093.33,4110.26,4089.23,4089.74,4069.23,4066.67,4071.28,4098.97,4041.54,4073.33,0
12_28_42,85,4108.21,4115.9,4097.95,4110.26,4109.23,4111.28,4088.72,4087.69,4070.26,4072.82,4076.92,4096.41,4034.87,4075.38,0
12_28_42,86,4112.82,4121.03,4101.54,4100.51,4103.08,4101.54,4092.31,4101.03,4076.92,4084.62,4081.54,4107.69,4048.21,4084.62,0
12_28_42,87,4111.28,4126.15,4105.64,4094.87,4087.18,4100,4094.87,4101.03,4076.92,4081.54,4075.9,4108.21,4058.97,4084.62,0
12_28_42,88,4107.69,4121.54,4094.87,4101.54,4116.41,4104.62,4088.21,4091.79,4071.28,4067.69,4070.77,4097.44,4055.9,4079.49,0
12_28_42,89,4108.72,4119.49,4087.18,4106.15,4117.44,4098.46,4081.54,4087.18,4056.41,4062.56,4072.31,4089.23,4044.1,4079.49,0
12_28_42,90,4105.64,4110.77,4092.31,4102.56,4081.54,4095.9,4088.72,4096.92,4061.03,4075.38,4078.46,4091.79,4043.59,4078.97,0
12_28_42,91,4095.38,4095.38,4092.31,4091.28,4083.08,4104.1,4094.36,4107.69,4083.59,4081.03,4077.44,4093.85,4048.21,4069.23,0
12_28_42,92,4098.46,4112.82,4091.28,4091.79,4113.33,4108.72,4091.28,4108.21,4089.74,4088.21,4074.87,4092.31,4057.44,4070.77,0
12_28_42,93,4112.31,4152.31,4097.95,4112.31,4115.38,4107.18,4092.82,4106.15,4085.13,4096.41,4082.05,4092.31,4067.69,4079.49,0
12_28_42,94,4106.15,4157.44,4095.9,4125.13,4092.82,4109.23,4094.87,4103.08,4083.08,4080,4077.44,4082.05,4051.79,4062.56,0
12_28_42,95,4090.77,4152.82,4087.69,4123.59,4096.92,4111.79,4091.79,4098.46,4085.64,4070.77,4061.03,4070.77,4034.36,4043.08,0
12_28_42,96,4088.72,4169.23,4084.1,4126.67,4127.69,4121.03,4093.33,4091.28,4088.72,4070.77,4055.9,4065.13,4031.79,4038.46,0
12_28_42,97,4080,4172.82,4078.97,4125.64,4130.77,4128.21,4091.79,4082.05,4081.03,4060,4049.74,4052.31,4020.51,4021.03,0
12_28_42,98,4073.85,4172.31,4080.51,4122.56,4104.62,4115.38,4087.69,4084.62,4075.38,4074.87,4041.54,4049.74,4021.03,4010.77,0
12_28_42,99,4075.9,4174.87,4082.05,4126.67,4105.13,4110.77,4087.18,4087.18,4075.9,4077.44,4041.54,4055.9,4031.28,4015.38,0
12_28_42,100,4070.77,4157.44,4074.36,4122.05,4109.23,4115.9,4085.13,4078.97,4078.97,4048.72,4038.46,4045.13,4021.54,4003.59,0
12_28_42,101,4073.33,4152.82,4077.44,4117.44,4093.33,4111.28,4087.69,4081.03,4085.64,4063.59,4030.77,4042.56,4023.08,4002.56,0
12_28_42,102,4088.21,4172.82,4092.31,4125.64,4112.31,4115.9,4100.51,4093.85,4087.69,4084.62,4037.44,4060,4047.18,4025.64,0
12_28_42,103,4091.79,4177.44,4095.38,4130.26,4147.69,4130.26,4105.64,4094.36,4085.13,4057.44,4047.18,4063.59,4047.18,4035.9,0
12_28_42,104,4088.21,4163.59,4089.74,4120,4144.62,4129.23,4102.56,4088.72,4088.72,4062.05,4042.56,4056.92,4035.38,4028.21,0
12_28_42,105,4090.77,4158.46,4090.26,4118.97,4110.77,4120,4104.62,4091.28,4083.08,4085.13,4037.95,4061.54,4045.64,4025.64,0
12_28_42,106,4091.79,4155.9,4092.82,4131.79,4088.72,4123.59,4109.23,4100.51,4072.82,4056.92,4047.18,4069.74,4056.92,4034.87,0
12_28_42,107,4092.31,4147.69,4090.77,4128.72,4104.62,4125.13,4108.72,4107.69,4090.26,4049.23,4060.51,4074.87,4058.46,4043.59,0
12_28_42,108,4092.31,4145.64,4089.74,4110.26,4125.64,4123.59,4107.69,4104.62,4101.54,4081.54,4062.56,4072.31,4056.41,4042.56,0
12_28_42,109,4091.28,4149.23,4090.26,4106.67,4118.97,4124.62,4106.67,4102.56,4091.28,4087.69,4059.49,4071.79,4055.38,4045.13,0
12_28_42,110,4093.85,4147.18,4092.82,4113.33,4104.1,4123.59,4106.15,4109.23,4095.9,4070.26,4062.56,4083.08,4062.56,4055.38,0
12_28_42,111,4094.87,4130.26,4092.31,4111.79,4104.62,4121.54,4106.67,4110.26,4097.95,4069.23,4065.64,4088.21,4069.23,4054.36,0
12_28_42,112,4087.69,4120.51,4087.18,4108.21,4115.38,4123.08,4103.08,4105.13,4080,4083.08,4062.05,4082.56,4065.64,4047.18,0
12_28_42,113,4073.33,4120.51,4080,4102.56,4116.92,4127.18,4095.38,4098.46,4071.28,4072.31,4056.41,4072.31,4049.74,4040,0
12_28_42,114,4077.95,4123.08,4084.1,4102.05,4114.87,4124.1,4097.95,4108.72,4095.38,4066.15,4068.21,4082.05,4054.36,4044.62,0
12_28_42,115,4098.46,4126.15,4095.9,4113.33,4112.31,4119.49,4109.74,4128.72,4112.82,4102.56,4081.03,4106.67,4075.9,4066.15,0
12_28_42,116,4089.23,4112.82,4088.21,4110.77,4097.95,4120.51,4104.1,4118.97,4086.15,4103.59,4064.1,4096.92,4065.13,4061.54,0
12_28_42,117,4074.36,4105.64,4078.46,4094.36,4094.87,4121.54,4094.87,4101.03,4064.62,4058.46,4056.92,4077.44,4051.79,4042.56,0
12_28_42,118,4089.74,4122.56,4087.18,4095.38,4117.95,4121.03,4102.56,4111.79,4077.44,4075.38,4077.95,4088.72,4072.82,4056.92,0
12_28_42,119,4100.51,4132.31,4095.38,4107.69,4126.67,4121.03,4111.79,4122.56,4084.62,4117.44,4084.62,4098.97,4085.13,4074.36,0
12_28_42,120,4091.79,4118.97,4091.28,4109.74,4103.08,4117.95,4105.64,4113.85,4078.46,4097.44,4076.41,4089.74,4072.82,4062.56,0
12_28_42,121,4086.15,4105.64,4086.67,4106.15,4085.64,4108.21,4095.9,4106.15,4078.97,4073.85,4078.46,4086.67,4070.26,4052.82,0
12_28_42,122,4089.23,4106.67,4088.72,4106.67,4085.13,4106.67,4100,4113.85,4080.51,4077.44,4088.21,4094.36,4075.9,4066.15,0
12_28_42,123,4093.33,4112.31,4092.82,4109.23,4103.08,4120.51,4106.15,4122.56,4077.95,4077.44,4088.72,4098.97,4078.97,4073.33,0
12_28_42,124,4090.26,4112.82,4091.79,4106.15,4110.26,4127.69,4102.05,4118.97,4076.92,4084.62,4081.03,4096.41,4085.64,4064.62,0
12_28_42,125,4082.05,4108.72,4089.74,4102.56,4088.72,4117.95,4093.33,4108.21,4081.54,4104.1,4076.92,4092.31,4088.72,4063.59,0
12_28_42,126,4089.74,4109.23,4091.79,4106.67,4090.77,4113.85,4092.31,4106.15,4086.67,4094.87,4083.08,4098.46,4083.59,4073.85,0
12_28_42,127,4098.46,4116.41,4093.85,4111.28,4112.82,4123.08,4097.44,4110.26,4077.44,4076.92,4090.26,4099.49,4080,4071.79,0
12_28_42,128,4090.26,4117.95,4091.28,4106.15,4115.9,4126.67,4095.9,4106.67,4066.15,4091.79,4088.21,4090.26,4087.18,4063.08,0
12_28_42,0,4088.21,4112.82,4089.23,4104.62,4102.56,4118.97,4094.36,4108.21,4072.31,4100.51,4078.46,4091.28,4083.08,4065.64,0
12_28_42,1,4087.18,4103.59,4090.26,4106.15,4100,4120,4102.05,4117.44,4078.46,4093.33,4071.79,4095.9,4064.1,4061.54,0
12_28_42,2,4078.97,4093.85,4093.85,4097.44,4108.72,4129.23,4109.23,4120.51,4077.95,4092.31,4081.54,4091.79,4069.74,4058.97,0
12_28_42,3,4084.62,4089.23,4088.21,4092.82,4073.33,4120.51,4095.9,4109.23,4074.36,4076.92,4094.87,4090.77,4098.46,4076.92,0
12_28_42,4,4111.28,4091.28,4084.1,4103.08,4042.56,4107.69,4084.1,4098.97,4070.26,4072.31,4107.18,4103.59,4121.03,4106.67,0
12_28_42,5,4144.62,4109.74,4103.59,4114.87,4103.08,4118.97,4098.97,4115.9,4087.69,4123.59,4136.41,4130.77,4156.41,4147.69,0
12_28_42,6,4156.92,4109.23,4115.38,4109.23,4123.08,4128.72,4105.13,4128.21,4097.95,4126.67,4159.49,4142.56,4181.54,4179.49,0
12_28_42,7,4154.36,4079.49,4103.59,4100.51,4049.23,4116.92,4087.69,4112.82,4077.44,4069.74,4156.41,4133.33,4162.56,4186.15,0
12_28_42,8,4187.69,4090.26,4111.79,4114.36,4086.15,4117.95,4091.79,4115.38,4084.62,4097.95,4159.49,4150.77,4171.28,4208.21,0
12_28_42,9,4226.67,4132.31,4134.87,4132.31,4154.36,4126.15,4110.26,4136.41,4113.33,4154.36,4178.46,4180,4204.1,4238.97,0
12_28_42,10,4212.82,4126.67,4130.77,4132.31,4087.18,4114.36,4102.56,4130.26,4103.08,4126.67,4172.82,4168.21,4186.67,4231.28,0
12_28_42,11,4204.1,4106.15,4120.51,4121.54,4064.62,4113.85,4093.33,4116.92,4084.62,4085.13,4155.38,4152.31,4166.67,4223.59,0
12_28_42,12,4231.79,4128.72,4129.23,4117.95,4134.87,4126.15,4102.05,4124.62,4097.44,4111.28,4160,4166.67,4189.23,4244.1,0
12_28_42,13,4228.21,4130.77,4129.23,4118.46,4119.49,4117.95,4097.44,4114.87,4091.28,4137.95,4151.79,4163.59,4195.9,4244.1,0
12_28_42,14,4206.67,4104.62,4120.51,4112.31,4074.36,4105.13,4087.18,4098.97,4068.72,4109.23,4134.87,4148.21,4182.05,4230.77,0
12_28_42,15,4216.92,4107.18,4126.15,4104.1,4096.41,4107.18,4091.28,4111.79,4078.46,4102.05,4147.18,4161.54,4189.74,4235.38,0
12_28_42,16,4220,4109.74,4131.79,4103.59,4099.49,4105.13,4091.28,4121.54,4093.33,4122.56,4166.15,4171.79,4188.72,4232.31,0
12_28_42,17,4197.95,4095.38,4127.69,4112.82,4076.41,4099.49,4091.79,4116.92,4087.18,4113.33,4154.36,4156.92,4168.72,4213.33,0
12_28_42,18,4182.05,4092.82,4122.05,4111.79,4088.21,4107.69,4099.49,4114.87,4079.49,4090.77,4132.31,4143.08,4162.56,4197.95,0
12_28_42,19,4173.85,4092.31,4117.95,4099.49,4097.95,4111.79,4098.97,4116.41,4090.77,4106.15,4136.92,4146.67,4168.21,4189.23,0
12_28_42,20,4163.08,4075.9,4115.38,4093.33,4076.41,4103.59,4094.87,4118.97,4102.05,4127.18,4151.28,4152.82,4162.56,4181.54,0
12_28_42,21,4147.69,4062.05,4112.82,4096.41,4072.82,4110.26,4096.41,4114.87,4093.85,4103.08,4145.64,4143.59,4145.64,4170.26,0
12_28_42,22,4133.85,4061.54,4108.72,4097.95,4097.95,4124.62,4095.9,4109.23,4084.1,4088.72,4133.85,4132.82,4147.69,4164.1,0
12_28_42,23,4127.18,4066.15,4106.67,4092.31,4092.31,4116.41,4095.9,4113.85,4092.82,4112.82,4140,4138.97,4161.03,4171.28,0
12_28_42,24,4119.49,4063.59,4102.05,4087.18,4070.26,4105.13,4097.95,4117.44,4094.36,4123.08,4135.38,4135.38,4148.21,4160,0
12_28_42,25,4109.74,4053.85,4094.36,4090.26,4081.54,4118.46,4101.03,4115.38,4082.56,4100,4117.95,4118.97,4131.28,4138.97,0
12_28_42,26,4110.77,4055.38,4097.44,4092.31,4095.9,4124.1,4107.18,4122.56,4088.21,4092.82,4131.79,4126.15,4139.49,4149.23,0
12_28_42,27,4108.21,4056.92,4097.95,4087.18,4086.15,4110.77,4104.1,4121.54,4094.36,4111.28,4134.36,4129.23,4138.97,4156.92,0
12_28_42,28,4090.26,4043.59,4086.67,4082.56,4080.51,4111.79,4096.41,4106.15,4082.56,4107.18,4105.13,4108.21,4124.1,4133.85,0
12_28_42,29,4083.59,4044.62,4085.13,4082.56,4093.33,4122.05,4100.51,4110.26,4078.46,4092.82,4106.15,4102.05,4120.51,4121.03,0
12_28_42,30,4093.33,4058.46,4090.26,4085.64,4105.64,4121.03,4103.59,4122.56,4087.69,4091.79,4128.72,4112.31,4119.49,4128.21,0
12_28_42,31,4092.82,4057.95,4089.23,4085.64,4110.26,4120.51,4102.56,4117.95,4092.82,4112.82,4118.97,4109.74,4122.05,4124.1,0
12_28_42,32,4081.03,4050.77,4087.69,4082.05,4101.54,4124.1,4105.64,4114.36,4095.38,4133.85,4106.15,4107.18,4130.26,4117.44,0
12_28_42,33,4081.54,4058.97,4090.26,4085.64,4105.13,4124.62,4107.69,4124.62,4103.59,4127.69,4126.67,4115.9,4131.28,4122.05,0
12_28_42,34,4089.23,4068.21,4088.21,4090.77,4124.1,4129.74,4105.13,4127.69,4109.23,4122.56,4134.87,4113.85,4131.28,4121.03,0
12_28_42,35,4086.15,4065.13,4083.59,4088.72,4110.77,4127.18,4105.64,4125.13,4106.15,4121.03,4124.1,4108.21,4137.44,4117.95,0
12_28_42,36,4077.44,4059.49,4080.51,4085.13,4080.51,4115.9,4102.05,4126.15,4102.05,4112.31,4124.62,4115.38,4131.28,4117.44,0
12_28_42,37,4075.38,4054.87,4077.44,4083.59,4083.08,4118.97,4093.85,4124.62,4107.18,4112.82,4129.74,4117.95,4120,4111.79,0
12_28_42,38,4075.38,4052.82,4078.97,4083.08,4097.44,4127.69,4094.87,4124.1,4111.79,4124.62,4129.74,4114.87,4125.13,4113.85,0
12_28_42,39,4075.38,4056.41,4085.13,4090.77,4086.15,4121.54,4100,4126.67,4106.15,4135.38,4128.72,4118.46,4133.33,4124.1,0
12_28_42,40,4083.08,4066.15,4090.26,4093.85,4093.85,4117.95,4097.44,4125.13,4105.13,4140.51,4132.31,4124.1,4131.79,4126.15,0
12_28_42,41,4089.74,4074.36,4091.28,4087.18,4111.28,4122.56,4092.82,4121.54,4108.72,4129.74,4140,4128.72,4131.79,4124.1,0
12_28_42,42,4089.74,4077.44,4094.87,4095.9,4090.77,4122.05,4095.9,4123.08,4109.23,4118.46,4141.03,4136.92,4140.51,4126.15,0
12_28_42,43,4091.79,4074.36,4098.46,4107.69,4074.36,4121.03,4099.49,4125.64,4110.26,4128.21,4136.41,4136.41,4138.97,4123.59,0
12_28_42,44,4092.31,4066.15,4092.31,4096.41,4090.26,4121.54,4101.03,4124.1,4108.72,4134.36,4135.9,4126.15,4123.59,4117.95,0
12_28_42,45,4091.28,4075.38,4092.31,4085.64,4113.85,4124.1,4106.67,4129.23,4110.26,4134.87,4137.95,4128.21,4123.59,4121.03,0
12_28_42,46,4098.46,4095.38,4103.59,4098.46,4121.54,4129.23,4110.26,4138.46,4120,4141.54,4137.95,4138.97,4140,4125.64,0
12_28_42,47,4102.56,4090.77,4104.1,4102.56,4105.64,4129.23,4107.69,4136.41,4128.21,4140,4143.08,4141.03,4138.97,4124.1,0
12_28_42,48,4093.85,4069.23,4090.26,4092.31,4073.33,4123.59,4103.08,4125.13,4120,4125.13,4147.69,4132.82,4121.03,4121.03,0
12_28_42,49,4087.18,4054.36,4081.54,4093.85,4066.67,4118.46,4095.9,4121.03,4106.67,4121.03,4134.36,4123.59,4112.82,4115.38,0
12_28_42,50,4087.18,4055.38,4083.59,4092.31,4096.92,4119.49,4091.28,4121.54,4104.62,4128.21,4118.97,4125.64,4122.56,4113.33,0
12_28_42,51,4096.41,4078.46,4089.74,4081.54,4114.87,4124.62,4095.38,4120.51,4106.15,4128.72,4126.15,4135.9,4135.9,4116.41,0
12_28_42,52,4106.15,4099.49,4093.85,4083.59,4111.79,4125.13,4100,4124.62,4109.23,4136.92,4142.05,4144.1,4142.56,4122.05,0
12_28_42,53,4099.49,4083.08,4089.23,4093.85,4097.44,4113.85,4096.92,4125.13,4110.77,4136.92,4140,4138.46,4127.18,4120,0
12_28_42,54,4083.08,4057.44,4081.54,4092.82,4083.08,4108.72,4091.28,4117.44,4102.56,4112.31,4121.03,4124.1,4101.03,4110.26,0
12_28_42,55,4085.13,4065.13,4083.08,4083.59,4087.18,4115.9,4093.33,4120.51,4103.08,4110.77,4109.74,4121.03,4101.03,4107.18,0
12_28_42,56,4087.69,4076.92,4084.62,4074.87,4101.54,4126.15,4099.49,4128.21,4112.31,4129.74,4105.13,4122.05,4113.85,4107.69,0
12_28_42,57,4073.85,4061.03,4077.95,4071.79,4089.23,4126.67,4095.38,4116.41,4096.92,4101.03,4096.92,4111.79,4095.38,4095.38,0
12_28_42,58,4073.85,4053.33,4076.41,4082.56,4074.87,4116.92,4087.18,4108.21,4081.54,4077.95,4100.51,4109.23,4082.05,4091.28,0
12_28_42,59,4102.56,4077.95,4095.9,4097.95,4102.56,4113.33,4097.95,4123.08,4108.72,4128.21,4123.08,4131.28,4113.85,4122.56,0
12_28_42,60,4124.62,4101.03,4112.82,4104.62,4112.82,4114.36,4106.15,4128.21,4124.62,4156.92,4136.92,4144.62,4133.85,4144.62,0
12_28_43,61,4115.38,4096.92,4103.59,4097.95,4085.13,4114.36,4095.9,4112.31,4097.95,4114.87,4128.21,4130.77,4111.79,4128.72,0
12_28_43,62,4096.41,4083.59,4089.23,4090.26,4084.62,4117.44,4092.82,4104.1,4086.67,4090.77,4112.82,4116.92,4097.44,4112.31,0
12_28_43,63,4096.92,4081.03,4094.36,4096.41,4107.69,4123.59,4104.1,4117.44,4115.9,4117.95,4113.85,4122.56,4110.77,4120.51,0
12_28_43,64,4105.13,4078.97,4101.03,4104.1,4084.1,4120,4108.72,4125.64,4128.21,4132.31,4131.79,4130.77,4115.38,4127.69,0
12_28_43,65,4094.87,4061.54,4085.13,4099.49,4057.95,4117.95,4097.95,4111.28,4101.54,4107.69,4133.33,4118.46,4095.38,4110.77,0
12_28_43,66,4083.59,4054.87,4073.85,4090.77,4096.41,4126.15,4090.77,4099.49,4087.18,4098.97,4112.82,4108.21,4088.72,4095.9,0
12_28_43,67,4095.38,4076.92,4082.56,4084.1,4121.54,4124.1,4092.82,4107.18,4107.18,4124.62,4107.69,4117.95,4106.67,4106.15,0
12_28_43,68,4102.56,4081.54,4085.13,4090.26,4082.05,4116.92,4093.85,4109.74,4112.82,4122.56,4121.03,4123.08,4114.87,4114.36,0
12_28_43,69,4101.54,4072.31,4086.15,4106.15,4071.79,4118.46,4093.85,4108.21,4097.44,4107.18,4129.74,4123.59,4112.82,4110.77,0
12_28_43,70,4101.54,4084.1,4091.28,4100,4118.46,4125.13,4094.87,4111.28,4091.79,4116.41,4123.08,4123.59,4111.79,4109.23,0
12_28_43,71,4095.38,4092.31,4086.15,4085.13,4114.87,4123.59,4096.41,4108.72,4087.69,4115.38,4106.67,4111.28,4098.46,4102.56,0
12_28_43,72,4092.82,4083.59,4079.49,4095.38,4073.85,4114.87,4100.51,4111.28,4093.85,4106.15,4108.72,4104.1,4091.79,4097.95,0
12_28_43,73,4100,4083.08,4086.67,4104.1,4085.64,4115.38,4105.64,4124.1,4116.92,4123.08,4125.13,4121.54,4106.15,4107.18,0
12_28_43,74,4101.03,4091.28,4094.36,4095.38,4113.33,4123.59,4107.18,4122.05,4114.87,4129.74,4116.41,4127.69,4112.82,4110.77,0
12_28_43,75,4091.79,4086.67,4091.28,4097.95,4107.69,4127.18,4105.13,4107.69,4092.82,4100,4103.08,4112.82,4107.18,4101.03,0
12_28_43,76,4086.67,4067.18,4083.08,4102.05,4097.44,4124.62,4100.51,4101.03,4089.74,4089.23,4113.85,4106.67,4095.9,4097.44,0
12_28_43,77,4080.51,4061.03,4076.92,4085.13,4095.9,4121.54,4094.87,4102.05,4091.79,4107.18,4110.77,4106.15,4085.64,4093.85,0
12_28_43,78,4080.51,4074.36,4078.46,4078.46,4082.56,4115.9,4095.9,4107.18,4093.85,4119.49,4097.44,4105.13,4101.03,4088.21,0
12_28_43,79,4082.05,4073.33,4084.1,4086.67,4077.95,4114.36,4096.41,4106.67,4098.97,4113.85,4104.1,4107.18,4118.97,4092.31,0
12_28_43,80,4082.56,4062.05,4083.08,4087.69,4093.33,4116.41,4093.85,4097.44,4091.79,4103.08,4108.21,4108.21,4114.36,4095.9,0
12_28_43,81,4088.72,4070.77,4081.03,4087.69,4098.97,4110.77,4091.79,4097.95,4082.56,4097.44,4101.03,4106.67,4116.41,4096.41,0
12_28_43,82,4089.74,4078.46,4082.56,4088.21,4089.74,4112.31,4090.26,4103.08,4089.74,4090.26,4102.56,4103.59,4125.64,4101.03,0
12_28_43,83,4094.87,4081.54,4089.74,4096.41,4092.31,4124.1,4097.95,4106.15,4106.67,4104.1,4115.9,4112.31,4130.77,4110.77,0
12_28_43,84,4105.64,4091.28,4093.85,4106.67,4098.97,4126.15,4105.64,4116.41,4121.54,4131.28,4125.64,4124.1,4148.21,4115.38,0
12_28_43,85,4104.1,4091.79,4087.69,4102.56,4085.64,4117.95,4097.44,4118.97,4123.59,4132.82,4122.56,4118.97,4158.46,4117.44,0
12_28_43,86,4097.44,4088.21,4084.1,4094.36,4086.67,4117.44,4090.77,4109.74,4114.87,4112.31,4117.44,4108.21,4142.56,4120.51,0
12_28_43,87,4092.31,4085.13,4083.59,4094.36,4093.85,4125.13,4094.36,4103.08,4105.13,4100.51,4118.97,4103.59,4125.64,4114.36,0
12_28_43,88,4084.62,4068.21,4074.87,4094.87,4067.69,4123.59,4092.31,4099.49,4092.31,4097.95,4113.33,4098.97,4122.05,4109.23,0
12_28_43,89,4080.51,4057.95,4068.72,4088.72,4064.1,4115.38,4086.15,4097.95,4091.79,4090.26,4097.95,4095.9,4117.95,4114.36,0
12_28_43,90,4094.87,4080.51,4080.51,4092.82,4092.82,4106.15,4089.74,4111.79,4120.51,4105.13,4107.69,4112.82,4122.05,4135.38,0
12_28_43,91,4110.26,4095.38,4092.31,4103.08,4100,4107.18,4095.9,4115.9,4129.23,4133.33,4128.72,4130.26,4133.85,4152.31,0
12_28_43,92,4103.59,4082.05,4087.18,4101.03,4110.77,4123.59,4091.79,4092.31,4096.41,4127.69,4111.79,4118.97,4130.77,4143.59,0
12_28_43,93,4093.33,4084.62,4085.13,4095.9,4132.31,4130.77,4090.26,4089.23,4088.21,4109.23,4093.85,4109.23,4126.15,4135.38,0
12_28_43,94,4109.74,4108.21,4094.87,4105.13,4113.33,4118.97,4102.05,4117.44,4115.9,4116.41,4114.36,4126.67,4135.9,4151.79,0
12_28_43,95,4130.26,4115.9,4097.95,4115.38,4081.54,4108.21,4106.67,4125.64,4119.49,4116.92,4128.21,4135.38,4141.54,4162.56,0
12_28_43,96,4132.31,4110.26,4091.28,4110.26,4092.31,4113.33,4094.87,4105.64,4101.03,4101.03,4118.97,4121.54,4129.74,4153.33,0
12_28_43,97,4151.28,4123.59,4101.54,4114.36,4084.1,4112.82,4088.21,4102.56,4098.46,4100,4117.44,4123.59,4130.26,4172.82,0
12_28_43,98,4185.64,4146.15,4112.82,4129.23,4050.77,4105.13,4089.23,4107.69,4097.95,4078.46,4121.54,4132.31,4143.59,4214.36,0
12_28_43,99,4192.31,4145.13,4098.46,4123.08,4061.03,4109.74,4082.56,4092.31,4083.59,4061.54,4128.21,4121.54,4131.28,4231.79,0
12_28_43,100,4197.44,4133.33,4093.85,4121.03,4083.59,4106.67,4074.87,4082.05,4082.05,4089.74,4135.9,4121.03,4125.64,4255.9,0
12_28_43,101,4236.41,4152.31,4116.92,4137.95,4114.36,4099.49,4076.41,4095.38,4099.49,4114.87,4127.69,4138.46,4165.64,4304.62,0
12_28_43,102,4269.23,4190.77,4130.77,4142.56,4143.08,4104.62,4081.03,4109.74,4109.74,4118.46,4131.28,4152.31,4205.64,4329.74,0
12_28_43,103,4260.51,4192.31,4123.08,4134.87,4111.28,4104.1,4081.03,4108.21,4101.03,4111.28,4158.97,4156.41,4182.56,4316.92,0
12_28_43,104,4245.13,4168.72,4121.03,4139.49,4078.97,4100,4077.44,4095.38,4089.74,4092.82,4158.97,4149.23,4144.1,4308.72,0
12_28_43,105,4258.46,4176.92,4130.77,4143.59,4122.56,4114.87,4082.56,4097.95,4093.33,4099.49,4137.95,4147.69,4164.62,4321.54,0
12_28_43,106,4273.33,4202.56,4137.44,4137.44,4155.9,4128.72,4091.28,4104.1,4094.87,4131.28,4137.95,4155.38,4191.79,4329.74,0
12_28_43,107,4269.23,4207.18,4137.95,4145.64,4120.51,4109.74,4092.31,4098.46,4093.33,4125.64,4150.77,4161.03,4174.87,4321.54,0
12_28_43,108,4252.82,4187.18,4133.33,4152.82,4069.74,4084.1,4085.64,4092.31,4093.85,4078.97,4155.9,4156.92,4144.62,4309.23,0
12_28_43,109,4229.23,4156.41,4124.1,4142.05,4051.28,4092.82,4076.92,4085.13,4075.9,4048.21,4149.23,4142.56,4121.54,4294.87,0
12_28_43,110,4223.08,4148.21,4121.03,4138.46,4110.26,4123.08,4079.49,4083.59,4065.64,4065.64,4138.46,4136.41,4112.31,4280,0
12_28_43,119,4098.46,4094.36,4092.82,4095.38,4089.23,4109.23,4097.95,4098.46,4099.49,4112.82,4129.23,4118.97,4089.23,4183.08,0
12_28_43,120,4073.85,4084.1,4080.51,4086.15,4113.85,4113.33,4092.31,4094.36,4089.74,4115.9,4103.59,4100,4099.49,4174.87,0
12_28_43,121,4055.9,4087.18,4076.41,4091.79,4128.72,4113.33,4094.87,4094.36,4097.44,4115.38,4080,4085.64,4107.69,4150.26,0
12_28_43,122,4046.15,4080.51,4077.95,4087.18,4098.97,4111.79,4096.41,4098.97,4110.77,4107.69,4090.77,4085.64,4090.77,4118.46,0
12_28_43,123,4030.77,4053.33,4069.23,4071.28,4079.49,4109.23,4088.72,4091.79,4098.97,4102.56,4093.33,4077.95,4067.69,4088.72,0
12_28_43,124,4031.28,4055.9,4066.15,4077.44,4097.44,4104.1,4087.69,4085.64,4088.72,4106.67,4086.15,4080.51,4081.03,4088.72,0
12_28_43,125,4050.77,4085.64,4081.03,4094.87,4111.79,4108.72,4100.51,4100,4107.18,4120.51,4105.64,4102.05,4103.59,4104.62,0
12_28_43,126,4052.82,4092.82,4085.64,4093.33,4111.79,4123.08,4110.77,4114.36,4119.49,4126.15,4119.49,4104.62,4099.49,4105.13,0
12_28_43,127,4043.59,4078.97,4076.92,4087.18,4107.69,4120.51,4109.74,4110.77,4108.21,4115.38,4108.72,4095.38,4091.28,4101.54,0
12_28_43,128,4053.33,4080,4081.54,4092.82,4094.87,4104.1,4106.67,4108.21,4107.18,4121.03,4106.67,4105.64,4103.59,4108.21,0
12_28_43,0,4062.05,4088.21,4088.72,4094.87,4085.64,4101.54,4104.1,4109.23,4111.79,4117.95,4110.77,4104.1,4105.64,4112.82,0
12_28_43,1,4060.51,4088.72,4084.62,4088.72,4098.46,4114.36,4102.05,4104.62,4105.13,4105.13,4102.05,4088.72,4094.87,4114.87,0
12_28_43,2,4078.46,4094.87,4088.21,4092.82,4076.41,4111.79,4106.15,4110.26,4106.67,4105.13,4101.03,4098.97,4109.23,4131.28,0
12_28_43,3,4095.9,4087.69,4089.23,4100.51,4043.59,4101.54,4103.08,4115.9,4113.33,4083.59,4123.59,4110.26,4100.51,4141.54,0
12_28_43,4,4096.92,4070.77,4078.97,4095.38,4087.18,4109.23,4085.13,4089.23,4098.46,4059.49,4139.49,4096.92,4067.69,4142.05,0
12_28_43,5,4103.59,4077.44,4077.44,4086.67,4108.21,4116.92,4070.26,4060,4060,4072.31,4120,4086.67,4087.18,4152.31,0
12_28_43,6,4109.74,4084.62,4086.67,4096.92,4089.74,4109.74,4069.74,4068.72,4052.31,4091.79,4102.05,4094.87,4121.54,4161.54,0
12_28_43,7,4118.97,4095.38,4096.41,4098.46,4146.15,4098.46,4081.03,4095.38,4090.26,4129.23,4113.33,4110.77,4136.41,4178.46,0
12_28_43,8,4140,4132.31,4106.15,4076.92,4198.46,4094.87,4097.95,4109.74,4107.69,4168.72,4120,4124.62,4155.9,4205.64,0
12_28_43,9,4136.92,4141.03,4108.72,4076.41,4135.38,4092.31,4107.18,4118.46,4085.13,4129.23,4118.97,4125.64,4151.28,4196.41,0
12_28_43,10,4100,4093.33,4096.92,4093.85,4081.54,4095.38,4104.1,4121.03,4081.03,4078.97,4123.59,4108.21,4116.92,4149.23,0
12_28_43,11,4083.08,4069.23,4089.23,4089.23,4116.41,4104.62,4100.51,4115.9,4107.69,4118.97,4127.18,4099.49,4113.85,4136.41,0
12_28_43,12,4091.28,4085.64,4098.46,4081.03,4129.23,4103.59,4109.23,4121.03,4114.36,4154.87,4135.9,4114.87,4130.77,4151.28,0
12_28_43,13,4085.64,4081.54,4109.74,4089.74,4097.95,4098.46,4119.49,4133.33,4100,4122.56,4142.05,4125.64,4123.08,4141.03,0
12_28_43,14,4074.87,4072.31,4110.77,4095.9,4089.23,4100.51,4117.95,4133.33,4105.13,4113.33,4141.54,4123.08,4123.59,4126.67,0
12_28_43,15,4074.36,4074.36,4111.28,4093.85,4107.18,4109.23,4112.31,4120,4112.31,4136.92,4143.08,4124.62,4125.13,4122.56,0
12_28_43,16,4060.51,4060,4108.72,4083.08,4098.46,4108.21,4107.69,4104.62,4085.64,4115.38,4131.28,4115.38,4097.95,4110.77,0
12_28_43,17,4033.33,4033.85,4098.97,4064.1,4078.97,4100.51,4106.67,4101.54,4061.54,4075.38,4109.74,4089.74,4074.87,4107.69,0
12_28_43,18,4032.82,4033.85,4102.05,4062.56,4090.26,4095.9,4119.49,4116.41,4084.62,4084.62,4115.38,4090.77,4086.15,4130.26,0
12_28_43,19,4046.15,4049.74,4116.92,4070.77,4093.85,4090.26,4121.03,4117.95,4102.05,4114.87,4128.21,4107.69,4094.87,4143.08,0
12_28_43,20,4048.21,4053.33,4121.03,4074.36,4079.49,4088.72,4111.28,4105.64,4091.28,4124.62,4123.59,4108.21,4089.74,4145.13,0
12_28_43,21,4051.79,4051.28,4116.41,4075.38,4076.92,4092.31,4115.9,4107.18,4083.08,4115.38,4117.44,4104.1,4089.74,4157.44,0
12_28_43,22,4050.77,4043.08,4109.23,4065.64,4070.77,4090.77,4118.46,4106.15,4075.38,4091.28,4103.59,4094.36,4075.38,4155.9,0
12_28_43,23,4049.23,4037.95,4105.13,4055.38,4058.97,4080.51,4111.79,4101.03,4070.77,4079.49,4093.33,4084.62,4061.54,4148.72,0
12_28_43,24,4062.05,4043.59,4109.74,4057.44,4056.41,4075.38,4113.85,4103.59,4074.87,4091.79,4098.46,4088.21,4068.72,4156.41,0
12_28_43,25,4082.05,4047.18,4112.82,4062.56,4034.36,4075.9,4106.67,4091.79,4067.69,4081.54,4106.15,4091.28,4075.9,4165.13,0
12_28_43,26,4110.26,4060,4115.9,4073.85,4034.87,4076.41,4094.36,4073.33,4061.03,4064.1,4121.03,4094.36,4081.54,4185.13,0
12_28_43,27,4146.15,4089.23,4126.15,4086.67,4072.31,4076.41,4100,4073.85,4059.49,4076.92,4128.72,4105.13,4090.77,4215.9,0
12_28_43,28,4170.26,4105.64,4133.33,4095.38,4073.85,4070.26,4098.46,4074.87,4057.44,4092.31,4130.77,4115.9,4102.56,4231.28,0
12_28_43,29,4182.05,4113.85,4134.87,4102.56,4065.13,4073.33,4085.13,4069.74,4059.49,4089.74,4133.85,4121.03,4117.44,4241.54,0
12_28_43,30,4197.44,4137.95,4143.59,4107.69,4089.23,4076.92,4088.21,4078.97,4056.41,4098.46,4127.18,4128.21,4132.82,4268.72,0
12_28_43,31,4202.56,4160.51,4153.33,4103.08,4103.59,4066.15,4095.9,4092.31,4057.44,4106.67,4125.64,4137.44,4136.41,4279.49,0
12_28_43,32,4193.33,4159.49,4147.18,4094.36,4091.28,4064.1,4094.36,4092.82,4068.72,4102.56,4142.56,4140.51,4127.18,4256.41,0
12_28_43,33,4175.9,4141.54,4134.36,4089.74,4084.62,4076.41,4091.79,4082.56,4051.28,4091.79,4135.38,4127.18,4115.38,4233.85,0
12_28_43,34,4155.9,4123.08,4133.33,4085.64,4074.36,4078.97,4089.23,4070.26,4023.59,4070.26,4111.28,4115.38,4101.54,4220,0
12_28_43,35,4151.79,4117.44,4139.49,4090.77,4068.21,4072.82,4093.85,4080,4056.41,4076.41,4127.18,4128.72,4102.05,4216.41,0
12_28_43,36,4157.44,4115.38,4140,4098.97,4070.77,4068.21,4100.51,4094.36,4085.13,4091.28,4143.08,4142.56,4111.28,4216.92,0
12_28_43,37,4150.26,4107.69,4136.92,4100.51,4061.03,4064.1,4099.49,4088.21,4060,4085.64,4135.9,4139.49,4105.64,4207.69,0
12_28_43,38,4136.41,4106.15,4135.9,4094.87,4067.18,4068.21,4096.92,4082.56,4058.97,4094.36,4138.46,4140.51,4096.92,4191.28,0
12_28_43,39,4123.08,4101.03,4128.21,4087.69,4073.85,4071.28,4097.95,4090.77,4078.97,4105.64,4136.41,4141.03,4098.97,4181.03,0
12_28_43,40,4102.56,4081.54,4115.38,4082.56,4061.54,4066.67,4095.9,4091.79,4070.77,4085.64,4121.03,4129.23,4090.26,4165.64,0
12_28_43,41,4082.56,4071.79,4105.64,4078.97,4060,4066.15,4094.87,4087.69,4065.64,4075.38,4114.36,4117.95,4070.26,4144.62,0
12_28_43,42,4081.54,4075.38,4101.03,4078.97,4063.59,4068.21,4099.49,4094.87,4083.08,4098.97,4123.59,4119.49,4076.92,4137.95,0
12_28_43,43,4071.79,4067.18,4090.77,4074.36,4067.18,4076.92,4092.82,4087.69,4077.44,4090.77,4116.92,4109.74,4076.41,4126.15,0
12_28_43,44,4059.49,4058.46,4084.1,4076.92,4075.38,4086.67,4088.72,4084.62,4082.05,4083.08,4113.85,4106.15,4074.87,4117.95,0
12_28_43,45,4079.49,4078.46,4094.36,4096.92,4081.54,4082.56,4103.59,4111.28,4124.62,4123.08,4140,4134.87,4108.21,4135.38,0
12_28_43,46,4094.87,4095.9,4096.41,4105.13,4083.08,4080.51,4105.13,4119.49,4132.82,4145.13,4149.23,4146.15,4123.08,4142.56,0
12_28_43,47,4080.51,4083.08,4084.1,4093.33,4085.13,4090.77,4089.23,4099.49,4104.1,4120.51,4126.67,4124.62,4109.74,4127.18,0
12_28_43,48,4085.13,4077.95,4080.51,4095.9,4091.28,4095.38,4089.23,4101.03,4107.18,4104.1,4124.62,4122.05,4115.9,4129.74,0
12_28_43,49,4109.74,4097.44,4080.51,4105.64,4097.44,4092.31,4095.38,4110.26,4112.31,4111.28,4133.33,4130.26,4126.67,4146.67,0
12_28_43,50,4122.56,4108.72,4080,4105.64,4087.69,4092.82,4090.26,4102.56,4098.46,4113.33,4122.05,4126.15,4134.87,4156.92,0
12_28_43,51,4138.97,4108.21,4089.23,4118.46,4065.64,4091.28,4089.74,4107.69,4125.13,4101.03,4145.13,4138.97,4145.13,4174.87,0
12_28_43,52,4175.38,4130.77,4105.13,4136.41,4095.38,4091.79,4099.49,4126.67,4161.54,4124.1,4196.92,4171.28,4152.82,4209.74,0
12_28_43,53,4193.85,4160,4110.26,4133.33,4132.31,4094.36,4098.46,4126.15,4138.97,4164.62,4186.15,4176.41,4179.49,4240.51,0
12_28_43,54,4182.56,4158.46,4100.51,4128.21,4107.69,4091.28,4078.46,4098.46,4095.38,4121.54,4142.05,4148.72,4194.87,4234.36,0
12_28_43,55,4185.13,4165.13,4102.05,4147.18,4117.44,4098.46,4073.33,4094.87,4107.18,4087.18,4152.82,4144.1,4180,4222.05,0
12_28_43,56,4203.59,4194.36,4117.95,4157.44,4177.95,4108.21,4089.23,4124.62,4141.03,4161.03,4176.41,4170.26,4190.26,4237.44,0
12_28_43,57,4205.64,4201.03,4119.49,4141.03,4163.08,4092.82,4097.95,4137.95,4141.03,4208.72,4165.13,4181.54,4220.51,4244.62,0
12_28_43,58,4181.54,4182.56,4100,4128.72,4103.08,4080.51,4089.74,4118.46,4126.15,4138.97,4153.85,4163.59,4203.08,4214.87,0
12_28_43,59,4156.41,4172.82,4088.72,4142.05,4107.69,4094.87,4083.59,4106.15,4116.41,4083.59,4165.64,4149.74,4154.36,4178.97,0
12_28_43,60,4152.31,4175.9,4092.31,4155.9,4126.15,4097.44,4088.72,4121.54,4124.62,4122.05,4168.72,4154.87,4135.9,4167.69,0
12_28_43,61,4153.85,4172.31,4091.28,4141.03,4114.36,4086.15,4090.77,4128.21,4137.44,4148.72,4148.21,4150.26,4138.46,4164.62,0
12_28_43,62,4141.03,4164.1,4089.23,4123.08,4116.41,4088.72,4090.26,4122.56,4136.92,4135.38,4138.97,4141.03,4149.23,4159.49,0
12_28_43,63,4124.62,4154.36,4088.21,4123.59,4118.97,4095.9,4095.38,4124.1,4129.23,4127.69,4146.67,4143.59,4154.36,4150.26,0
12_28_44,64,4115.38,4142.05,4087.18,4130.26,4102.56,4092.31,4104.62,4131.28,4128.21,4129.23,4143.08,4139.49,4136.92,4134.36,0
12_28_44,64,4115.38,4142.05,4087.18,4130.26,4102.56,4092.31,4104.62,4131.28,4128.21,4129.23,4143.08,4139.49,4136.92,4134.36,0
12_28_44,65,4104.1,4126.15,4084.62,4129.74,4102.05,4092.31,4105.13,4127.18,4131.79,4117.44,4134.36,4125.13,4114.87,4120,0
12_28_44,66,4095.9,4121.54,4084.62,4127.69,4119.49,4098.46,4102.56,4118.97,4135.38,4121.54,4140.51,4126.15,4120,4114.87,0
12_28_44,67,4090.26,4128.72,4083.59,4123.59,4121.54,4106.15,4104.62,4122.05,4136.41,4132.82,4137.44,4131.79,4134.87,4109.23,0
12_28_44,68,4078.97,4123.08,4075.9,4115.9,4114.87,4108.21,4103.59,4120.51,4125.64,4112.31,4125.64,4120.51,4121.54,4091.79,0
12_28_44,69,4081.54,4112.82,4078.97,4119.49,4106.15,4101.03,4104.62,4122.05,4133.85,4123.59,4135.9,4120.51,4114.87,4086.67,0
12_28_44,70,4089.74,4109.23,4087.69,4125.64,4099.49,4095.38,4107.69,4126.15,4148.72,4148.72,4145.64,4131.28,4127.18,4089.23,0
12_28_44,71,4081.54,4106.67,4087.18,4118.97,4100.51,4089.74,4101.03,4116.41,4128.72,4132.31,4137.44,4128.21,4123.08,4080.51,0
12_28_44,72,4065.64,4095.9,4081.54,4104.62,4101.54,4086.67,4094.87,4102.56,4106.67,4107.18,4121.54,4118.46,4100.51,4069.23,0
12_28_44,73,4062.56,4086.15,4083.59,4101.54,4090.77,4087.69,4102.56,4105.13,4117.44,4103.59,4121.54,4120,4095.9,4069.74,0
12_28_44,74,4070.77,4091.79,4084.1,4105.64,4076.41,4079.49,4105.13,4113.85,4126.15,4111.28,4133.33,4126.67,4104.1,4077.95,0
12_28_44,75,4080.51,4101.54,4081.54,4105.64,4085.13,4073.33,4095.38,4108.72,4121.03,4119.49,4135.38,4125.13,4099.49,4088.21,0
12_28_44,76,4097.44,4109.74,4088.21,4109.74,4076.92,4074.87,4090.26,4099.49,4118.46,4116.41,4134.87,4128.72,4102.05,4105.64,0
12_28_44,77,4112.31,4118.46,4092.31,4121.03,4038.97,4073.33,4090.77,4096.41,4117.95,4086.15,4140,4131.79,4104.62,4119.49,0
12_28_44,78,4126.15,4126.15,4094.87,4129.23,4062.05,4077.44,4091.28,4095.38,4109.74,4073.85,4146.67,4128.72,4095.38,4131.28,0
12_28_44,79,4151.28,4138.97,4104.1,4130.77,4148.72,4092.31,4091.28,4092.82,4104.62,4117.44,4151.28,4133.33,4110.77,4153.33,0
12_28_44,80,4183.59,4163.59,4113.85,4137.44,4138.97,4087.69,4086.15,4087.69,4115.38,4144.1,4153.33,4144.1,4149.74,4181.03,0
12_28_44,81,4190.77,4163.59,4110.77,4140,4042.56,4071.28,4078.97,4082.05,4118.46,4096.92,4164.1,4143.08,4148.21,4194.87,0
12_28_44,82,4178.46,4136.92,4111.79,4139.49,4048.72,4073.85,4081.03,4080.51,4103.59,4065.13,4186.67,4143.59,4120.51,4191.28,0
12_28_44,83,4184.1,4141.54,4121.54,4147.18,4134.36,4084.1,4088.72,4088.72,4107.18,4119.49,4195.9,4153.33,4128.72,4180,0
12_28_44,84,4207.69,4178.46,4125.64,4150.26,4144.1,4082.56,4092.82,4101.54,4128.72,4167.69,4182.05,4158.97,4165.64,4192.31,0
12_28_44,85,4207.18,4174.36,4126.15,4155.38,4060,4067.69,4086.15,4093.85,4105.64,4102.05,4177.44,4160.51,4163.59,4209.74,0
12_28_44,86,4167.69,4119.49,4118.46,4160.51,4028.72,4067.69,4077.44,4075.38,4058.97,4009.23,4192.82,4155.38,4108.21,4166.67,0
12_28_44,87,4149.74,4114.87,4114.36,4142.56,4115.38,4089.74,4082.05,4083.59,4077.95,4061.54,4193.85,4150.77,4093.85,4132.82,0
12_28_44,88,4172.82,4166.67,4122.56,4118.97,4176.41,4096.41,4093.85,4107.69,4129.74,4188.21,4169.74,4154.36,4149.74,4174.87,0
12_28_44,89,4178.97,4173.85,4125.13,4122.56,4135.38,4078.97,4096.41,4111.79,4136.92,4190.77,4157.44,4157.44,4173.85,4194.87,0
12_28_44,90,4149.23,4135.38,4113.33,4131.79,4087.69,4073.85,4093.85,4100,4115.9,4116.92,4164.62,4146.15,4139.49,4148.72,0
12_28_44,91,4117.95,4109.74,4101.54,4117.95,4086.15,4078.97,4091.79,4091.28,4104.1,4093.33,4160,4126.15,4109.74,4112.31,0
12_28_44,92,4103.08,4103.08,4095.9,4106.67,4076.41,4073.85,4090.26,4091.79,4105.64,4095.38,4150.26,4116.92,4098.46,4104.1,0
12_28_44,93,4092.82,4092.82,4093.33,4110.26,4063.59,4071.79,4091.28,4095.38,4113.85,4098.46,4147.18,4116.41,4086.67,4089.74,0
12_28_44,94,4071.79,4076.92,4088.72,4099.49,4063.59,4077.95,4090.26,4087.18,4105.13,4093.33,4128.21,4103.08,4076.92,4066.67,0
12_28_44,95,4051.28,4064.1,4079.49,4083.59,4063.59,4082.56,4084.1,4075.9,4086.15,4067.69,4120,4088.72,4068.72,4049.23,0
12_28_44,96,4054.87,4067.69,4083.59,4096.41,4061.03,4073.33,4087.69,4089.74,4107.69,4077.44,4141.03,4101.54,4074.36,4059.49,0
12_28_44,97,4056.92,4073.85,4091.28,4114.36,4053.85,4065.13,4091.79,4098.46,4129.74,4110.77,4141.54,4113.85,4081.54,4070.77,0
12_28_44,98,4042.56,4067.18,4080,4098.97,4062.56,4075.38,4083.08,4078.97,4104.62,4108.21,4118.97,4099.49,4076.41,4053.33,0
12_28_44,99,4047.69,4073.33,4078.97,4084.62,4086.15,4086.67,4083.59,4080,4099.49,4110.26,4123.08,4095.9,4089.74,4048.72,0
12_28_44,100,4062.56,4088.72,4093.85,4093.85,4092.82,4083.59,4098.97,4104.1,4131.28,4132.82,4136.92,4110.77,4111.28,4065.64,0
12_28_44,101,4052.31,4083.59,4088.72,4098.46,4077.95,4078.46,4097.95,4096.41,4128.21,4118.46,4127.69,4108.72,4098.97,4062.56,0
12_28_44,102,4037.44,4069.74,4074.87,4092.31,4066.15,4078.46,4086.67,4071.28,4102.05,4088.72,4118.46,4092.31,4074.36,4045.13,0
12_28_44,103,4042.05,4066.67,4076.92,4090.77,4057.44,4077.95,4089.23,4075.9,4103.59,4096.92,4122.56,4091.28,4077.95,4046.67,0
12_28_44,104,4047.69,4067.69,4081.54,4095.38,4052.31,4078.97,4092.31,4087.69,4113.33,4107.69,4125.64,4097.95,4082.05,4053.33,0
12_28_44,105,4050.26,4073.33,4082.05,4100.51,4068.21,4078.97,4089.74,4087.18,4123.59,4105.13,4128.21,4103.08,4080.51,4052.82,0
12_28_44,106,4051.28,4081.03,4080.51,4098.46,4083.59,4078.97,4090.77,4086.15,4126.67,4117.44,4122.56,4100.51,4095.38,4051.28,0
12_28_44,107,4043.59,4073.85,4073.33,4086.67,4060.51,4074.87,4090.77,4080,4108.21,4113.85,4108.21,4087.69,4096.41,4045.13,0
12_28_44,108,4042.56,4063.08,4071.79,4084.1,4041.03,4072.82,4088.21,4073.85,4099.49,4094.36,4108.72,4084.1,4074.36,4047.69,0
12_28_44,109,4049.74,4072.82,4075.9,4094.36,4077.44,4081.03,4091.79,4077.95,4109.23,4096.92,4115.38,4087.69,4070.26,4056.92,0
12_28_44,110,4048.72,4080,4070.77,4091.79,4085.64,4089.23,4090.26,4074.87,4103.08,4097.44,4105.64,4082.56,4075.9,4051.79,0
12_28_44,111,4053.85,4070.26,4065.13,4088.21,4047.69,4090.26,4077.44,4056.41,4082.05,4080,4106.67,4080.51,4072.31,4050.77,0
12_28_44,112,4077.95,4078.97,4075.9,4104.1,4066.67,4093.33,4078.46,4058.46,4086.67,4094.87,4130.77,4098.46,4090.77,4076.41,0
12_28_44,113,4095.9,4107.18,4086.15,4113.85,4104.1,4099.49,4090.77,4076.92,4108.21,4120.51,4137.44,4115.9,4122.05,4101.03,0
12_28_44,114,4094.87,4113.85,4083.59,4101.54,4074.87,4092.31,4087.69,4072.82,4106.67,4103.08,4126.67,4111.79,4115.9,4096.92,0
12_28_44,115,4091.28,4100,4076.92,4092.31,4053.85,4085.64,4080.51,4060,4092.82,4094.87,4117.95,4105.13,4096.41,4086.15,0
12_28_44,116,4095.9,4093.33,4070.77,4096.41,4068.72,4094.36,4079.49,4057.95,4090.26,4084.1,4110.26,4106.67,4087.69,4090.26,0
12_28_44,117,4111.79,4100.51,4069.23,4104.62,4045.13,4096.41,4077.95,4060.51,4093.33,4057.95,4113.85,4107.69,4077.44,4112.82,0
12_28_44,118,4120.51,4104.62,4071.79,4110.77,4040.51,4091.79,4073.85,4057.44,4084.1,4065.13,4102.56,4098.97,4074.87,4123.08,0
12_28_44,119,4119.49,4108.72,4073.33,4106.15,4103.08,4105.13,4071.28,4051.28,4074.87,4089.23,4074.36,4090.77,4093.85,4118.97,0
12_28_44,120,4138.97,4131.79,4081.03,4104.62,4123.59,4115.9,4070.26,4052.31,4082.05,4100,4075.9,4099.49,4119.49,4137.44,0
12_28_44,121,4158.97,4144.62,4092.31,4114.87,4079.49,4103.59,4069.74,4058.97,4098.46,4097.44,4114.36,4116.41,4125.13,4160,0
12_28_44,121,4158.97,4144.62,4092.31,4114.87,4079.49,4103.59,4069.74,4058.97,4098.46,4097.44,4114.36,4116.41,4125.13,4160,0
12_28_44,122,4155.38,4134.87,4095.9,4120.51,4073.85,4106.15,4079.49,4071.28,4110.26,4102.05,4138.46,4127.69,4120,4154.36,0
12_28_44,123,4147.69,4133.85,4093.33,4114.87,4100,4124.62,4090.77,4076.92,4109.23,4108.72,4118.97,4124.1,4116.41,4138.97,0
12_28_44,124,4143.08,4136.92,4092.82,4110.26,4087.69,4123.59,4084.1,4066.15,4100.51,4114.36,4082.56,4112.31,4104.1,4133.33,0
12_28_44,125,4129.23,4125.64,4095.38,4107.69,4071.28,4113.85,4073.85,4056.41,4092.82,4099.49,4075.38,4108.72,4100,4127.69,0
12_28_44,126,4107.18,4105.64,4093.85,4105.13,4057.95,4107.18,4077.95,4062.05,4085.64,4048.72,4093.33,4102.05,4090.77,4112.82,0
12_28_44,127,4084.1,4072.31,4083.59,4100.51,4034.87,4103.59,4080,4057.95,4080.51,4041.54,4089.23,4084.1,4052.31,4088.21,0
12_28_44,128,4077.44,4060,4078.97,4088.21,4064.62,4114.87,4073.33,4049.23,4079.49,4094.36,4069.23,4079.49,4047.69,4076.41,0
12_28_44,0,4100.51,4097.44,4095.38,4085.13,4114.36,4122.56,4081.03,4060.51,4086.67,4116.92,4068.72,4098.46,4090.26,4097.95,0
12_28_44,1,4110.26,4109.74,4109.23,4090.77,4096.41,4109.74,4090.77,4070.26,4092.82,4096.41,4074.87,4109.74,4100,4113.33,0
12_28_44,2,4087.18,4077.95,4098.97,4079.49,4080,4109.23,4086.15,4067.18,4087.18,4101.03,4068.72,4101.54,4089.23,4095.9,0
12_28_44,3,4076.92,4080,4093.33,4075.38,4105.13,4124.1,4091.79,4072.31,4083.08,4109.23,4064.1,4100.51,4103.59,4077.95,0
12_28_44,4,4089.23,4096.41,4102.56,4092.31,4093.85,4125.13,4106.67,4085.64,4091.79,4091.28,4074.87,4110.26,4117.95,4078.97,0
12_28_44,5,4085.64,4072.31,4101.03,4092.31,4058.46,4116.92,4103.08,4087.69,4098.97,4089.74,4081.54,4110.26,4116.92,4078.46,0
12_28_44,6,4076.41,4058.97,4092.31,4083.59,4058.46,4118.46,4089.23,4079.49,4093.33,4097.95,4081.03,4105.64,4122.05,4071.28,0
12_28_44,7,4085.13,4072.82,4093.85,4087.18,4062.05,4121.54,4089.74,4075.9,4087.18,4092.31,4079.49,4104.62,4130.26,4076.92,0
12_28_44,8,4091.28,4069.23,4092.31,4083.08,4045.64,4115.38,4087.69,4074.87,4082.56,4081.54,4070.26,4093.85,4131.79,4080.51,0
12_28_44,9,4090.77,4057.95,4089.74,4078.46,4035.9,4113.33,4077.44,4067.18,4074.87,4054.87,4077.44,4090.26,4121.03,4071.79,0
12_28_44,10,4109.74,4071.28,4101.03,4088.72,4046.15,4122.05,4081.54,4063.59,4078.46,4070.77,4091.79,4107.69,4134.87,4094.87,0
12_28_44,11,4134.87,4101.54,4114.36,4102.05,4069.74,4121.54,4093.85,4072.82,4080,4112.82,4075.9,4116.92,4180.51,4140,0
12_28_44,12,4136.92,4110.26,4117.95,4106.15,4075.38,4109.74,4091.79,4073.85,4064.1,4075.9,4066.67,4108.21,4175.38,4129.74,0
12_28_44,13,4133.33,4099.49,4117.95,4094.36,4084.62,4113.33,4087.69,4071.79,4060.51,4050.26,4083.59,4108.21,4142.05,4103.08,0
12_28_44,14,4133.85,4095.38,4109.23,4072.82,4105.13,4126.15,4083.59,4068.21,4073.33,4093.33,4061.03,4102.56,4156.92,4121.03,0
12_28_44,15,4135.38,4100,4102.05,4071.79,4094.36,4123.59,4074.36,4055.9,4072.82,4104.62,4024.1,4087.18,4177.44,4136.41,0
12_28_44,16,4140.51,4107.18,4111.79,4093.33,4061.54,4107.69,4073.85,4056.41,4064.1,4061.03,4052.31,4094.36,4148.72,4124.1,0
12_28_44,17,4143.59,4108.21,4125.13,4109.23,4050.26,4103.59,4082.05,4073.33,4065.64,4035.9,4088.72,4112.82,4114.36,4114.36,0
12_28_44,18,4144.1,4096.41,4125.13,4113.85,4061.03,4118.97,4083.08,4078.46,4068.72,4058.46,4073.33,4110.26,4127.18,4107.69,0
12_28_44,19,4138.97,4078.46,4118.46,4111.28,4081.03,4130.77,4076.41,4068.72,4071.28,4055.38,4066.15,4099.49,4124.62,4093.33,0
12_28_44,20,4140,4094.36,4122.05,4108.21,4119.49,4124.1,4081.03,4078.97,4085.64,4046.15,4092.31,4112.82,4100,4101.03,0
12_28_44,21,4144.62,4124.1,4124.62,4098.46,4137.95,4120.51,4090.77,4095.9,4096.41,4086.67,4073.85,4120.51,4135.38,4123.59,0
12_28_44,22,4133.33,4117.44,4113.33,4088.72,4113.33,4126.15,4091.28,4092.82,4093.85,4127.18,4026.15,4099.49,4180,4118.97,0
12_28_44,23,4114.87,4096.92,4106.67,4093.85,4092.82,4123.59,4088.72,4084.1,4083.59,4095.9,4031.79,4091.28,4149.23,4090.77,0
12_28_44,24,4098.97,4076.92,4109.23,4092.82,4088.21,4121.54,4086.67,4085.64,4080,4056.92,4070.26,4104.62,4102.05,4064.62,0
12_28_44,25,4082.56,4057.95,4106.15,4085.64,4089.23,4126.15,4088.72,4093.33,4089.23,4083.08,4080.51,4107.69,4102.56,4051.79,0
12_28_44,26,4066.15,4055.38,4096.92,4086.15,4089.23,4127.18,4095.38,4096.41,4095.9,4100,4057.95,4091.79,4108.72,4041.03,0
12_28_44,27,4061.54,4063.08,4093.85,4085.13,4082.56,4126.67,4099.49,4096.92,4094.36,4087.18,4042.56,4085.64,4107.69,4033.85,0
12_28_44,28,4053.33,4051.28,4093.33,4077.95,4074.87,4126.15,4095.38,4094.87,4093.33,4065.13,4050.77,4090.26,4098.46,4022.56,0
12_28_44,29,4028.72,4033.85,4082.56,4073.85,4069.74,4125.13,4090.77,4092.82,4096.41,4058.97,4058.97,4088.21,4072.31,4000,0
12_28_44,30,4012.82,4030.26,4072.31,4070.77,4069.23,4130.77,4089.23,4084.62,4092.82,4089.23,4042.56,4072.82,4070.26,3987.69,0
12_28_44,31,4009.74,4024.1,4070.77,4065.64,4080.51,4136.41,4089.74,4075.9,4083.59,4090.77,4023.59,4061.54,4073.85,3987.18,0
12_28_44,32,4008.21,4021.03,4073.33,4063.59,4091.28,4130.26,4092.82,4077.95,4073.33,4058.46,4022.56,4067.69,4053.33,3983.08,0
12_28_44,33,4003.59,4023.08,4081.54,4060.51,4079.49,4121.54,4091.79,4080.51,4064.62,4053.33,4028.72,4072.31,4040,3976.92,0
12_28_44,34,3996.41,4014.36,4093.33,4054.87,4059.49,4114.36,4088.21,4074.87,4063.59,4066.67,4028.21,4064.62,4044.1,3976.41,0
12_28_44,35,3982.05,3996.41,4091.28,4043.08,4052.31,4110.26,4089.74,4068.21,4059.49,4042.05,4012.31,4047.69,4025.13,3965.13,0
12_28_44,36,3965.64,3981.03,4080,4030.77,4048.21,4116.41,4092.82,4067.18,4055.9,4025.13,3995.38,4033.33,3998.97,3947.18,0
12_28_44,37,3972.82,3988.21,4081.03,4042.05,4047.69,4121.03,4095.38,4080.51,4073.33,4058.46,4004.1,4044.62,4014.36,3954.87,0
12_28_44,38,3975.38,3995.9,4076.41,4059.49,4046.15,4121.54,4094.87,4091.28,4083.59,4060.51,4018.97,4058.46,4020,3961.03,0
12_28_44,39,3962.05,3986.67,4064.1,4056.92,4055.38,4124.1,4092.82,4084.62,4075.9,4046.67,4020,4052.31,4002.56,3950.77,0
12_28_44,40,3965.64,3987.18,4067.18,4045.64,4066.15,4119.49,4092.82,4079.49,4076.92,4076.92,4016.41,4053.85,4011.28,3955.9,0
12_28_44,41,3970.77,3986.15,4066.15,4041.54,4062.56,4119.49,4087.69,4071.28,4066.67,4070.77,4009.74,4058.97,4018.46,3956.92,0
12_28_44,42,3965.64,3977.95,4061.03,4049.74,4065.64,4120.51,4083.59,4061.03,4059.49,4038.46,4012.82,4053.85,4009.23,3948.72,0
12_28_44,43,3976.41,3996.92,4071.79,4050.26,4076.41,4112.31,4093.33,4071.28,4073.85,4068.72,4020.51,4056.41,4018.46,3957.44,0
12_28_44,44,3986.15,4022.05,4079.49,4040.51,4075.9,4114.36,4101.54,4082.56,4071.28,4091.79,4010.77,4061.54,4031.28,3965.13,0
12_28_44,45,3973.85,4009.74,4075.38,4044.62,4066.67,4122.05,4098.97,4081.03,4064.1,4065.13,4000.51,4061.54,4025.64,3963.08,0
12_28_44,46,3972.82,3992.82,4084.62,4055.9,4060.51,4111.79,4101.03,4082.05,4078.97,4062.56,4011.79,4061.03,4024.1,3963.08,0
12_28_44,47,3976.41,3992.82,4093.33,4044.1,4048.72,4101.03,4103.08,4082.56,4077.95,4068.72,4008.21,4052.31,4016.92,3952.31,0
12_28_44,48,3958.46,3982.56,4073.33,4031.28,4038.97,4108.21,4093.33,4071.79,4055.38,4040,3984.62,4038.97,3990.77,3935.38,0
12_28_44,49,3951.79,3973.85,4058.46,4042.05,4045.64,4114.36,4089.74,4070.77,4057.44,4034.36,3991.28,4043.59,3993.33,3942.56,0
12_28_44,50,3970.26,3984.1,4072.31,4051.28,4056.92,4113.85,4102.05,4084.62,4075.9,4066.15,4015.38,4057.44,4026.15,3960,0
12_28_44,51,3975.38,3993.33,4080.51,4043.08,4059.49,4109.74,4110.26,4087.18,4083.08,4076.92,4019.49,4058.97,4034.87,3958.97,0
12_28_44,52,3963.08,3989.74,4069.74,4034.36,4045.13,4102.56,4100.51,4075.9,4073.85,4062.05,4005.64,4048.21,4016.41,3947.18,0
12_28_44,53,3961.54,3981.03,4063.08,4036.41,4028.72,4099.49,4092.31,4077.95,4063.59,4046.15,4002.56,4042.05,4005.13,3941.03,0
12_28_44,54,3970.77,3978.97,4062.05,4044.62,4046.15,4108.21,4100.51,4090.77,4072.31,4042.05,4015.38,4049.23,3998.46,3943.08,0
12_28_44,55,3971.28,3990.26,4056.92,4044.62,4090.26,4126.67,4103.59,4086.67,4075.9,4056.92,4007.69,4049.23,3997.44,3947.18,0
12_28_44,56,3973.85,4005.13,4064.1,4040.51,4091.28,4122.56,4098.97,4085.13,4073.85,4082.05,3993.85,4048.21,4023.08,3960,0
12_28_45,57,3980.51,4004.62,4067.69,4043.59,4055.9,4104.62,4098.46,4097.44,4081.03,4069.74,4005.13,4057.95,4031.79,3964.1,0
12_28_45,58,3980.51,4000,4059.49,4052.82,4060.51,4114.87,4095.9,4098.97,4086.67,4038.46,4021.03,4060.51,4008.72,3955.9,0
12_28_45,59,3988.72,4012.31,4065.64,4062.05,4086.15,4130.26,4099.49,4103.08,4095.9,4069.74,4027.69,4062.05,4020.51,3965.64,0
12_28_45,60,4004.1,4025.64,4075.9,4061.54,4078.46,4122.56,4109.23,4110.26,4104.62,4112.31,4033.33,4068.72,4047.18,3977.95,0
12_28_45,61,4000.51,4015.38,4065.13,4053.33,4064.62,4118.97,4101.54,4100.51,4096.41,4073.33,4028.21,4069.23,4032.31,3972.82,0
12_28_45,62,3988.72,4003.59,4055.38,4054.87,4073.85,4126.15,4093.33,4096.92,4090.26,4045.64,4029.74,4070.26,4015.38,3972.31,0
12_28_45,63,3990.77,4017.95,4060.51,4061.03,4089.74,4123.08,4103.59,4109.74,4106.67,4101.54,4046.15,4076.41,4033.85,3975.38,0
12_28_45,64,3998.97,4037.44,4063.59,4048.21,4103.59,4121.54,4105.64,4109.74,4110.77,4130.77,4040,4074.36,4044.1,3974.36,0
12_28_45,65,4000,4030.26,4056.92,4037.95,4101.54,4126.15,4101.54,4102.56,4094.36,4087.69,4024.62,4069.23,4035.9,3976.92,0
12_28_45,66,3988.72,4008.21,4050.26,4048.72,4072.82,4120,4106.67,4106.67,4087.18,4064.62,4029.74,4065.64,4031.79,3973.85,0
12_28_45,67,3979.49,4001.03,4044.62,4050.77,4058.97,4117.95,4104.62,4106.15,4092.82,4078.46,4032.82,4057.44,4024.62,3963.08,0
12_28_45,68,3991.79,4012.82,4049.23,4044.62,4084.62,4127.69,4098.46,4104.1,4101.03,4086.15,4031.79,4062.56,4018.97,3967.69,0
12_28_45,69,4008.72,4024.62,4058.46,4052.31,4088.21,4121.03,4097.44,4109.23,4101.54,4093.85,4028.72,4073.85,4025.13,3979.49,0
12_28_45,70,4005.13,4024.1,4058.46,4057.44,4060.51,4106.15,4094.87,4103.08,4087.18,4078.97,4024.1,4074.87,4028.72,3978.97,0
12_28_45,71,3995.38,4014.36,4054.36,4049.74,4057.95,4111.79,4092.82,4089.23,4077.95,4051.79,4036.41,4073.33,4021.03,3973.33,0
12_28_45,72,4004.62,4019.49,4057.95,4051.79,4082.56,4124.1,4093.85,4090.26,4088.72,4078.46,4048.21,4078.97,4018.46,3981.03,0
12_28_45,73,4019.49,4044.1,4065.64,4063.08,4105.13,4124.1,4094.87,4098.97,4096.41,4113.85,4037.95,4088.21,4026.15,3993.85,0
12_28_45,74,4015.38,4050.77,4065.13,4062.05,4107.69,4122.56,4095.38,4097.44,4083.08,4097.95,4032.82,4087.69,4031.28,3998.97,0
12_28_45,75,4003.08,4036.92,4054.87,4054.36,4090.77,4120,4092.82,4092.31,4075.38,4073.33,4035.38,4078.46,4031.28,3989.23,0
12_28_45,76,3998.97,4024.62,4046.67,4048.21,4067.18,4110.26,4087.69,4089.23,4077.44,4066.67,4026.15,4069.74,4026.15,3974.87,0
12_28_45,77,4000.51,4017.95,4050.77,4053.33,4067.69,4109.23,4088.21,4092.82,4076.41,4063.59,4024.62,4070.26,4026.15,3974.87,0
12_28_45,78,4008.21,4026.15,4060,4060.51,4087.69,4114.87,4091.79,4104.62,4077.95,4076.41,4045.13,4082.05,4032.31,3989.74,0
12_28_45,79,4019.49,4042.56,4063.08,4060.51,4084.1,4110.26,4089.74,4103.08,4082.05,4088.21,4057.44,4089.23,4029.23,3995.9,0
12_28_45,80,4022.56,4044.62,4062.05,4056.92,4065.64,4107.69,4087.69,4089.23,4077.95,4084.1,4042.56,4081.03,4024.1,3990.26,0
12_28_45,81,4023.59,4041.03,4068.21,4058.97,4065.64,4116.41,4091.28,4090.77,4073.85,4085.13,4030.77,4078.46,4036.92,3997.44,0
12_28_45,82,4023.59,4044.1,4075.38,4065.13,4078.46,4124.62,4092.82,4096.92,4076.92,4083.08,4047.18,4092.31,4045.64,4006.15,0
12_28_45,83,4023.08,4048.72,4076.92,4068.21,4081.03,4119.49,4089.74,4091.79,4079.49,4077.44,4060.51,4094.87,4034.87,4003.59,0
12_28_45,84,4030.26,4057.95,4080,4071.79,4083.08,4112.31,4089.23,4091.79,4084.1,4080.51,4061.03,4092.82,4037.44,4004.62,0
12_28_45,85,4029.74,4056.92,4082.05,4069.74,4076.41,4111.28,4088.21,4095.38,4084.1,4080,4058.46,4092.82,4046.15,4003.08,0
12_28_45,86,4017.44,4038.97,4076.41,4069.23,4066.15,4110.26,4081.54,4090.77,4079.49,4077.95,4054.87,4084.62,4037.44,3998.46,0
12_28_45,87,4020,4040,4074.36,4072.31,4067.18,4108.72,4079.49,4087.18,4079.49,4078.97,4053.85,4081.54,4032.82,4001.03,0
12_28_45,88,4030.26,4052.82,4078.97,4071.28,4062.56,4109.23,4086.67,4088.21,4075.9,4073.85,4059.49,4088.72,4040,4005.13,0
12_28_45,89,4027.69,4053.85,4078.97,4070.26,4065.64,4115.38,4092.82,4092.82,4076.92,4081.54,4067.18,4093.33,4044.62,4008.21,0
12_28_45,90,4027.18,4058.97,4076.41,4069.23,4083.08,4117.44,4089.23,4093.33,4081.03,4095.38,4067.69,4092.82,4043.59,4011.28,0
12_28_45,91,4029.23,4063.59,4070.77,4066.15,4084.62,4113.33,4082.56,4083.59,4073.33,4086.15,4056.41,4084.1,4035.9,4006.15,0
12_28_45,92,4027.18,4059.49,4067.69,4069.74,4076.41,4111.79,4082.56,4078.46,4062.56,4071.28,4046.15,4078.46,4032.31,4003.08,0
12_28_45,93,4031.28,4056.92,4071.79,4076.41,4075.9,4112.31,4082.56,4083.08,4062.05,4066.15,4050.77,4084.62,4039.49,4011.79,0
12_28_45,94,4037.44,4062.05,4072.31,4072.82,4072.82,4108.72,4078.97,4084.1,4068.21,4063.59,4058.46,4087.18,4038.46,4018.97,0
12_28_45,95,4045.13,4063.59,4066.67,4069.74,4061.54,4103.59,4079.49,4083.08,4072.82,4069.74,4059.49,4085.13,4032.82,4027.18,0
12_28_45,96,4058.97,4063.59,4067.69,4071.79,4056.41,4105.64,4081.03,4083.59,4074.36,4076.41,4061.54,4087.69,4041.54,4039.49,0
12_28_45,97,4079.49,4084.1,4073.33,4076.92,4060.51,4109.23,4079.49,4083.08,4071.79,4071.79,4064.62,4089.74,4060.51,4047.69,0
12_28_45,98,4103.59,4109.23,4079.49,4087.69,4063.59,4108.72,4077.95,4086.15,4072.31,4065.64,4068.21,4093.33,4068.72,4062.56,0
12_28_45,99,4137.44,4110.77,4088.72,4092.82,4061.03,4105.13,4079.49,4090.77,4076.92,4070.77,4075.38,4104.1,4079.49,4095.38,0
12_28_45,100,4174.36,4116.41,4093.85,4096.41,4057.95,4104.1,4081.54,4092.31,4075.9,4076.41,4080,4113.85,4107.18,4125.13,0
12_28_45,101,4195.9,4143.08,4092.82,4105.13,4058.97,4105.13,4077.95,4091.79,4075.9,4073.33,4086.67,4119.49,4128.72,4141.54,0
12_28_45,102,4208.72,4153.85,4097.44,4107.18,4057.95,4105.13,4076.92,4091.28,4082.05,4075.38,4097.95,4124.62,4133.33,4158.46,0
12_28_45,103,4218.97,4159.49,4105.13,4104.62,4053.33,4106.15,4085.13,4090.77,4087.18,4086.15,4106.15,4124.62,4144.62,4174.87,0
12_28_45,104,4226.15,4185.64,4103.59,4105.64,4054.36,4107.18,4086.15,4093.33,4086.15,4084.1,4099.49,4126.15,4156.41,4180.51,0
12_28_45,105,4241.54,4217.95,4106.67,4106.67,4060.51,4106.67,4077.44,4092.82,4082.05,4070.26,4089.23,4130.77,4164.1,4189.74,0
12_28_45,106,4265.64,4291.28,4122.05,4114.87,4060,4106.15,4079.49,4088.72,4079.49,4066.15,4094.87,4132.31,4191.28,4211.79,0
12_28_45,107,4280,4441.03,4124.1,4124.62,4060,4107.18,4085.64,4094.36,4084.1,4073.85,4100.51,4135.38,4216.41,4220,0
12_28_45,108,4283.08,4634.87,4110.77,4114.87,4060,4107.69,4083.08,4104.62,4093.33,4082.56,4097.95,4137.95,4220,4213.85,0
12_28_45,109,4294.36,4886.15,4107.18,4104.1,4057.44,4108.21,4083.59,4108.72,4096.41,4087.69,4104.62,4136.92,4242.56,4219.49,0
12_28_45,110,4307.18,5218.97,4111.79,4113.33,4056.41,4108.72,4084.1,4108.72,4091.79,4084.62,4107.18,4136.41,4273.33,4235.38,0
12_28_45,111,4308.72,5552.31,4107.18,4115.38,4061.54,4109.23,4078.46,4102.05,4084.62,4074.87,4088.72,4130.77,4268.21,4242.05,0
12_28_45,112,4310.26,5808.72,4105.13,4107.18,4064.62,4108.21,4078.97,4095.9,4075.9,4067.18,4075.9,4122.05,4257.95,4247.69,0
12_28_45,113,4317.95,5974.36,4110.77,4107.69,4057.44,4103.59,4083.59,4102.56,4073.33,4062.56,4078.97,4121.03,4270.77,4257.44,0
12_28_45,114,4317.95,6054.36,4108.21,4110.26,4051.79,4103.59,4080.51,4107.18,4080.51,4065.64,4080,4122.56,4283.08,4262.56,0
12_28_45,115,4321.03,6087.69,4108.21,4109.23,4054.36,4107.18,4080,4107.69,4089.23,4074.87,4088.72,4128.21,4300.51,4274.36,0
12_28_45,116,4326.67,6096.41,4116.41,4112.31,4058.97,4106.15,4087.69,4115.38,4089.23,4075.9,4094.36,4138.97,4323.08,4284.62,0
12_28_45,117,4315.9,6054.87,4119.49,4112.31,4061.03,4104.1,4086.15,4118.46,4086.15,4074.36,4084.1,4139.49,4338.46,4283.59,0
12_28_45,118,4307.69,5985.13,4116.41,4107.69,4061.54,4107.18,4078.46,4116.92,4087.69,4077.95,4087.18,4135.38,4356.92,4291.28,0
12_28_45,119,4317.44,5912.82,4117.95,4113.85,4069.23,4109.74,4083.08,4123.08,4091.28,4076.92,4105.64,4142.05,4375.9,4301.03,0
12_28_45,120,4319.49,5803.08,4121.03,4125.64,4076.92,4107.18,4088.21,4126.15,4092.82,4073.33,4108.21,4143.08,4371.28,4292.82,0
12_28_45,121,4305.13,5652.31,4121.54,4122.56,4064.1,4103.59,4080,4120,4090.26,4074.87,4092.31,4134.87,4349.23,4275.38,0
12_28_45,122,4293.85,5517.44,4121.54,4111.28,4057.95,4106.15,4076.41,4119.49,4086.15,4071.79,4088.72,4139.49,4342.56,4270.26,0
12_28_45,123,4283.08,5410.26,4113.33,4108.72,4074.36,4110.77,4081.03,4123.59,4087.18,4057.95,4097.95,4136.41,4340,4260,0
12_28_45,124,4266.15,5296.41,4103.59,4112.82,4069.23,4107.69,4078.97,4118.97,4088.21,4041.03,4104.1,4120,4316.92,4247.18,0
12_28_45,125,4260.51,5207.18,4111.28,4112.31,4081.03,4104.1,4083.59,4120,4092.82,4073.33,4107.18,4128.21,4304.62,4251.79,0
12_28_45,126,4267.69,5148.72,4121.03,4104.1,4115.38,4108.21,4091.28,4126.15,4095.9,4114.36,4091.28,4144.62,4320,4260,0
12_28_45,127,4250.26,5043.59,4110.26,4100.51,4084.62,4109.74,4077.44,4112.82,4069.74,4046.67,4076.92,4128.21,4298.97,4235.9,0
12_28_45,128,4226.67,4936.41,4103.08,4110.77,4065.13,4108.21,4066.67,4101.54,4057.95,3997.44,4097.95,4118.46,4248.72,4200,0
12_28_45,0,4247.18,4918.46,4121.54,4117.44,4137.44,4109.74,4081.03,4124.1,4094.36,4095.38,4116.41,4146.67,4260.51,4211.28,0
12_28_45,1,4271.79,4907.69,4134.36,4109.23,4162.56,4106.67,4088.72,4143.08,4109.23,4158.97,4098.97,4160.51,4309.74,4248.72,0
12_28_45,2,4252.82,4826.67,4123.59,4105.13,4112.31,4107.18,4081.03,4130.77,4085.13,4096.92,4084.62,4142.56,4297.95,4244.1,0
12_28_45,3,4230.26,4735.9,4109.74,4117.44,4089.23,4107.18,4076.92,4114.87,4068.21,4026.67,4097.44,4123.08,4223.59,4196.41,0
12_28_45,4,4218.97,4674.87,4107.18,4125.13,4076.92,4091.28,4073.85,4113.33,4069.23,4016.92,4112.82,4122.56,4180,4161.54,0
12_28_45,5,4212.82,4645.13,4116.92,4117.44,4095.38,4091.28,4079.49,4125.64,4088.72,4076.41,4118.97,4143.08,4214.87,4180.51,0
12_28_45,6,4222.05,4630.26,4124.1,4108.72,4153.33,4111.28,4090.77,4136.92,4114.36,4135.9,4103.59,4153.85,4251.79,4210.26,0
12_28_45,7,4212.82,4585.64,4113.85,4106.67,4140,4107.69,4086.67,4129.74,4107.69,4112.82,4086.67,4136.92,4223.08,4195.9,0
12_28_45,8,4176.41,4525.13,4101.03,4107.69,4087.18,4095.9,4076.41,4113.85,4086.67,4077.95,4095.9,4126.15,4190.77,4161.03,0
12_28_45,9,4161.03,4488.72,4104.62,4106.67,4092.82,4104.1,4082.05,4105.64,4089.74,4092.82,4110.77,4135.9,4204.1,4152.31,0
12_28_45,10,4166.15,4464.1,4115.9,4111.28,4117.95,4111.79,4098.97,4110.26,4103.08,4106.67,4121.03,4144.62,4215.9,4161.54,0
12_28_45,11,4158.46,4428.72,4114.87,4115.38,4110.77,4110.26,4103.08,4121.54,4107.69,4097.44,4126.67,4143.08,4199.49,4153.85,0
12_28_45,12,4137.44,4383.59,4102.05,4103.59,4102.05,4110.26,4095.38,4125.64,4107.69,4094.87,4124.62,4135.9,4183.08,4124.62,0
12_28_45,13,4126.67,4354.87,4100,4088.72,4104.62,4107.69,4095.9,4123.08,4107.18,4098.46,4117.95,4133.33,4188.21,4108.21,0
12_28_45,14,4123.59,4341.03,4102.56,4093.33,4103.59,4111.28,4101.03,4127.69,4111.79,4082.05,4113.85,4133.33,4181.54,4106.67,0
12_28_45,15,4111.79,4300.51,4094.36,4109.74,4093.33,4115.9,4094.36,4124.62,4119.49,4067.18,4115.38,4123.08,4144.62,4082.56,0
12_28_45,16,4102.56,4265.64,4094.36,4107.18,4101.54,4109.23,4091.28,4111.79,4115.38,4109.23,4115.38,4120,4143.59,4068.72,0
12_28_45,17,4110.77,4276.41,4106.67,4088.72,4130.77,4112.82,4102.56,4111.28,4103.59,4143.59,4099.49,4129.23,4176.41,4090.26,0
12_28_45,18,4108.21,4274.36,4100.51,4085.64,4127.69,4124.62,4106.15,4119.49,4107.18,4110.26,4088.21,4123.59,4173.33,4089.23,0
12_28_45,19,4082.05,4236.41,4089.74,4097.95,4101.03,4119.49,4102.56,4123.08,4123.59,4091.28,4102.56,4114.87,4153.85,4064.1,0
12_28_45,20,4064.1,4209.23,4093.33,4096.41,4107.18,4114.87,4104.1,4122.56,4120,4104.1,4113.33,4118.46,4143.59,4055.38,0
12_28_45,21,4059.49,4189.23,4092.31,4081.54,4128.72,4124.1,4106.15,4122.56,4111.79,4105.13,4095.9,4110.77,4120,4044.1,0
12_28_45,22,4056.41,4169.23,4087.69,4080.51,4118.46,4123.08,4105.64,4124.62,4118.97,4109.74,4088.72,4102.56,4115.9,4031.28,0
12_28_45,23,4053.85,4157.95,4092.31,4091.79,4090.77,4115.38,4106.67,4124.62,4117.44,4107.18,4098.97,4107.18,4124.62,4030.77,0
12_28_45,24,4043.08,4128.21,4092.31,4091.79,4090.26,4123.08,4106.67,4116.92,4105.13,4079.49,4094.87,4101.03,4101.54,4017.44,0
12_28_45,25,4032.82,4093.33,4090.77,4084.62,4104.62,4124.1,4104.62,4109.74,4101.54,4075.9,4087.69,4092.82,4082.56,4006.15,0
12_28_45,26,4038.46,4084.62,4093.85,4084.1,4110.77,4112.31,4106.15,4110.26,4103.59,4104.1,4087.69,4104.1,4094.36,4019.49,0
12_28_45,27,4050.26,4078.46,4095.9,4084.62,4109.74,4109.23,4107.69,4109.74,4107.69,4115.9,4084.1,4113.33,4100,4027.69,0
12_28_45,28,4040.51,4052.82,4089.23,4077.95,4094.36,4106.15,4105.64,4107.18,4103.59,4090.77,4072.31,4099.49,4083.08,4013.85,0
12_28_45,29,4020.51,4021.54,4076.41,4072.31,4086.15,4106.15,4103.59,4105.13,4083.08,4056.41,4064.62,4086.67,4065.13,4000.51,0
12_28_45,30,4023.59,4008.72,4075.9,4073.85,4121.03,4122.05,4106.15,4103.59,4077.95,4057.44,4077.95,4093.33,4062.05,4005.13,0
12_28_45,31,4036.41,4020,4089.23,4075.38,4151.28,4127.18,4110.26,4115.38,4110.77,4108.21,4093.33,4101.54,4070.26,4016.92,0
12_28_45,32,4028.21,4019.49,4087.18,4070.77,4121.54,4113.33,4108.21,4119.49,4118.97,4121.03,4076.92,4092.31,4061.54,4013.85,0
12_28_45,33,4015.38,3996.92,4073.85,4067.18,4093.85,4114.87,4103.59,4102.56,4088.72,4075.9,4057.44,4083.59,4044.62,3998.97,0
12_28_45,34,4029.74,3998.97,4084.62,4082.05,4112.31,4127.69,4108.21,4104.1,4096.41,4086.15,4078.97,4097.95,4058.46,4007.18,0
12_28_45,35,4047.18,4016.41,4100,4102.56,4123.08,4119.49,4112.31,4124.1,4124.62,4118.97,4099.49,4110.26,4076.92,4026.15,0
12_28_45,36,4044.62,4016.92,4092.82,4093.85,4111.28,4107.69,4107.18,4127.69,4117.95,4097.44,4091.28,4104.1,4067.69,4025.13,0
12_28_45,37,4033.33,4003.59,4081.03,4073.85,4103.08,4114.87,4104.62,4118.97,4100,4080.51,4081.54,4095.9,4053.85,4011.79,0
12_28_45,38,4022.56,3982.56,4076.92,4078.97,4105.13,4125.13,4104.62,4117.44,4097.95,4090.77,4072.31,4090.77,4048.21,4001.03,0
12_28_45,39,4030.26,3982.05,4083.59,4094.36,4118.46,4117.44,4105.64,4127.18,4116.41,4106.67,4077.95,4096.92,4049.74,4010.26,0
12_28_45,40,4045.64,3994.87,4090.77,4094.87,4123.59,4110.77,4107.18,4130.77,4127.18,4113.85,4095.38,4106.15,4057.95,4024.62,0
12_28_45,41,4037.44,3985.13,4084.1,4085.13,4116.41,4115.38,4107.69,4116.92,4110.77,4107.69,4091.79,4100.51,4062.05,4017.95,0
12_28_45,42,4027.18,3969.23,4080.51,4081.54,4116.92,4115.9,4108.72,4111.79,4103.08,4113.85,4080.51,4091.28,4058.97,4010.77,0
12_28_45,43,4037.44,3970.77,4090.26,4086.67,4118.97,4114.36,4110.77,4126.15,4114.36,4120.51,4086.67,4093.33,4059.49,4018.46,0
12_28_45,44,4040.51,3969.23,4092.82,4090.26,4112.31,4115.9,4111.28,4125.64,4108.72,4098.46,4092.31,4098.46,4057.44,4016.92,0
12_28_45,45,4022.05,3947.18,4078.97,4080,4101.03,4111.79,4107.69,4112.31,4093.85,4080.51,4078.97,4090.26,4040,3997.95,0
12_28_45,46,4010.77,3925.13,4070.77,4071.79,4085.13,4104.62,4102.05,4108.72,4091.28,4090.77,4062.05,4077.44,4024.1,3989.74,0
12_28_45,47,4013.85,3927.18,4080.51,4081.03,4086.67,4104.1,4100.51,4106.15,4086.15,4086.15,4067.69,4078.46,4029.23,3996.92,0
12_28_45,48,4018.97,3944.1,4089.74,4087.18,4112.31,4109.23,4104.62,4103.08,4082.05,4067.18,4083.59,4092.82,4038.97,4007.69,0
12_28_45,49,4017.95,3937.44,4087.18,4086.67,4117.44,4108.21,4107.69,4109.23,4093.33,4082.56,4087.18,4097.44,4040.51,4010.26,0
12_28_45,50,4014.87,3921.03,4083.08,4087.18,4096.92,4104.1,4105.13,4114.36,4105.13,4116.41,4085.64,4093.33,4042.05,4003.08,0
12_28_45,51,4020.51,3929.74,4088.21,4091.79,4099.49,4111.79,4104.62,4109.74,4104.1,4122.56,4088.72,4100,4044.1,4006.15,0
12_28_45,52,4034.87,3946.67,4098.97,4096.41,4131.79,4126.15,4112.82,4110.77,4100,4110.26,4092.82,4111.79,4051.28,4026.15,0
12_28_45,53,4037.44,3945.13,4096.41,4090.26,4141.03,4122.56,4117.44,4119.49,4106.15,4104.1,4089.23,4110.26,4063.08,4033.33,0
12_28_45,54,4018.97,3922.56,4081.54,4082.05,4114.87,4112.82,4107.69,4113.33,4100,4093.85,4077.95,4094.36,4049.74,4010.77,0
12_28_45,55,4010.26,3910.26,4081.03,4085.64,4098.46,4109.74,4100,4103.59,4084.1,4091.28,4074.87,4089.23,4030.26,4001.03,0
12_28_46,56,4026.67,3926.15,4094.36,4093.85,4110.77,4104.1,4104.62,4106.67,4085.13,4105.13,4091.28,4106.67,4044.1,4021.54,0
12_28_46,57,4032.82,3932.82,4090.26,4090.26,4110.26,4108.72,4106.67,4106.15,4092.82,4100,4094.87,4111.28,4050.77,4025.13,0
12_28_46,58,4026.67,3923.59,4083.59,4088.72,4093.33,4121.03,4105.64,4110.26,4102.56,4095.38,4089.74,4101.03,4040.51,4018.46,0
12_28_46,59,4031.28,3922.56,4092.82,4094.87,4111.28,4119.49,4107.18,4120.51,4116.41,4113.33,4104.1,4109.74,4044.62,4026.67,0
12_28_46,60,4036.92,3923.08,4096.92,4092.31,4127.18,4107.69,4108.72,4114.87,4112.31,4118.97,4113.85,4122.05,4050.26,4029.23,0
12_28_46,61,4030.77,3906.67,4090.77,4087.18,4094.87,4103.08,4107.18,4106.15,4095.9,4098.97,4102.56,4115.38,4037.95,4022.56,0
12_28_46,62,4018.46,3885.64,4080.51,4081.54,4091.28,4115.9,4100.51,4102.56,4089.74,4082.56,4089.74,4103.08,4017.44,4014.87,0
12_28_46,63,4016.92,3898.97,4076.92,4075.38,4140.51,4124.62,4098.97,4100,4088.72,4112.31,4085.64,4101.54,4024.62,4015.38,0
12_28_46,64,4027.69,3923.59,4083.59,4076.41,4135.9,4109.23,4105.13,4102.56,4087.69,4144.62,4081.54,4102.05,4054.36,4025.64,0
12_28_46,65,4030.77,3912.82,4083.59,4079.49,4095.9,4096.92,4108.21,4110.26,4090.26,4122.56,4080,4098.46,4063.59,4028.72,0
12_28_46,66,4021.03,3888.21,4074.87,4074.36,4109.23,4106.15,4105.13,4107.18,4089.23,4102.56,4086.15,4097.95,4046.67,4022.56,0
12_28_46,67,4024.62,3895.9,4074.87,4078.46,4121.54,4107.69,4104.62,4109.23,4090.77,4121.54,4100,4104.1,4048.21,4025.13,0
12_28_46,68,4040,3913.85,4093.85,4097.95,4106.67,4108.72,4110.77,4120,4097.95,4122.05,4109.74,4114.36,4060.51,4033.85,0
12_28_46,69,4046.67,3912.31,4105.64,4105.64,4114.36,4123.08,4114.36,4118.46,4108.72,4114.87,4111.79,4120.51,4055.9,4037.44,0
12_28_46,70,4049.23,3911.79,4103.08,4101.03,4118.46,4118.46,4110.26,4110.77,4111.79,4130.26,4112.82,4123.08,4054.36,4043.08,0
12_28_46,71,4045.64,3908.21,4098.46,4100.51,4100.51,4104.1,4104.62,4106.67,4099.49,4133.33,4110.26,4123.08,4053.33,4043.59,0
12_28_46,72,4038.97,3904.1,4098.46,4098.97,4111.79,4106.15,4107.69,4107.69,4088.21,4123.08,4105.13,4122.05,4051.28,4043.08,0
12_28_46,73,4043.08,3907.69,4100,4093.85,4125.64,4110.77,4107.18,4109.74,4090.77,4113.33,4104.62,4123.59,4054.36,4045.64,0
12_28_46,74,4045.13,3906.15,4096.92,4094.36,4108.21,4106.67,4102.56,4107.69,4093.33,4114.87,4096.41,4117.44,4055.38,4037.95,0
12_28_46,75,4037.95,3901.03,4092.82,4098.46,4113.33,4104.62,4106.15,4107.18,4092.31,4122.56,4089.74,4108.72,4046.67,4027.18,0
12_28_46,76,4033.33,3896.41,4084.62,4093.33,4125.13,4109.74,4106.67,4107.69,4094.36,4112.31,4102.56,4106.67,4031.28,4025.64,0
12_28_46,77,4033.85,3891.28,4080.51,4089.23,4107.18,4109.23,4097.95,4106.67,4093.85,4115.9,4101.03,4106.15,4033.33,4027.18,0
12_28_46,78,4037.44,3894.87,4087.69,4092.31,4117.44,4108.72,4100,4108.72,4093.85,4144.1,4081.03,4108.72,4053.85,4030.77,0
12_28_46,79,4042.56,3907.69,4093.85,4092.82,4143.59,4113.33,4108.72,4113.33,4098.46,4143.08,4084.62,4115.38,4062.05,4040.51,0
12_28_46,80,4046.67,3908.72,4092.82,4094.36,4127.69,4112.31,4106.67,4108.21,4094.36,4113.33,4100,4123.59,4050.26,4044.1,0
12_28_46,81,4054.36,3909.74,4101.03,4104.62,4117.44,4109.74,4106.15,4107.69,4093.33,4112.82,4110.26,4132.31,4054.36,4046.67,0
12_28_46,82,4056.41,3912.82,4108.72,4111.28,4123.59,4112.82,4106.15,4109.23,4102.05,4113.33,4120.51,4129.23,4056.41,4049.74,0
12_28_46,83,4044.62,3896.41,4098.46,4105.13,4109.74,4112.31,4098.97,4095.38,4093.85,4097.44,4112.31,4113.33,4035.38,4041.54,0
12_28_46,84,4045.64,3898.46,4097.44,4097.95,4119.49,4109.74,4100.51,4092.31,4086.67,4116.92,4101.03,4116.92,4042.05,4046.15,0
12_28_46,85,4056.92,3914.87,4103.08,4091.79,4133.85,4109.23,4105.13,4106.67,4094.87,4134.87,4108.21,4125.64,4066.67,4053.85,0
12_28_46,86,4050.77,3902.05,4092.31,4093.33,4107.69,4105.64,4101.03,4107.18,4093.33,4101.03,4112.82,4113.33,4051.79,4038.46,0
12_28_46,87,4046.67,3893.33,4089.23,4104.1,4106.15,4104.1,4102.56,4096.92,4093.33,4091.79,4116.92,4114.87,4031.79,4036.92,0
12_28_46,88,4052.31,3911.28,4097.95,4096.92,4129.23,4109.23,4103.08,4097.95,4103.59,4142.05,4117.95,4125.13,4048.21,4057.44,0
12_28_46,89,4048.72,3913.33,4094.87,4081.54,4114.87,4107.69,4094.36,4100.51,4105.64,4149.23,4104.62,4113.33,4063.08,4054.36,0
12_28_46,90,4047.69,3903.08,4088.72,4090.77,4105.13,4104.1,4096.41,4098.46,4101.03,4110.26,4109.74,4109.74,4058.46,4038.97,0
12_28_46,91,4052.31,3912.82,4093.33,4103.59,4134.87,4105.13,4105.13,4101.54,4108.72,4125.13,4127.18,4123.08,4060,4044.62,0
12_28_46,92,4048.21,3916.92,4093.85,4092.82,4131.79,4107.69,4098.97,4100.51,4107.18,4134.36,4112.31,4119.49,4058.97,4048.72,0
12_28_46,93,4036.41,3895.9,4083.08,4086.15,4082.56,4105.64,4090.77,4091.28,4086.67,4086.67,4093.33,4101.54,4037.95,4037.95,0
12_28_46,94,4045.13,3897.95,4082.56,4098.97,4099.49,4102.05,4096.92,4095.38,4095.9,4096.92,4112.82,4109.23,4033.85,4045.13,0
12_28_46,95,4062.56,3925.13,4093.85,4103.08,4164.62,4113.85,4109.23,4111.79,4124.1,4156.41,4127.18,4127.18,4062.56,4061.54,0
12_28_46,96,4052.31,3918.97,4092.82,4097.44,4148.21,4122.05,4107.69,4114.36,4122.56,4150.26,4114.36,4120,4074.36,4053.33,0
12_28_46,97,4033.85,3895.38,4081.03,4095.9,4103.08,4110.77,4102.05,4105.13,4101.03,4112.82,4104.1,4102.56,4056.92,4036.41,0
12_28_46,98,4038.46,3903.59,4081.03,4093.85,4130.26,4106.67,4104.1,4104.1,4099.49,4117.95,4105.13,4101.03,4054.36,4038.97,0
12_28_46,99,4047.69,3917.44,4088.21,4090.26,4152.31,4111.28,4107.18,4107.18,4115.38,4133.33,4115.9,4113.85,4071.79,4051.28,0
12_28_46,100,4045.13,3908.72,4088.72,4095.9,4120,4111.79,4106.67,4108.21,4117.44,4136.92,4122.05,4117.44,4084.1,4054.36,0
12_28_46,101,4048.21,3907.18,4091.79,4106.67,4114.87,4118.97,4107.69,4107.69,4110.77,4139.49,4111.79,4114.87,4088.72,4053.85,0
12_28_46,102,4052.82,3911.28,4097.44,4105.64,4128.72,4124.1,4109.23,4107.69,4114.87,4126.15,4104.62,4120,4091.79,4053.85,0
12_28_46,103,4047.18,3898.97,4095.9,4097.44,4111.79,4112.82,4108.72,4111.28,4123.59,4107.69,4113.33,4122.56,4092.82,4051.79,0
12_28_46,104,4034.87,3878.97,4088.21,4090.77,4093.85,4105.13,4106.67,4104.1,4112.82,4100,4107.18,4110.26,4083.59,4039.49,0
12_28_46,105,4025.13,3872.82,4082.05,4088.21,4102.56,4109.23,4103.59,4092.82,4100,4103.08,4092.31,4096.92,4078.46,4026.15,0
12_28_46,106,4032.31,3882.05,4088.21,4094.87,4109.74,4115.9,4105.13,4101.03,4114.87,4115.38,4097.44,4106.15,4094.87,4040,0
12_28_46,107,4050.77,3887.18,4099.49,4104.62,4104.62,4119.49,4111.79,4118.46,4135.38,4121.03,4107.69,4118.46,4108.21,4060.51,0
12_28_46,108,4056.41,3891.79,4106.15,4106.15,4110.77,4118.97,4114.36,4122.56,4143.59,4123.08,4115.38,4122.05,4110.77,4057.44,0
12_28_46,109,4060,3893.33,4110.26,4104.62,4122.05,4120.51,4114.36,4115.38,4134.87,4124.62,4113.85,4124.1,4112.31,4059.49,0
12_28_46,110,4077.95,3886.67,4114.36,4112.82,4117.44,4121.54,4117.44,4113.85,4122.05,4118.46,4106.67,4123.08,4110.26,4080,0
12_28_46,111,4092.31,3894.87,4116.92,4120,4115.38,4122.05,4122.05,4122.05,4130.77,4117.44,4113.33,4124.62,4115.38,4088.21,0
12_28_46,112,4101.03,3913.33,4119.49,4121.03,4122.56,4125.13,4122.56,4126.67,4141.03,4121.54,4124.62,4128.21,4124.62,4092.82,0
12_28_46,113,4114.36,3914.87,4116.92,4123.08,4115.9,4124.1,4117.44,4115.38,4129.23,4113.33,4123.08,4127.18,4125.64,4106.67,0
12_28_46,114,4122.05,3916.92,4107.69,4120,4105.13,4118.97,4109.74,4109.23,4123.08,4105.13,4117.95,4123.59,4120.51,4107.18,0
12_28_46,115,4151.79,3920,4114.36,4122.05,4108.21,4119.49,4112.31,4116.41,4138.46,4115.38,4127.69,4136.41,4126.67,4128.21,0
12_28_46,116,4215.9,3894.87,4135.9,4134.87,4111.79,4122.05,4117.95,4115.38,4139.49,4120.51,4143.08,4158.46,4149.23,4189.74,0
12_28_46,117,4243.59,3904.1,4141.54,4143.08,4109.23,4119.49,4110.77,4104.62,4121.54,4108.21,4151.79,4161.54,4168.21,4218.46,0
12_28_46,118,4241.54,3993.33,4134.36,4141.54,4105.64,4116.92,4103.59,4104.1,4118.97,4103.59,4153.33,4157.95,4171.79,4208.21,0
12_28_46,119,4270.26,4134.36,4134.87,4140.51,4106.67,4118.97,4106.15,4114.36,4128.72,4115.9,4154.87,4160,4171.79,4221.03,0
12_28_46,120,4293.33,4527.18,4134.87,4140.51,4107.18,4118.46,4107.18,4116.92,4127.69,4121.03,4154.87,4164.1,4167.69,4249.23,0
12_28_46,121,4297.44,5438.97,4133.85,4137.44,4101.03,4112.82,4105.13,4117.44,4123.08,4111.79,4150.26,4170.77,4179.49,4275.38,0
12_28_46,122,4331.79,6633.85,4146.15,4141.54,4094.87,4108.21,4106.67,4127.69,4132.82,4119.49,4160.51,4184.62,4273.85,4314.87,0
12_28_46,123,4372.31,7488.21,4152.82,4141.54,4094.87,4110.26,4107.18,4137.44,4141.03,4140.51,4175.38,4189.74,4405.64,4343.59,0
12_28_46,124,4386.15,7739.49,4142.05,4131.28,4095.9,4111.28,4103.59,4142.56,4125.64,4133.33,4162.56,4178.46,4614.87,4348.21,0
12_28_46,125,4380.51,7692.82,4132.82,4119.49,4091.28,4105.13,4101.54,4149.74,4105.13,4106.67,4135.9,4167.18,5035.38,4344.1,0
12_28_46,126,4378.97,7667.69,4131.79,4109.23,4081.03,4097.44,4115.38,4156.41,4097.95,4096.41,4131.28,4164.62,5440.51,4370.77,0
12_28_46,127,4424.62,7664.62,4138.97,4103.08,4074.87,4087.18,4140.51,4146.15,4094.87,4096.92,4143.59,4167.69,5555.38,4439.49,0
12_28_46,128,4498.97,7624.1,4150.26,4096.41,4083.59,4087.69,4153.85,4133.85,4091.79,4098.46,4138.97,4169.23,5718.97,4472.82,0
12_28_46,0,4560.51,7595.38,4163.59,4095.9,4094.87,4098.97,4145.64,4145.13,4102.05,4108.21,4127.69,4173.33,6196.41,4471.28,0
12_28_46,1,4610.77,7599.49,4169.74,4100,4091.79,4106.15,4129.74,4161.03,4108.72,4113.33,4131.28,4185.64,6501.54,4506.15,0
12_28_46,2,4626.15,7600,4168.72,4099.49,4088.21,4113.33,4123.08,4160.51,4106.15,4113.33,4140,4190.77,6540,4539.49,0
12_28_46,3,4612.31,7598.97,4169.74,4096.41,4096.92,4121.03,4118.97,4157.95,4106.15,4113.33,4138.97,4186.15,6863.08,4525.64,0
12_28_46,4,4627.18,7598.97,4179.49,4105.13,4107.69,4123.59,4108.21,4167.69,4108.72,4111.79,4135.9,4189.23,7348.72,4526.15,0
12_28_46,5,4665.13,7598.97,4193.33,4118.46,4107.69,4129.23,4108.72,4180,4110.26,4114.87,4137.95,4202.05,7467.18,4534.87,0
12_28_46,6,4697.95,7600.51,4202.56,4121.03,4107.69,4143.08,4123.59,4186.67,4109.23,4125.13,4140.51,4208.21,7409.23,4519.49,0
12_28_46,7,4728.72,7600,4208.72,4122.56,4119.49,4152.31,4128.72,4190.77,4109.74,4129.23,4143.59,4203.08,7540,4526.67,0
12_28_46,8,4741.54,7599.49,4203.59,4124.1,4125.13,4155.38,4124.1,4187.69,4104.62,4116.41,4138.46,4191.79,7649.74,4506.15,0
12_28_46,9,4756.92,7600,4203.59,4121.03,4118.97,4161.54,4119.49,4190.77,4100.51,4112.31,4136.41,4191.28,7621.03,4431.28,0
12_28_46,10,4781.54,7600,4209.74,4123.59,4127.18,4172.82,4110.77,4208.72,4101.54,4129.74,4146.15,4196.92,7584.62,4381.54,0
12_28_46,11,4768.72,7600,4203.08,4124.1,4141.03,4186.67,4109.74,4237.44,4107.18,4141.03,4140.51,4186.15,7547.18,4362.05,0
12_28_46,12,4760,7600,4200.51,4125.13,4136.41,4187.18,4115.38,4263.08,4114.87,4136.92,4132.82,4178.97,7537.95,4343.08,0
12_28_46,13,4789.74,7600,4206.15,4125.13,4129.74,4182.05,4108.21,4269.74,4113.85,4135.38,4146.67,4185.64,7581.54,4332.82,0
12_28_46,14,4794.36,7600,4201.54,4122.56,4135.38,4191.79,4103.08,4266.15,4106.67,4135.9,4148.21,4182.56,7582.56,4322.05,0
12_28_46,15,4772.82,7600,4197.44,4123.59,4142.05,4201.54,4108.72,4269.23,4101.54,4121.03,4126.15,4171.79,7518.46,4306.15,0
12_28_46,16,4794.87,7600,4208.21,4132.31,4147.18,4203.08,4106.67,4275.9,4103.59,4116.41,4135.38,4182.56,7506.15,4324.62,0
12_28_46,17,4827.18,7600,4220,4147.18,4161.54,4214.87,4106.67,4282.56,4117.44,4138.46,4171.28,4208.72,7549.23,4349.23,0
12_28_46,18,4817.44,7600,4227.18,4152.31,4172.82,4233.33,4120,4295.9,4132.82,4153.33,4171.79,4216.92,7535.9,4336.41,0
12_28_46,19,4797.95,7600,4225.64,4143.59,4166.67,4229.23,4122.56,4299.49,4129.74,4145.13,4149.74,4202.05,7460.51,4329.23,0
12_28_46,20,4804.1,7600,4216.92,4140.51,4157.44,4214.36,4108.21,4288.21,4117.95,4138.46,4151.28,4195.38,7410.77,4342.56,0
12_28_46,21,4813.85,7600,4223.08,4151.28,4168.72,4217.44,4102.56,4283.08,4120.51,4143.59,4165.13,4209.23,7413.85,4344.1,0
12_28_46,22,4814.87,7600,4234.87,4159.49,4183.59,4232.31,4108.21,4284.1,4124.62,4147.18,4169.23,4218.46,7436.41,4344.62,0
12_28_46,23,4798.97,7600,4231.28,4153.85,4185.13,4241.03,4113.85,4286.67,4125.13,4152.31,4168.72,4211.28,7468.72,4345.13,0
12_28_46,24,4780.51,7600,4228.21,4150.77,4192.31,4245.64,4117.44,4292.31,4135.38,4155.9,4169.23,4209.23,7461.03,4344.1,0
12_28_46,25,4793.33,7600,4242.05,4155.9,4199.49,4251.28,4115.38,4296.92,4144.62,4155.9,4172.82,4225.13,7361.54,4358.97,0
12_28_46,26,4797.44,7600,4248.21,4157.95,4189.74,4250.77,4102.56,4286.15,4134.87,4157.44,4181.03,4231.28,7273.33,4371.79,0
12_28_46,27,4757.95,7600,4235.9,4151.79,4186.67,4247.69,4090.77,4269.74,4123.08,4151.79,4178.97,4211.79,7261.54,4349.23,0
12_28_46,28,4734.36,7600,4229.74,4151.79,4198.46,4249.74,4088.72,4266.67,4123.59,4136.41,4162.05,4195.9,7215.9,4326.67,0
12_28_46,29,4737.44,7600,4233.85,4150.26,4200,4250.77,4091.79,4277.95,4130.77,4140,4157.44,4196.41,7140,4330.26,0
12_28_46,30,4721.03,7600,4228.72,4136.92,4187.18,4249.74,4093.33,4280.51,4130.77,4146.67,4163.59,4191.28,7125.64,4326.15,0
12_28_46,31,4696.41,7600,4216.92,4136.92,4186.67,4250.77,4094.36,4264.1,4121.54,4130.26,4159.49,4182.05,7124.1,4313.85,0
12_28_46,32,4678.97,7600,4213.33,4143.08,4197.44,4251.79,4102.05,4260,4118.46,4124.1,4152.31,4181.03,7096.92,4303.59,0
12_28_46,33,4671.28,7600,4220.51,4137.95,4200.51,4250.77,4108.21,4267.69,4124.62,4135.38,4151.28,4183.08,7152.31,4307.18,0
12_28_46,34,4679.49,7600,4232.31,4141.54,4196.92,4248.21,4102.05,4259.49,4121.03,4128.21,4152.31,4187.18,7275.9,4325.13,0
12_28_46,35,4666.15,7600,4232.82,4150.77,4197.44,4246.15,4090.77,4240.51,4105.13,4113.85,4151.28,4184.62,7333.85,4319.49,0
12_28_46,36,4641.03,7600,4228.72,4149.74,4199.49,4246.15,4087.18,4238.97,4108.21,4127.18,4152.31,4181.03,7340.51,4301.03,0
12_28_46,37,4643.08,7600,4234.36,4150.77,4202.56,4248.21,4085.13,4245.13,4121.03,4138.97,4154.87,4188.21,7364.62,4306.67,0
12_28_46,38,4637.44,7600,4237.95,4155.38,4205.13,4250.26,4080.51,4246.67,4116.92,4123.59,4160,4189.74,7389.74,4313.85,0
12_28_46,39,4621.03,7600,4236.41,4150.77,4209.23,4254.36,4085.64,4255.38,4116.41,4123.59,4167.69,4183.08,7405.13,4304.62,0
12_28_46,40,4628.21,7600,4244.62,4153.33,4217.95,4258.97,4092.31,4258.97,4126.15,4140,4165.64,4190.77,7425.13,4306.67,0
12_28_46,41,4633.33,7600,4251.28,4164.1,4219.49,4257.44,4085.13,4251.79,4125.13,4129.74,4155.38,4197.95,7425.13,4315.9,0
12_28_46,42,4611.28,7600,4242.56,4166.15,4212.82,4252.31,4071.28,4243.59,4112.31,4107.18,4150.26,4185.64,7394.87,4301.54,0
12_28_46,43,4604.1,7600,4241.03,4163.59,4215.9,4248.72,4066.15,4235.9,4107.69,4117.95,4160,4181.54,7373.85,4298.46,0
12_28_46,44,4630.77,7600,4257.44,4172.31,4227.69,4246.15,4064.62,4229.23,4107.18,4130.77,4170.26,4200.51,7368.21,4328.21,0
12_28_46,45,4639.49,7600,4268.72,4189.74,4232.82,4242.05,4063.08,4228.72,4105.13,4118.46,4172.31,4215.38,7368.21,4339.49,0
12_28_46,46,4607.69,7600,4263.08,4192.31,4230.77,4243.59,4069.23,4234.87,4108.72,4118.46,4176.92,4211.28,7375.9,4314.87,0
12_28_46,47,4593.33,7600,4258.46,4189.74,4225.64,4245.13,4076.41,4237.95,4108.72,4125.64,4166.67,4197.95,7373.85,4302.56,0
12_28_46,48,4612.82,7600,4262.56,4196.41,4226.67,4238.97,4073.33,4230.26,4096.92,4109.74,4148.72,4188.72,7357.44,4314.36,0
12_28_46,49,4618.97,7600,4265.64,4204.1,4233.33,4238.46,4072.82,4218.97,4090.26,4095.9,4148.21,4189.23,7364.62,4316.92,0
12_28_46,50,4598.46,7600,4261.54,4203.59,4235.9,4245.13,4080,4215.9,4092.31,4097.44,4146.67,4183.08,7374.36,4301.03,0
12_28_47,51,4588.72,7600,4258.46,4198.97,4228.21,4240,4072.31,4210.26,4079.49,4086.67,4126.67,4174.87,7340.51,4286.67,0
12_28_47,52,4610.26,7600,4268.72,4202.05,4226.67,4228.21,4057.95,4197.44,4069.23,4069.74,4124.1,4183.59,7313.85,4297.44,0
12_28_47,53,4615.9,7600,4278.46,4209.23,4245.13,4234.36,4061.54,4189.74,4076.92,4082.56,4142.05,4187.18,7315.9,4302.56,0
12_28_47,54,4575.38,7600,4265.64,4209.74,4219.49,4235.38,4063.08,4180.51,4066.15,4090.77,4131.28,4166.67,7282.05,4268.72,0
12_28_47,55,4561.03,7600,4258.97,4221.03,4188.72,4215.38,4062.56,4181.54,4054.87,4042.56,4118.46,4161.03,7238.97,4253.33,0
12_28_47,56,4586.15,7602.56,4270.77,4234.87,4237.95,4213.85,4072.31,4193.33,4067.18,4021.54,4126.67,4170.77,7214.87,4277.95,0
12_28_47,57,4566.67,7607.69,4261.54,4222.05,4258.97,4235.9,4074.87,4185.64,4061.03,4037.44,4121.03,4155.38,7153.33,4268.72,0
12_28_47,58,4520.51,7609.23,4247.18,4216.92,4202.05,4235.9,4072.82,4173.33,4045.64,4002.56,4125.64,4145.13,7078.46,4222.56,0
12_28_47,59,4508.72,7619.49,4252.82,4230.77,4256.92,4228.21,4071.28,4171.28,4057.44,3997.95,4120,4152.31,7056.92,4230.26,0
12_28_47,60,4500,7627.69,4253.85,4235.9,4326.15,4231.79,4061.54,4156.92,4060.51,4034.36,4111.79,4148.72,7000.51,4247.69,0
12_28_47,61,4493.33,7593.85,4255.9,4233.85,4267.18,4218.46,4061.54,4151.28,4056.41,4039.49,4161.54,4163.08,6902.56,4228.72,0
12_28_47,62,4495.38,7492.82,4274.36,4252.31,4244.62,4195.9,4075.9,4169.23,4077.95,4053.85,4189.23,4190.77,6954.87,4233.85,0
12_28_47,63,4472.82,7345.64,4285.64,4279.49,4300,4197.95,4076.92,4176.92,4095.9,4086.15,4154.36,4189.23,7028.21,4246.67,0
12_28_47,64,4453.85,7154.36,4284.62,4254.87,4336.41,4206.67,4076.41,4174.87,4107.18,4084.1,4151.28,4184.1,6941.03,4229.74,0
12_28_47,65,4445.64,6874.87,4273.85,4197.95,4341.03,4189.74,4083.59,4173.85,4122.05,4080.51,4161.03,4181.03,6928.72,4190.77,0
12_28_47,66,4405.64,6625.13,4260,4195.38,4308.21,4174.36,4083.08,4160.51,4115.38,4091.28,4121.03,4148.21,7043.59,4148.21,0
12_28_47,67,4374.36,6590.77,4263.59,4225.13,4288.72,4177.95,4088.21,4155.9,4105.64,4078.46,4120,4133.85,7016.92,4153.33,0
12_28_47,68,4377.44,6656.41,4266.15,4205.64,4327.18,4171.79,4089.74,4153.33,4108.72,4076.92,4149.74,4145.13,6925.13,4224.1,0
12_28_47,69,4361.03,6606.67,4254.87,4191.79,4332.82,4147.69,4076.41,4130.77,4105.64,4082.05,4136.92,4139.49,6962.56,4267.18,0
12_28_47,70,4331.28,6494.36,4256.41,4222.56,4284.62,4127.18,4071.79,4114.87,4100.51,4072.82,4134.87,4139.49,6938.97,4242.05,0
12_28_47,71,4323.08,6397.95,4253.33,4224.62,4274.87,4122.56,4069.74,4096.41,4085.64,4060,4143.59,4134.36,6758.46,4196.92,0
12_28_47,72,4314.36,6250.26,4233.85,4203.08,4288.21,4119.49,4054.36,4071.79,4059.49,4043.08,4130.77,4105.13,6652.82,4132.82,0
12_28_47,81,4163.08,5527.69,4219.49,4168.21,4318.46,4110.77,4126.67,4074.87,4095.38,4129.23,4095.9,4100.51,6148.72,4067.18,0
12_28_47,82,4154.36,5459.49,4204.62,4151.79,4280,4103.59,4119.49,4075.38,4099.49,4080.51,4103.59,4093.85,6080.51,4060,0
12_28_47,83,4143.59,5337.95,4187.18,4138.97,4303.08,4104.62,4128.72,4089.23,4101.03,4053.85,4116.41,4089.23,5960.51,4040,0
12_28_47,84,4137.44,5154.36,4192.82,4133.33,4337.95,4113.33,4144.1,4108.72,4116.92,4115.38,4100.51,4091.28,5900,4044.62,0
12_28_47,85,4118.97,4986.15,4194.36,4128.21,4314.36,4120,4142.56,4107.69,4120.51,4132.82,4071.28,4078.46,5880.51,4043.08,0
12_28_47,86,4094.87,4860.51,4181.54,4131.79,4273.33,4111.79,4131.79,4089.74,4106.67,4083.59,4074.87,4065.13,5796.41,4022.05,0
12_28_47,87,4094.87,4759.49,4181.54,4134.36,4289.74,4102.05,4134.36,4089.23,4106.67,4065.13,4099.49,4075.9,5683.08,4014.87,0
12_28_47,88,4112.82,4695.38,4199.49,4137.95,4334.87,4107.69,4149.23,4107.18,4126.67,4104.62,4117.44,4104.1,5643.08,4031.28,0
12_28_47,89,4107.69,4638.97,4209.74,4140.51,4328.72,4112.31,4149.74,4103.59,4136.92,4135.9,4111.79,4109.23,5614.87,4041.03,0
12_28_47,90,4086.15,4565.64,4199.49,4126.15,4291.79,4107.69,4137.44,4087.18,4120,4123.59,4093.33,4091.28,5526.67,4028.21,0
12_28_47,91,4076.92,4493.85,4190.77,4121.03,4268.72,4105.64,4135.38,4090.77,4107.18,4093.85,4098.46,4085.13,5438.97,4008.21,0
12_28_47,92,4067.18,4430.26,4193.33,4137.44,4273.85,4108.72,4141.03,4098.46,4117.95,4094.36,4109.23,4087.18,5377.95,4003.08,0
12_28_47,93,4055.9,4364.1,4192.31,4134.36,4285.13,4110.77,4138.46,4092.82,4121.03,4104.62,4090.26,4076.41,5316.92,4005.13,0
12_28_47,94,4053.33,4287.69,4187.18,4125.64,4278.46,4108.72,4142.56,4093.85,4106.67,4095.38,4081.03,4072.31,5266.67,4006.67,0
12_28_47,95,4049.74,4210.26,4184.1,4127.18,4292.31,4111.79,4151.28,4100,4105.13,4097.95,4091.28,4078.97,5225.13,4003.59,0
12_28_47,96,4031.28,4137.95,4174.36,4105.13,4306.67,4111.28,4141.03,4092.31,4107.18,4081.03,4078.97,4064.62,5155.38,3982.05,0
12_28_47,97,4021.03,4077.95,4165.13,4087.18,4275.38,4100,4132.31,4088.21,4099.49,4066.67,4063.08,4054.36,5084.62,3971.79,0
12_28_47,98,4028.21,4035.9,4169.23,4100.51,4269.74,4101.03,4146.15,4099.49,4102.05,4101.54,4071.28,4069.23,5053.33,3993.33,0
12_28_47,99,4029.23,3993.85,4172.31,4109.23,4307.18,4109.74,4153.85,4105.64,4117.44,4126.67,4077.95,4078.97,5032.31,4003.59,0
12_28_47,99,4029.23,3993.85,4172.31,4109.23,4307.18,4109.74,4153.85,4105.64,4117.44,4126.67,4077.95,4078.97,5032.31,4003.59,0
12_28_47,100,4018.46,3928.21,4168.72,4104.62,4273.85,4104.62,4140.51,4095.9,4116.41,4105.13,4077.95,4071.79,5004.1,3990.26,0
12_28_47,101,4011.79,3865.13,4163.59,4108.21,4231.79,4103.59,4132.31,4088.72,4107.18,4086.15,4087.69,4066.67,5008.72,3980.51,0
12_28_47,102,4018.46,3841.54,4160.51,4103.59,4277.95,4110.77,4138.46,4096.41,4125.13,4107.18,4098.46,4073.33,5057.95,3988.72,0
12_28_47,103,4017.44,3820,4164.62,4090.26,4288.72,4104.62,4138.97,4096.92,4136.92,4116.41,4094.36,4075.9,5085.64,3998.46,0
12_28_47,104,4006.67,3785.13,4170.26,4095.38,4256.41,4101.54,4136.92,4089.74,4123.59,4104.1,4086.15,4072.82,5078.97,3997.44,0
12_28_47,105,4007.69,3762.05,4168.72,4104.62,4268.21,4109.74,4143.59,4092.31,4122.56,4101.54,4090.77,4076.41,5079.49,3994.87,0
12_28_47,106,4011.79,3732.82,4166.15,4102.56,4285.13,4111.79,4145.13,4095.9,4132.31,4108.21,4092.82,4081.03,5090.77,4000.51,0
12_28_47,107,4007.18,3682.05,4168.21,4098.46,4259.49,4104.62,4139.49,4093.33,4131.79,4099.49,4082.56,4074.87,5088.72,4003.08,0
12_28_47,108,3997.95,3630.77,4168.72,4096.92,4246.67,4097.95,4138.46,4092.31,4132.82,4092.31,4082.56,4075.38,5078.97,3991.79,0
12_28_47,109,3992.31,3581.54,4160.51,4089.74,4258.46,4095.9,4138.46,4088.21,4131.28,4106.15,4091.28,4075.9,5085.13,3989.23,0
12_28_47,110,3990.77,3529.74,4152.82,4083.59,4249.74,4098.46,4133.85,4082.56,4122.05,4106.67,4087.69,4066.67,5094.36,3998.97,0
12_28_47,111,3994.36,3486.67,4155.38,4084.1,4218.97,4094.36,4130.77,4086.15,4134.36,4102.05,4090.77,4068.72,5084.1,4002.05,0
12_28_47,112,3986.67,3442.05,4156.92,4086.67,4210.26,4090.26,4133.85,4082.05,4142.56,4096.92,4105.13,4080,5061.54,3992.82,0
12_28_47,113,3971.79,3390.77,4149.23,4086.67,4246.67,4104.62,4135.38,4069.74,4127.69,4085.13,4103.59,4075.38,5038.97,3986.15,0
12_28_47,114,3976.92,3362.05,4152.82,4087.18,4264.1,4117.95,4136.92,4076.41,4133.85,4092.31,4091.28,4070.26,5016.92,3997.44,0
12_28_47,115,3996.41,3356.41,4166.15,4088.72,4253.33,4110.26,4137.44,4091.28,4151.28,4111.79,4093.85,4087.69,4998.97,4010.77,0
12_28_47,116,4008.72,3345.64,4173.33,4088.72,4270.26,4103.59,4140.51,4094.87,4154.87,4124.62,4108.72,4109.23,4983.59,4020,0
12_28_47,117,4003.08,3309.74,4170.77,4085.64,4269.23,4106.67,4140,4093.85,4158.97,4130.26,4111.79,4107.69,4952.82,4023.08,0
12_28_47,118,3991.28,3260,4163.59,4085.64,4219.49,4101.54,4132.82,4089.74,4158.46,4128.72,4102.05,4092.31,4909.74,4017.44,0
12_28_47,119,3988.72,3222.05,4164.1,4086.15,4210.26,4092.82,4130.77,4088.21,4142.56,4108.72,4104.62,4091.79,4866.67,4009.74,0
12_28_47,120,3990.77,3202.05,4167.18,4080,4235.9,4089.74,4134.87,4086.67,4135.38,4093.33,4112.82,4101.03,4832.82,4010.77,0
12_28_47,121,3983.59,3182.56,4162.56,4075.9,4235.9,4090.26,4135.9,4082.05,4141.54,4103.59,4107.69,4095.9,4809.23,4014.87,0
12_28_47,122,3972.82,3150.26,4152.82,4071.28,4235.9,4091.79,4134.87,4081.54,4134.87,4112.31,4089.23,4083.59,4786.15,4009.74,0
12_28_47,123,3973.85,3121.03,4151.79,4069.74,4228.72,4090.26,4137.44,4090.77,4134.36,4107.69,4086.15,4083.08,4761.03,4003.08,0
12_28_47,124,3972.82,3094.87,4155.38,4077.44,4209.23,4096.41,4140,4094.87,4142.05,4095.38,4105.64,4085.64,4724.62,3997.95,0
12_28_47,125,3964.62,3054.87,4153.33,4073.33,4205.13,4101.03,4133.85,4085.13,4129.23,4074.87,4107.18,4082.05,4680.51,3993.85,0
12_28_47,126,3968.21,3029.23,4152.82,4060,4223.59,4096.92,4127.69,4076.41,4125.13,4088.72,4089.23,4084.62,4661.54,3998.97,0
12_28_47,127,3980,3027.69,4157.95,4062.05,4222.56,4093.33,4127.69,4080.51,4143.08,4127.69,4091.28,4094.36,4662.56,4009.23,0
12_28_47,128,3976.92,3000.51,4160,4078.46,4179.49,4085.64,4125.13,4083.59,4145.64,4116.92,4107.18,4097.44,4635.9,4007.18,0
12_28_47,0,3968.21,2963.59,4157.44,4082.56,4180,4083.59,4119.49,4074.87,4131.28,4084.1,4110.77,4096.92,4592.31,3999.49,0
12_28_47,1,3973.85,2966.15,4161.03,4072.31,4247.69,4096.41,4124.62,4067.18,4124.1,4102.56,4100.51,4096.92,4576.92,4005.13,0
12_28_47,2,3986.15,2974.36,4167.18,4067.69,4261.54,4106.67,4133.33,4076.92,4128.21,4128.72,4093.85,4096.41,4577.95,4018.46,0
12_28_47,3,3977.95,2940,4161.54,4077.95,4199.49,4103.08,4129.23,4078.97,4128.21,4100,4094.36,4089.74,4546.15,4011.79,0
12_28_47,4,3956.41,2898.46,4146.15,4082.05,4194.87,4099.49,4118.97,4064.62,4123.08,4070.26,4095.38,4076.41,4488.72,3986.67,0
12_28_47,5,3957.44,2896.41,4144.1,4067.69,4223.59,4089.74,4118.46,4065.13,4121.03,4084.62,4093.85,4071.79,4458.97,3986.15,0
12_28_47,6,3969.74,2898.46,4151.79,4060.51,4206.15,4085.13,4122.05,4076.92,4124.62,4094.87,4091.28,4075.9,4448.72,4000,0
12_28_47,7,3970.77,2881.03,4154.36,4071.28,4202.56,4104.1,4123.59,4081.54,4131.28,4096.92,4093.33,4079.49,4427.69,3995.9,0
12_28_47,8,3969.23,2866.15,4154.36,4082.56,4215.38,4110.77,4126.67,4085.64,4140,4115.9,4103.08,4089.74,4408.72,3993.85,0
12_28_47,9,3974.87,2854.87,4159.49,4088.21,4200.51,4100,4129.74,4093.33,4145.13,4126.15,4113.85,4101.54,4397.95,4008.72,0
12_28_47,9,3974.87,2854.87,4159.49,4088.21,4200.51,4100,4129.74,4093.33,4145.13,4126.15,4113.85,4101.54,4397.95,4008.72,0
12_28_47,10,3979.49,2848.21,4164.62,4087.18,4195.38,4103.59,4128.21,4095.9,4143.59,4116.92,4110.26,4099.49,4376.41,4018.97,0
12_28_47,11,3977.44,2843.08,4160,4084.62,4219.49,4113.33,4125.64,4088.21,4138.46,4111.28,4101.03,4088.72,4345.64,4011.28,0
12_28_47,12,3975.9,2825.64,4153.33,4089.23,4224.62,4109.23,4125.64,4079.49,4135.9,4104.1,4105.64,4089.23,4326.67,4002.56,0
12_28_47,13,3972.31,2803.08,4153.33,4086.15,4205.64,4100,4124.62,4073.85,4131.28,4093.85,4108.72,4091.28,4316.41,4002.05,0
12_28_47,14,3967.18,2794.87,4153.85,4075.38,4200.51,4103.08,4123.08,4067.69,4122.05,4100.51,4102.05,4083.59,4297.95,4004.62,0
12_28_47,15,3959.49,2774.87,4145.13,4077.44,4203.59,4109.23,4122.56,4064.62,4113.33,4096.92,4093.85,4074.36,4275.9,3997.95,0
12_28_47,16,3956.41,2744.1,4136.41,4084.1,4202.56,4103.59,4121.03,4070.77,4115.38,4087.69,4090.26,4073.33,4254.36,3994.36,0
12_28_47,17,3965.13,2734.87,4139.49,4076.92,4195.9,4097.44,4122.05,4078.46,4129.74,4098.97,4096.41,4082.56,4220,4006.15,0
12_28_47,18,3968.72,2723.59,4141.03,4073.33,4186.15,4102.56,4123.08,4077.95,4135.38,4110.77,4104.62,4091.28,4184.1,4013.85,0
12_28_47,19,3964.62,2695.9,4138.46,4076.92,4184.1,4102.05,4122.05,4075.38,4126.67,4110.26,4106.15,4091.79,4170.26,4012.31,0
12_28_47,20,3965.13,2673.85,4138.97,4076.41,4182.05,4093.85,4124.1,4075.38,4123.08,4105.13,4105.13,4090.77,4157.95,4011.28,0
12_28_47,21,3966.15,2656.41,4140.51,4074.36,4171.28,4092.31,4121.54,4077.95,4125.64,4094.87,4102.56,4093.33,4131.79,4009.23,0
12_28_47,22,3960.51,2636.92,4136.41,4070.77,4158.46,4090.26,4111.79,4073.33,4112.31,4079.49,4091.79,4090.77,4112.31,4002.56,0
12_28_47,23,3969.23,2626.15,4135.9,4070.77,4156.92,4085.13,4109.74,4060,4096.41,4071.28,4083.59,4086.67,4095.38,4012.82,0
12_28_47,24,4003.59,2625.13,4147.18,4083.59,4158.97,4086.15,4112.82,4060,4102.05,4075.38,4096.92,4097.44,4088.72,4047.18,0
12_28_47,25,4022.05,2622.56,4154.36,4090.77,4155.9,4088.21,4111.28,4069.23,4108.21,4081.03,4107.69,4109.23,4094.87,4067.18,0
12_28_47,26,4026.15,2620.51,4152.31,4080.51,4152.82,4088.72,4111.28,4066.15,4104.62,4084.1,4103.08,4107.69,4088.72,4067.69,0
12_28_47,27,4061.54,2628.72,4154.87,4087.18,4156.41,4091.79,4114.36,4061.03,4103.59,4087.69,4109.74,4112.31,4080.51,4096.41,0
12_28_47,28,4124.1,2641.54,4170.26,4111.28,4157.95,4093.33,4114.87,4069.23,4109.74,4096.41,4133.33,4132.82,4092.82,4143.08,0
12_28_47,29,4157.44,2638.46,4181.03,4118.46,4157.44,4095.9,4116.41,4077.44,4120,4107.69,4145.64,4144.1,4098.97,4158.46,0
12_28_47,30,4150.77,2643.59,4175.38,4116.92,4157.44,4100,4122.05,4075.9,4123.08,4110.26,4140.51,4144.62,4075.9,4159.49,0
12_28_47,31,4158.97,2694.36,4175.38,4121.54,4151.79,4097.95,4121.03,4072.82,4112.82,4102.56,4141.54,4151.28,4061.54,4186.15,0
12_28_47,32,4174.36,2770.77,4181.54,4117.44,4148.21,4094.87,4113.85,4074.87,4110.77,4101.03,4147.18,4156.92,4064.1,4213.85,0
12_28_47,33,4164.62,2855.38,4177.95,4107.18,4147.69,4094.36,4111.79,4081.03,4121.03,4109.74,4149.23,4157.44,4069.23,4218.46,0
12_28_47,34,4155.9,3002.56,4167.69,4102.56,4141.03,4094.87,4112.82,4082.56,4116.41,4111.28,4144.62,4153.85,4099.49,4216.41,0
12_28_47,35,4181.03,3241.54,4167.18,4098.46,4136.41,4098.46,4108.72,4081.03,4104.1,4106.67,4134.36,4148.72,4174.36,4234.36,0
12_28_47,36,4209.74,3520.51,4172.31,4091.28,4136.92,4104.1,4106.15,4085.13,4110.77,4116.92,4141.54,4156.92,4283.08,4265.64,0
12_28_47,37,4214.36,3791.28,4171.28,4090.26,4137.95,4108.72,4107.18,4092.31,4118.46,4123.59,4148.72,4166.15,4359.49,4277.95,0
12_28_47,38,4216.41,4047.69,4168.72,4095.38,4138.46,4107.69,4105.64,4090.77,4108.72,4111.79,4134.87,4160.51,4387.69,4263.08,0
12_28_47,39,4214.36,4274.87,4167.18,4096.92,4131.28,4105.64,4104.62,4084.1,4101.03,4105.64,4124.1,4149.74,4424.1,4223.08,0
12_28_47,40,4200.51,4446.67,4165.13,4090.77,4127.18,4113.33,4107.69,4092.82,4106.15,4111.79,4124.62,4142.56,4496.92,4178.97,0
12_28_47,41,4202.05,4588.72,4167.18,4089.23,4132.82,4123.08,4109.23,4108.21,4106.67,4112.82,4121.54,4143.08,4606.67,4180.51,0
12_28_47,42,4215.9,4739.49,4173.33,4093.85,4129.74,4121.03,4105.64,4109.74,4101.54,4108.21,4122.56,4153.33,4769.23,4197.95,0
12_28_47,43,4208.72,4851.28,4175.38,4092.82,4124.62,4119.49,4107.18,4111.28,4101.54,4112.31,4130.26,4158.46,4946.67,4169.74,0
12_28_47,44,4195.38,4901.03,4176.41,4092.31,4136.92,4132.82,4113.85,4122.56,4106.67,4119.49,4128.72,4160.51,5037.95,4141.03,0
12_28_47,45,4202.05,4936.41,4184.1,4099.49,4143.08,4141.03,4112.82,4134.36,4116.92,4122.56,4127.69,4171.28,5012.82,4158.46,0
12_28_47,46,4200,4966.67,4186.15,4105.64,4135.9,4137.44,4106.67,4140,4125.13,4124.62,4136.92,4176.92,4957.95,4175.9,0
12_28_47,47,4186.67,4957.95,4181.03,4106.67,4137.95,4136.92,4102.05,4135.9,4118.97,4123.08,4144.62,4174.36,4936.92,4171.28,0
12_28_47,48,4180,4931.28,4176.92,4103.08,4140,4137.95,4098.97,4124.1,4104.1,4114.36,4135.9,4172.31,4882.05,4158.46,0
12_28_47,49,4173.33,4927.69,4174.87,4101.03,4135.9,4137.44,4101.54,4121.03,4096.92,4105.13,4121.03,4168.72,4752.31,4150.77,0
12_28_47,50,4172.82,4942.05,4177.44,4104.62,4136.92,4137.95,4105.64,4125.13,4098.46,4107.18,4125.64,4169.74,4644.1,4166.15,0
12_28_47,51,4169.74,4937.44,4178.46,4100,4135.9,4137.95,4102.56,4122.56,4095.38,4106.15,4130.26,4166.15,4603.59,4169.23,0
12_28_47,52,4158.46,4907.69,4175.9,4091.79,4134.87,4138.97,4100.51,4126.67,4095.9,4104.1,4122.56,4158.97,4561.03,4147.69,0
12_28_47,53,4163.59,4880.51,4180,4096.41,4137.95,4140,4105.64,4139.49,4103.59,4108.72,4121.54,4166.15,4489.74,4156.41,0
12_28_47,54,4172.31,4858.46,4178.46,4098.97,4130.77,4137.44,4106.67,4142.56,4100.51,4105.13,4125.64,4173.33,4440.51,4175.38,0
12_28_47,55,4156.92,4823.08,4170.26,4089.23,4123.08,4136.92,4104.1,4134.87,4090.26,4100.51,4122.56,4160,4413.85,4156.41,0
12_28_48,56,4149.74,4785.64,4171.28,4090.26,4130.77,4142.56,4098.46,4129.74,4092.82,4104.62,4121.03,4149.23,4369.23,4151.28,0
12_28_48,57,4156.92,4726.15,4174.36,4095.38,4136.41,4142.56,4089.23,4122.05,4090.26,4104.62,4124.1,4155.9,4324.1,4172.82,0
12_28_48,58,4153.33,4639.49,4174.36,4091.28,4127.18,4136.41,4085.64,4110.26,4077.95,4098.97,4124.1,4159.49,4295.38,4170.26,0
12_28_48,59,4152.82,4568.21,4180,4098.46,4126.15,4135.9,4089.74,4113.85,4082.05,4102.05,4122.56,4157.95,4248.21,4160.51,0
12_28_48,60,4152.82,4513.85,4175.9,4105.13,4133.33,4137.95,4094.36,4128.72,4092.82,4105.13,4121.03,4154.87,4198.97,4168.72,0
12_28_48,61,4145.13,4453.85,4167.69,4101.03,4136.92,4142.05,4101.54,4139.49,4093.33,4106.67,4127.18,4155.9,4194.36,4172.82,0
12_28_48,62,4147.69,4402.56,4170.77,4106.15,4140,4150.77,4105.13,4139.49,4094.36,4109.23,4133.85,4162.56,4195.9,4168.21,0
12_28_48,63,4152.82,4354.87,4172.82,4112.31,4141.03,4153.33,4098.97,4130.26,4095.9,4103.08,4130.26,4163.59,4183.08,4169.23,0
12_28_48,64,4140.51,4302.05,4169.23,4108.21,4139.49,4149.74,4098.46,4121.03,4089.23,4090.26,4125.64,4154.36,4180,4170.26,0
12_28_48,65,4137.95,4266.15,4171.79,4112.31,4141.54,4154.36,4107.69,4123.59,4086.15,4089.23,4126.67,4152.82,4207.69,4164.1,0
12_28_48,66,4141.54,4229.74,4175.38,4115.38,4145.13,4158.97,4110.26,4129.74,4083.59,4091.79,4126.15,4156.41,4241.03,4156.92,0
12_28_48,67,4130.77,4173.33,4171.28,4105.64,4142.05,4153.85,4104.1,4125.64,4075.38,4082.05,4117.44,4146.15,4221.03,4153.85,0
12_28_48,68,4133.33,4134.36,4173.85,4112.31,4138.97,4150.26,4101.03,4120.51,4075.38,4078.97,4119.49,4145.64,4173.33,4163.08,0
12_28_48,69,4133.85,4101.03,4174.87,4120,4138.97,4152.31,4096.41,4122.56,4083.08,4090.77,4130.77,4154.87,4159.49,4162.56,0
12_28_48,70,4117.95,4044.62,4169.23,4107.18,4135.38,4150.26,4091.28,4123.08,4079.49,4086.67,4124.62,4148.72,4145.64,4155.9,0
12_28_48,71,4122.05,3993.33,4173.85,4105.64,4136.41,4150.26,4096.41,4122.05,4073.85,4076.92,4117.44,4149.23,4116.92,4165.13,0
12_28_48,72,4130.26,3961.54,4178.46,4116.92,4146.15,4152.82,4101.54,4124.1,4080.51,4085.13,4131.79,4158.97,4117.44,4172.82,0
12_28_48,73,4123.59,3934.36,4176.41,4120.51,4149.74,4154.87,4098.97,4124.1,4083.08,4091.79,4138.46,4158.97,4122.05,4169.74,0
12_28_48,74,4124.62,3914.36,4178.97,4128.72,4149.74,4161.54,4101.54,4124.62,4081.54,4089.23,4126.67,4157.44,4095.38,4168.21,0
12_28_48,75,4120.51,3891.79,4175.9,4133.85,4153.85,4170.77,4109.74,4128.21,4085.13,4090.26,4118.97,4154.36,4074.36,4158.97,0
12_28_48,76,4113.33,3859.49,4164.1,4123.08,4151.79,4172.31,4104.62,4123.59,4079.49,4087.18,4112.31,4141.54,4072.82,4151.28,0
12_28_48,77,4131.28,3836.41,4168.21,4125.13,4141.03,4168.21,4098.46,4118.46,4074.36,4086.15,4112.82,4144.1,4076.92,4165.13,0
12_28_48,78,4141.03,3810.26,4177.44,4136.41,4139.49,4167.69,4100.51,4118.97,4082.05,4095.9,4124.62,4157.95,4071.28,4173.85,0
12_28_48,79,4120.51,3769.74,4173.85,4133.33,4144.1,4167.18,4094.87,4110.26,4075.38,4092.31,4117.95,4155.9,4050.26,4159.49,0
12_28_48,80,4118.46,3733.33,4173.85,4127.69,4138.46,4166.67,4087.69,4102.56,4059.49,4076.41,4105.64,4151.79,4039.49,4154.36,0
12_28_48,81,4135.9,3707.18,4175.9,4131.79,4138.46,4171.28,4094.36,4107.18,4060,4072.31,4111.79,4156.41,4029.23,4165.64,0
12_28_48,82,4133.85,3685.64,4171.79,4136.92,4150.26,4173.33,4099.49,4109.74,4067.18,4076.92,4112.82,4153.85,4002.05,4167.69,0
12_28_48,83,4120,3667.18,4170.26,4138.97,4155.38,4171.79,4094.87,4104.1,4068.21,4077.44,4106.15,4141.54,3983.59,4152.82,0
12_28_48,84,4117.95,3650.26,4169.23,4142.05,4151.28,4170.77,4091.28,4101.54,4071.28,4076.92,4106.15,4134.87,3980,4138.46,0
12_28_48,85,4125.64,3636.41,4171.28,4149.23,4150.26,4169.74,4094.36,4107.69,4074.87,4082.56,4103.08,4139.49,3976.41,4140,0
12_28_48,86,4119.49,3625.64,4173.33,4151.79,4153.85,4168.72,4096.41,4110.77,4071.79,4080,4092.82,4136.41,3969.23,4138.46,0
12_28_48,87,4109.74,3609.23,4169.23,4146.15,4153.85,4169.74,4092.82,4105.64,4065.64,4069.74,4086.67,4123.08,3957.44,4122.05,0
12_28_48,88,4116.41,3593.33,4173.85,4149.23,4150.77,4167.69,4094.36,4104.1,4064.1,4069.23,4090.26,4125.13,3952.82,4118.46,0
12_28_48,89,4129.74,3575.9,4184.1,4157.44,4144.1,4163.59,4097.95,4106.15,4067.69,4074.87,4095.38,4137.44,3961.03,4130.26,0
12_28_48,90,4123.08,3543.08,4173.85,4153.33,4155.38,4176.41,4092.82,4096.41,4055.9,4060.51,4075.9,4120.51,3942.56,4125.13,0
12_28_48,91,4109.23,3521.03,4161.03,4150.26,4173.33,4189.74,4087.18,4086.15,4042.05,4040.51,4051.79,4096.41,3915.9,4110.77,0
12_28_48,92,4113.85,3522.56,4168.72,4164.1,4165.13,4174.36,4089.74,4090.77,4052.82,4055.38,4068.21,4106.67,3936.92,4113.85,0
12_28_48,93,4124.62,3516.41,4175.9,4172.82,4156.41,4159.49,4095.9,4101.03,4066.67,4079.49,4094.87,4127.18,3957.95,4124.1,0
12_28_48,94,4130.26,3503.59,4177.44,4170.26,4164.62,4166.15,4099.49,4103.08,4064.1,4074.87,4091.79,4132.31,3938.46,4133.33,0
12_28_48,95,4126.15,3501.54,4177.95,4169.23,4163.08,4172.31,4097.95,4095.9,4058.46,4063.59,4086.67,4130.77,3931.79,4136.41,0
12_28_48,96,4125.13,3500,4179.49,4171.28,4151.28,4165.64,4096.92,4092.31,4059.49,4065.13,4095.38,4131.28,3964.62,4134.87,0
12_28_48,97,4118.97,3481.03,4179.49,4165.64,4152.82,4159.49,4100.51,4100.51,4060.51,4064.62,4093.33,4127.69,3996.92,4127.18,0
12_28_48,98,4105.13,3460,4173.85,4160.51,4155.38,4159.49,4100,4106.67,4066.15,4066.67,4083.59,4121.03,4010.77,4116.41,0
12_28_48,99,4117.44,3453.33,4171.79,4167.69,4153.85,4164.1,4100.51,4108.21,4076.41,4076.41,4084.1,4123.08,4016.92,4127.69,0
12_28_48,100,4121.54,3447.69,4171.28,4172.31,4162.56,4168.72,4101.54,4103.08,4079.49,4071.79,4086.15,4120,4023.59,4130.77,0
12_28_48,101,4095.9,3446.67,4165.64,4170.26,4169.74,4167.69,4093.33,4087.69,4071.28,4056.41,4080,4106.67,4040.51,4102.56,0
12_28_48,102,4088.72,3456.41,4163.59,4170.26,4169.23,4168.21,4093.85,4083.59,4067.69,4055.9,4075.38,4102.56,4067.18,4091.28,0
12_28_48,103,4104.62,3467.18,4169.74,4173.33,4165.64,4164.62,4101.54,4092.31,4074.36,4062.56,4076.92,4110.77,4081.03,4108.72,0
12_28_48,104,4103.59,3467.18,4171.28,4178.46,4163.59,4153.33,4096.92,4090.77,4074.87,4059.49,4073.33,4108.72,4074.87,4111.79,0
12_28_48,105,4103.59,3461.54,4171.28,4185.13,4165.64,4153.33,4096.41,4087.69,4074.87,4057.95,4075.38,4108.72,4081.03,4110.77,0
12_28_48,106,4100.51,3445.64,4174.36,4186.67,4159.49,4161.03,4107.69,4094.36,4075.38,4061.54,4079.49,4112.82,4094.36,4109.74,0
12_28_48,107,4083.08,3418.97,4170.26,4180,4153.85,4161.03,4110.77,4102.05,4076.92,4061.54,4076.92,4111.79,4094.36,4096.92,0
12_28_48,108,4096.92,3409.23,4172.82,4184.1,4161.03,4156.41,4106.67,4103.08,4087.18,4068.21,4083.59,4120.51,4096.92,4108.21,0
12_28_48,109,4104.1,3386.67,4175.38,4188.21,4166.67,4157.95,4106.67,4097.44,4091.28,4075.38,4088.72,4122.56,4105.64,4113.33,0
12_28_48,110,4074.36,3345.64,4165.13,4179.49,4160.51,4159.49,4107.18,4088.72,4078.46,4064.62,4074.87,4101.54,4111.28,4086.15,0
12_28_48,111,4072.31,3326.15,4160,4180.51,4161.54,4154.87,4105.13,4089.74,4073.85,4057.95,4069.74,4094.36,4108.72,4081.03,0
12_28_48,112,4092.82,3305.13,4160.51,4180.51,4171.79,4154.36,4096.92,4085.64,4070.77,4058.46,4069.74,4094.87,4081.03,4092.31,0
12_28_48,113,4094.87,3268.72,4162.56,4173.85,4171.28,4158.46,4090.26,4071.79,4058.46,4045.64,4058.46,4087.69,4057.95,4093.85,0
12_28_48,114,4085.64,3244.1,4165.13,4181.03,4161.03,4149.74,4092.82,4077.95,4063.08,4045.64,4063.08,4093.33,4082.56,4092.82,0
12_28_48,115,4074.87,3222.05,4158.97,4187.18,4153.85,4136.92,4097.95,4090.77,4070.26,4061.54,4070.77,4096.92,4100,4080,0
12_28_48,116,4076.92,3193.33,4157.44,4179.49,4158.46,4143.59,4102.56,4085.13,4062.05,4061.54,4059.49,4088.72,4077.95,4074.87,0
12_28_48,117,4088.72,3182.56,4169.74,4182.05,4166.15,4152.31,4109.23,4086.15,4068.72,4060.51,4063.59,4097.44,4075.9,4088.72,0
12_28_48,118,4076.92,3171.79,4168.21,4189.23,4169.74,4148.21,4111.28,4093.33,4081.03,4066.67,4077.95,4106.15,4086.67,4081.54,0
12_28_48,119,4068.72,3151.28,4157.44,4186.15,4166.67,4144.62,4109.74,4087.69,4070.77,4060,4067.69,4098.46,4069.23,4075.38,0
12_28_48,120,4076.92,3138.46,4157.95,4185.13,4141.03,4141.54,4105.64,4081.03,4061.03,4045.64,4057.95,4092.31,4047.18,4089.23,0
12_28_48,121,4057.44,3101.54,4151.79,4176.92,4139.49,4138.97,4095.9,4075.38,4058.46,4038.46,4057.95,4084.62,4029.74,4070.77,0
12_28_48,122,4045.64,3071.79,4148.21,4171.28,4167.69,4134.87,4088.21,4064.1,4053.33,4033.33,4060,4083.59,4017.44,4050.77,0
12_28_48,123,4060.51,3057.95,4155.38,4181.54,4131.28,4116.41,4083.59,4055.9,4052.82,4025.64,4073.33,4092.31,4005.13,4075.9,0
12_28_48,124,4054.87,3012.31,4151.79,4187.69,4095.9,4108.21,4081.54,4053.33,4052.82,4020,4087.69,4097.44,3986.67,4077.95,0
12_28_48,125,4048.21,2967.69,4154.36,4191.28,4155.38,4120,4093.33,4065.64,4062.56,4029.23,4102.56,4114.36,3965.64,4049.74,0
12_28_48,126,4047.18,2918.46,4158.46,4188.21,4215.38,4127.69,4102.05,4078.97,4076.41,4055.9,4096.41,4113.33,3946.15,4049.74,0
12_28_48,127,4014.87,2782.56,4138.97,4171.79,4189.74,4125.13,4091.79,4068.21,4061.03,4028.72,4052.31,4068.21,3911.79,4034.36,0
12_28_48,128,3989.74,2580,4132.82,4172.82,4170.77,4118.97,4093.33,4068.21,4056.41,4005.13,4052.82,4066.15,3812.82,4000,0
12_28_48,0,4015.9,2423.08,4158.46,4181.54,4214.87,4113.85,4112.31,4095.38,4104.1,4082.05,4106.15,4120.51,3753.85,4027.18,0
12_28_48,1,4054.36,2336.92,4166.67,4159.49,4247.69,4111.79,4117.44,4105.64,4135.9,4139.49,4113.85,4135.38,3885.13,4075.38,0
12_28_48,2,4061.54,2284.1,4153.33,4138.46,4238.97,4115.9,4106.15,4084.62,4108.21,4096.41,4085.64,4115.38,4065.13,4054.87,0
12_28_48,3,4048.72,2288.72,4156.92,4148.72,4204.62,4112.82,4093.33,4059.49,4082.56,4062.56,4091.79,4115.38,4148.72,4031.28,0
12_28_48,4,4060.51,2366.67,4173.33,4171.28,4181.03,4094.87,4091.79,4052.31,4098.97,4086.67,4132.82,4133.33,4231.79,4072.82,0
12_28_48,5,4075.9,2413.85,4171.79,4176.92,4162.05,4067.18,4101.03,4056.92,4114.36,4088.21,4173.33,4150.26,4326.15,4094.87,0
12_28_48,6,4054.87,2341.03,4153.85,4156.41,4146.67,4060,4106.67,4062.05,4113.33,4089.23,4169.74,4146.67,4320.51,4084.62,0
12_28_48,7,4019.49,2265.64,4137.95,4125.64,4165.13,4076.92,4109.74,4066.67,4110.77,4100,4130.26,4117.44,4265.13,4095.9,0
12_28_48,8,3990.26,2270.77,4127.18,4109.23,4176.92,4081.54,4119.49,4080,4118.97,4081.54,4135.38,4104.62,4258.97,4102.56,0
12_28_48,9,3951.28,2247.18,4120.51,4103.08,4174.87,4076.92,4126.15,4092.31,4135.9,4091.79,4159.49,4116.92,4315.9,4089.23,0
12_28_48,10,3917.44,2183.08,4123.59,4107.69,4170.26,4074.36,4123.08,4090.26,4147.69,4141.54,4148.21,4121.03,4407.69,4089.74,0
12_28_48,11,3896.41,2170.26,4122.05,4111.28,4184.62,4070.77,4121.54,4081.03,4150.26,4156.92,4146.67,4112.82,4469.74,4081.54,0
12_28_48,12,3875.38,2158.97,4108.72,4097.44,4161.03,4058.46,4116.92,4072.82,4138.97,4102.56,4158.46,4107.69,4514.87,4048.72,0
12_28_48,13,3857.44,2081.54,4106.67,4098.97,4113.85,4046.15,4105.13,4055.38,4127.18,4078.46,4155.9,4109.74,4560.51,4026.67,0
12_28_48,14,3845.13,2021.54,4111.79,4103.59,4162.05,4055.9,4098.97,4032.82,4118.97,4123.59,4149.23,4111.28,4535.38,4013.85,0
12_28_48,15,3829.23,1995.9,4101.03,4079.49,4211.28,4061.03,4109.23,4039.49,4118.97,4141.54,4144.62,4107.18,4470.77,3998.46,0
12_28_48,16,3807.18,1913.85,4088.21,4065.64,4160.51,4049.74,4127.69,4065.13,4125.64,4110.77,4131.79,4096.41,4457.95,3983.59,0
12_28_48,17,3798.46,1822.56,4088.72,4068.21,4131.28,4051.79,4137.95,4076.41,4137.44,4098.97,4123.08,4083.08,4482.05,3972.31,0
12_28_48,18,3802.05,1788.72,4083.59,4057.44,4169.23,4064.62,4138.97,4078.46,4146.67,4122.05,4127.18,4083.59,4439.49,3971.79,0
12_28_48,19,3789.74,1753.85,4071.28,4047.69,4162.05,4068.21,4137.44,4075.38,4143.08,4131.28,4125.64,4090.77,4321.03,3968.21,0
12_28_48,20,3787.18,1709.74,4080.51,4064.62,4141.03,4071.79,4141.03,4076.41,4148.21,4114.87,4126.15,4092.82,4233.85,3967.18,0
12_28_48,21,3797.95,1695.38,4089.74,4073.85,4160.51,4073.33,4140.51,4075.9,4146.15,4097.95,4128.21,4083.59,4191.28,3966.15,0
12_28_48,22,3789.23,1683.59,4078.46,4058.46,4156.41,4061.54,4126.15,4054.36,4116.92,4100,4115.38,4072.82,4133.33,3960,0
12_28_48,23,3783.59,1674.36,4078.46,4048.72,4144.62,4054.87,4116.92,4040.51,4106.67,4113.33,4106.67,4080,4083.59,3962.05,0
12_28_48,24,3803.08,1693.85,4093.85,4060.51,4152.82,4059.49,4128.21,4062.56,4130.26,4110.77,4126.15,4094.36,4060,3976.41,0
12_28_48,25,3810.26,1713.33,4095.9,4071.28,4161.54,4064.62,4140,4083.59,4144.62,4108.21,4142.56,4096.92,4013.85,3981.03,0
12_28_48,26,3790.77,1706.15,4083.59,4060,4148.21,4062.56,4137.44,4072.82,4134.36,4110.77,4131.79,4087.18,3943.59,3962.05,0
12_28_48,27,3783.08,1703.08,4076.41,4057.44,4129.74,4060,4134.36,4063.59,4127.69,4098.46,4117.44,4076.92,3900,3947.69,0
12_28_48,28,3793.85,1721.54,4076.41,4061.54,4147.18,4070.77,4139.49,4072.31,4131.79,4101.03,4109.74,4074.36,3895.38,3953.85,0
12_28_48,29,3800.51,1744.1,4080,4048.21,4169.74,4074.87,4142.05,4080.51,4143.08,4123.59,4106.67,4081.03,3903.59,3965.64,0
12_28_48,30,3788.21,1746.15,4075.9,4039.49,4143.08,4061.03,4137.44,4078.46,4142.56,4120,4107.18,4076.41,3885.64,3957.44,0
12_28_48,31,3772.82,1734.87,4063.08,4041.03,4106.15,4054.87,4127.69,4070.77,4122.05,4093.33,4100,4058.97,3829.74,3938.97,0
12_28_48,32,3777.44,1735.38,4063.59,4037.95,4108.72,4062.05,4122.05,4068.72,4114.36,4086.67,4088.72,4058.97,3784.1,3938.46,0
12_28_48,33,3781.03,1733.33,4070.77,4040,4133.33,4066.67,4128.21,4069.74,4120.51,4083.59,4090.77,4069.74,3763.59,3942.05,0
12_28_48,34,3782.56,1727.18,4077.95,4049.74,4154.36,4065.13,4139.49,4071.79,4124.62,4082.56,4106.67,4079.49,3751.28,3946.15,0
12_28_48,35,3790.77,1721.54,4080.51,4049.23,4108.21,4053.85,4137.95,4066.15,4123.59,4091.79,4107.18,4082.05,3736.41,3949.74,0
12_28_48,36,3780,1701.03,4074.87,4045.64,4061.03,4054.36,4129.23,4054.87,4122.56,4084.1,4097.95,4074.36,3702.56,3943.08,0
12_28_48,37,3773.33,1688.21,4072.82,4044.62,4131.79,4072.82,4132.31,4060,4127.18,4090.77,4103.59,4072.82,3675.38,3940.51,0
12_28_48,38,3795.9,1707.69,4077.95,4039.49,4192.82,4074.36,4139.49,4069.23,4128.72,4124.1,4101.03,4075.38,3678.46,3949.23,0
12_28_48,39,3800,1712.31,4073.85,4031.79,4130.26,4062.05,4136.92,4065.13,4111.79,4118.97,4074.36,4063.08,3672.82,3949.23,0
12_28_48,40,3774.36,1682.56,4064.62,4029.74,4083.08,4064.1,4133.85,4063.08,4096.41,4085.13,4065.64,4053.33,3630.77,3934.87,0
12_28_48,41,3776.92,1685.64,4063.59,4036.41,4124.1,4068.21,4137.95,4071.28,4102.05,4091.28,4075.9,4060,3597.95,3930.26,0
12_28_48,42,3792.31,1712.31,4062.05,4042.05,4116.92,4058.97,4135.38,4071.28,4105.13,4090.77,4070.26,4058.97,3584.1,3930.26,0
12_28_48,43,3774.87,1705.64,4055.38,4042.05,4064.1,4057.95,4126.67,4063.08,4098.46,4053.85,4067.69,4048.72,3558.46,3917.44,0
12_28_48,44,3765.13,1698.46,4057.95,4043.59,4096.41,4068.72,4129.23,4062.56,4104.1,4076.92,4077.95,4051.79,3537.44,3912.31,0
12_28_48,45,3786.67,1718.46,4063.59,4043.08,4146.67,4069.74,4136.41,4065.64,4110.77,4118.97,4074.87,4058.97,3530.77,3926.15,0
12_28_48,46,3801.03,1731.28,4065.64,4042.05,4103.59,4062.56,4134.87,4061.03,4108.72,4096.41,4073.33,4065.64,3518.97,3938.97,0
12_28_48,47,3796.92,1736.92,4067.69,4048.72,4082.05,4069.74,4134.87,4057.95,4108.21,4077.95,4082.56,4073.33,3506.67,3938.46,0
12_28_48,48,3799.49,1762.56,4068.21,4046.67,4138.46,4075.9,4141.03,4067.18,4110.26,4109.74,4074.87,4075.9,3502.05,3935.9,0
12_28_48,49,3808.72,1777.95,4069.74,4041.54,4123.59,4064.62,4141.54,4077.95,4117.44,4116.92,4064.62,4073.85,3496.92,3938.97,0
12_28_48,50,3811.28,1771.28,4072.82,4048.21,4078.46,4065.13,4136.92,4073.33,4120.51,4091.79,4073.85,4073.33,3486.67,3942.05,0
12_28_49,51,3816.41,1779.49,4076.41,4052.82,4122.05,4078.46,4138.46,4069.23,4114.87,4090.26,4078.97,4077.95,3474.87,3942.05,0
12_28_49,52,3827.18,1802.56,4079.49,4051.79,4153.33,4078.46,4142.56,4080,4112.82,4106.15,4076.41,4085.13,3460.51,3945.64,0
12_28_49,53,3821.03,1797.44,4073.33,4050.26,4103.08,4066.67,4137.44,4075.9,4110.26,4097.95,4077.44,4081.54,3438.46,3942.56,0
12_28_49,54,3804.1,1770.77,4058.97,4046.15,4059.49,4058.46,4128.72,4054.36,4095.9,4063.08,4073.33,4066.15,3428.72,3929.23,0
12_28_49,55,3807.18,1778.46,4061.54,4044.62,4082.05,4057.44,4133.33,4058.97,4093.33,4063.59,4074.87,4069.23,3444.62,3930.26,0
12_28_49,56,3825.13,1812.31,4074.87,4041.54,4120,4063.59,4142.05,4078.46,4112.82,4114.87,4083.08,4084.1,3470.26,3948.21,0
12_28_49,57,3824.62,1820.51,4069.23,4035.38,4093.85,4062.56,4134.36,4066.67,4109.23,4118.97,4074.87,4078.97,3469.74,3949.23,0
12_28_49,58,3811.28,1804.1,4054.36,4038.97,4062.05,4055.9,4122.05,4048.21,4085.13,4069.23,4065.64,4064.62,3433.85,3930.77,0
12_28_49,59,3817.44,1816.41,4058.46,4045.64,4104.1,4064.62,4125.13,4058.97,4087.18,4065.64,4072.82,4069.23,3409.23,3931.79,0
12_28_49,60,3828.72,1845.64,4065.64,4046.15,4098.46,4072.82,4127.69,4064.1,4099.49,4096.92,4077.44,4077.44,3407.18,3946.67,0
12_28_49,61,3825.13,1853.33,4059.49,4046.15,4060.51,4072.31,4121.54,4051.79,4091.28,4095.38,4074.87,4073.33,3395.9,3947.69,0
12_28_49,62,3831.28,1863.59,4061.54,4043.08,4116.92,4071.28,4121.54,4053.33,4091.28,4087.18,4081.54,4078.46,3381.54,3945.64,0
12_28_49,63,3849.23,1883.59,4067.69,4048.21,4144.1,4064.1,4127.69,4066.15,4109.74,4097.44,4089.23,4092.31,3384.1,3957.95,0
12_28_49,64,3841.03,1885.13,4063.59,4061.54,4073.85,4054.36,4125.13,4064.62,4108.72,4088.72,4091.28,4092.31,3373.85,3961.03,0
12_28_49,65,3833.33,1887.69,4065.13,4059.49,4075.38,4065.13,4118.97,4055.38,4095.9,4088.72,4095.9,4088.72,3367.18,3954.87,0
12_28_49,66,3853.85,1910.26,4073.85,4045.64,4137.95,4077.95,4122.56,4057.44,4100,4123.08,4094.36,4094.36,3396.92,3965.64,0
12_28_49,67,3858.97,1920.51,4065.64,4042.56,4123.59,4071.28,4124.62,4060.51,4101.54,4123.08,4082.56,4090.77,3406.15,3969.23,0
12_28_49,68,3842.05,1918.97,4056.92,4049.74,4088.21,4070.26,4123.08,4056.41,4086.67,4082.56,4078.97,4082.05,3378.97,3955.9,0
12_28_49,69,3844.1,1933.33,4065.13,4056.92,4089.74,4075.38,4123.08,4056.92,4084.62,4082.56,4087.18,4085.13,3371.28,3955.38,0
12_28_49,70,3850.77,1944.62,4065.13,4057.44,4085.13,4070.26,4124.1,4062.56,4096.41,4114.87,4092.31,4088.72,3382.56,3962.05,0
12_28_49,71,3844.1,1947.18,4052.82,4048.21,4073.85,4065.64,4124.62,4058.97,4092.31,4107.69,4088.72,4083.08,3374.87,3957.44,0
12_28_49,72,3843.59,1952.31,4053.85,4048.21,4073.33,4063.59,4120.51,4051.28,4081.54,4081.54,4087.69,4079.49,3360.51,3955.38,0
12_28_49,73,3848.72,1955.9,4062.56,4056.92,4077.44,4059.49,4113.33,4052.82,4083.08,4083.08,4091.79,4078.46,3358.97,3959.49,0
12_28_49,74,3851.79,1958.46,4064.1,4055.9,4080,4061.54,4113.33,4058.97,4091.28,4094.36,4091.79,4078.46,3355.38,3958.97,0
12_28_49,75,3857.95,1977.95,4061.03,4047.69,4086.15,4069.74,4116.92,4061.54,4094.87,4093.85,4084.1,4080,3350.26,3964.1,0
12_28_49,76,3863.08,2005.64,4062.56,4050.26,4066.15,4065.64,4113.33,4052.82,4091.28,4089.74,4082.56,4077.44,3346.15,3972.31,0
12_28_49,77,3862.05,2010.26,4065.13,4060,4038.97,4056.41,4106.67,4040.51,4076.92,4084.62,4083.08,4074.87,3331.79,3966.15,0
12_28_49,78,3863.08,2006.15,4062.05,4055.9,4070.26,4068.21,4107.69,4038.46,4068.21,4071.79,4081.03,4077.44,3311.28,3955.38,0
12_28_49,79,3863.59,2026.15,4058.97,4041.54,4108.21,4078.97,4111.79,4043.08,4074.87,4072.82,4085.13,4076.41,3307.18,3963.08,0
12_28_49,80,3861.03,2047.69,4062.56,4043.08,4088.21,4066.67,4114.36,4045.64,4078.97,4092.31,4084.1,4077.95,3315.38,3976.92,0
12_28_49,81,3870.77,2045.13,4066.67,4052.31,4073.33,4060,4117.44,4049.74,4080,4100,4076.92,4087.69,3316.92,3974.87,0
12_28_49,82,3877.44,2037.95,4063.08,4046.15,4089.74,4070.26,4120.51,4059.49,4087.69,4091.79,4076.92,4088.72,3310.77,3969.23,0
12_28_49,83,3869.74,2042.56,4059.49,4042.05,4083.59,4073.85,4120.51,4061.03,4092.31,4087.69,4077.95,4080,3300,3969.74,0
12_28_49,84,3871.28,2050.26,4061.54,4057.44,4066.15,4070.77,4121.03,4057.44,4087.18,4088.21,4082.05,4082.56,3292.31,3972.31,0
12_28_49,85,3883.59,2055.9,4063.08,4063.59,4067.18,4072.31,4123.08,4058.46,4088.72,4093.85,4097.95,4092.82,3288.21,3974.36,0
12_28_49,86,3880,2057.95,4058.46,4051.79,4061.54,4066.15,4116.41,4061.03,4092.82,4102.56,4099.49,4087.18,3277.95,3975.9,0
12_28_49,87,3864.1,2055.9,4054.36,4046.67,4044.1,4058.46,4105.64,4052.82,4080,4086.15,4077.44,4068.72,3260.51,3971.79,0
12_28_49,88,3866.15,2064.1,4051.28,4050.26,4043.59,4060.51,4103.59,4044.1,4068.21,4069.74,4073.33,4063.08,3254.87,3968.21,0
12_28_49,89,3878.97,2084.62,4049.74,4051.28,4060,4062.56,4108.72,4051.79,4080,4083.08,4089.23,4072.82,3269.74,3971.28,0
12_28_49,90,3881.54,2095.9,4052.82,4048.21,4075.38,4065.64,4110.26,4060,4087.69,4085.64,4087.69,4076.41,3283.08,3976.92,0
12_28_49,91,3880,2100,4055.9,4047.69,4085.64,4073.33,4105.64,4051.79,4078.46,4079.49,4074.36,4071.79,3282.05,3980,0
12_28_49,92,3890.26,2112.82,4060,4054.36,4089.23,4077.44,4109.23,4053.33,4086.67,4097.95,4090.26,4084.1,3288.72,3988.72,0
12_28_49,93,3902.05,2129.74,4068.72,4064.62,4077.95,4072.82,4120,4070.77,4106.67,4115.9,4116.92,4106.67,3300.51,4001.54,0
12_28_49,94,3901.54,2133.33,4073.33,4065.13,4067.69,4079.49,4121.03,4071.79,4109.23,4109.74,4110.77,4104.62,3298.46,4000.51,0
12_28_49,95,3901.03,2135.9,4073.85,4059.49,4076.41,4088.72,4114.87,4064.1,4107.69,4104.1,4097.44,4092.82,3298.46,3997.44,0
12_28_49,96,3907.18,2150.26,4076.92,4065.64,4077.44,4080,4118.97,4070.26,4119.49,4113.33,4104.62,4101.03,3312.82,4006.15,0
12_28_49,97,3912.82,2162.56,4076.41,4077.44,4056.92,4072.31,4123.59,4071.79,4122.05,4118.97,4108.72,4113.85,3318.46,4008.72,0
12_28_49,98,3909.74,2160.51,4070.26,4075.9,4047.18,4075.38,4117.44,4061.03,4108.21,4103.59,4096.92,4103.08,3310.77,3996.41,0
12_28_49,99,3905.13,2157.44,4070.26,4060.51,4063.08,4075.9,4113.85,4058.46,4102.05,4088.72,4091.28,4093.85,3307.69,3995.9,0
12_28_49,100,3908.72,2171.79,4073.85,4057.95,4080,4075.9,4118.46,4068.72,4112.31,4097.95,4098.97,4100,3314.36,4006.15,0
12_28_49,101,3920,2192.31,4073.85,4072.31,4075.38,4082.56,4124.1,4075.9,4121.03,4097.44,4109.23,4103.59,3324.1,4010.77,0
12_28_49,102,3927.18,2199.49,4075.9,4074.36,4067.18,4087.18,4126.15,4076.92,4122.56,4092.82,4108.72,4101.54,3329.74,4010.77,0
12_28_49,103,3923.08,2196.92,4075.9,4062.56,4062.56,4085.13,4123.08,4074.87,4122.05,4110.77,4095.38,4095.38,3328.72,4005.13,0
12_28_49,104,3923.08,2202.56,4076.41,4065.64,4060,4084.1,4122.05,4074.36,4126.67,4123.08,4094.87,4096.92,3330.26,4009.23,0
12_28_49,105,3936.41,2221.03,4081.54,4076.41,4066.67,4086.67,4123.59,4077.44,4131.28,4117.95,4107.69,4106.67,3333.33,4025.64,0
12_28_49,106,3939.49,2233.33,4077.44,4071.28,4062.56,4084.62,4123.08,4076.92,4123.59,4109.23,4109.23,4103.59,3325.64,4023.59,0
12_28_49,107,3930.77,2230.26,4067.69,4065.13,4047.69,4076.41,4120.51,4076.92,4120,4103.08,4103.59,4094.36,3311.28,4014.36,0
12_28_49,108,3946.15,2240.51,4073.85,4076.92,4045.13,4076.92,4118.97,4080,4124.1,4105.13,4103.59,4101.03,3298.46,4029.74,0
12_28_49,109,3977.95,2273.33,4083.08,4089.74,4047.18,4081.03,4112.82,4075.38,4117.95,4104.1,4105.64,4108.72,3297.95,4050.26,0
12_28_49,110,3992.31,2287.18,4076.41,4083.59,4041.54,4073.85,4107.18,4068.21,4106.15,4093.33,4104.1,4104.1,3300,4053.85,0
12_28_49,111,4006.15,2277.95,4073.85,4071.79,4034.36,4064.1,4103.59,4064.62,4104.62,4089.23,4103.59,4102.05,3293.85,4070.77,0
12_28_49,112,4035.38,2297.95,4083.59,4082.05,4033.33,4064.1,4098.46,4062.05,4106.67,4096.92,4111.79,4108.72,3293.33,4105.13,0
12_28_49,113,4063.59,2332.31,4094.87,4100.51,4035.9,4071.79,4096.41,4060.51,4107.18,4100,4127.69,4125.13,3311.28,4133.85,0
12_28_49,114,4095.9,2347.69,4102.05,4096.92,4031.79,4074.36,4097.95,4063.08,4108.21,4100,4137.44,4139.49,3333.85,4150.26,0
12_28_49,115,4133.33,2387.18,4105.64,4093.85,4027.69,4072.31,4102.56,4064.1,4108.72,4103.59,4137.95,4140.51,3346.15,4165.64,0
12_28_49,116,4144.1,2470.77,4106.15,4108.21,4033.85,4076.92,4107.18,4063.59,4111.79,4104.62,4135.9,4136.92,3364.62,4183.59,0
12_28_49,117,4131.79,2612.82,4106.67,4104.1,4038.46,4087.18,4108.72,4069.23,4113.33,4106.67,4135.38,4143.59,3402.05,4196.92,0
12_28_49,118,4143.08,2890.77,4105.13,4089.23,4035.38,4091.79,4107.69,4075.9,4113.33,4118.46,4144.62,4154.87,3453.33,4201.03,0
12_28_49,119,4178.97,3272.82,4110.77,4096.92,4031.79,4090.77,4109.74,4076.92,4110.77,4124.62,4152.82,4156.92,3505.64,4222.05,0
12_28_49,120,4195.38,3651.79,4118.97,4107.69,4033.33,4092.82,4110.26,4080.51,4109.23,4123.08,4152.31,4153.33,3549.74,4241.03,0
12_28_49,121,4184.1,4034.87,4112.31,4093.33,4033.33,4092.31,4104.62,4086.15,4112.82,4127.69,4151.28,4152.82,3589.74,4212.31,0
12_28_49,122,4178.46,4435.38,4107.18,4086.15,4029.23,4089.23,4101.54,4085.64,4108.21,4127.69,4145.64,4151.79,3634.87,4186.15,0
12_28_49,123,4188.21,4770.26,4115.9,4099.49,4028.72,4091.28,4104.62,4090.77,4100,4124.1,4136.41,4150.77,3687.69,4204.62,0
12_28_49,124,4193.85,4996.92,4114.36,4100.51,4032.82,4097.44,4106.15,4106.67,4107.18,4137.44,4145.64,4154.87,3727.69,4211.79,0
12_28_49,125,4192.31,5155.9,4104.62,4094.36,4037.44,4102.56,4103.59,4110.26,4112.82,4146.15,4155.9,4158.46,3715.9,4194.87,0
12_28_49,126,4189.23,5291.28,4107.69,4101.03,4039.49,4106.15,4105.64,4106.67,4098.46,4131.79,4140,4152.31,3648.72,4189.74,0
12_28_49,127,4198.46,5390.26,4112.82,4108.21,4040,4112.82,4109.23,4116.41,4095.9,4125.64,4128.72,4147.18,3578.46,4200,0
