TIME, ED_COUNTER, AF3, F7, F3, FC5, T7, P7, O1, O2, P8, T8, FC6, F4, F8, AF4, LABEL
12_0_10,81,4083.59,4080.51,4100,4083.59,4169.74,4089.74,4185.13,4103.08,4088.21,3967.69,4099.49,4076.92,4058.97,4045.13,0
12_0_10,82,4085.13,4090.26,4105.13,4089.74,4166.15,4091.28,4275.9,4111.28,4084.62,3973.85,4097.44,4082.05,4086.67,4049.74,0
12_0_10,83,4104.1,4100,4109.74,4100,4169.74,4095.38,4300,4124.62,4096.41,3998.46,4110.77,4094.87,4126.15,4063.08,0
12_0_10,84,4106.67,4092.31,4107.18,4093.85,4172.82,4093.33,4244.1,4122.56,4108.72,4004.1,4118.46,4095.9,4147.18,4067.18,0
12_0_10,85,4092.31,4077.44,4101.54,4087.69,4166.67,4083.08,4213.33,4108.21,4094.36,3991.28,4107.69,4090.26,4144.1,4058.46,0
12_0_10,86,4093.33,4074.36,4100.51,4090.26,4163.59,4080.51,4231.28,4105.13,4084.1,3986.67,4102.05,4089.74,4140.51,4054.36,0
12_0_10,87,4104.62,4078.97,4100.51,4092.31,4170.26,4089.74,4222.05,4111.28,4092.82,3984.1,4107.18,4092.31,4143.59,4058.46,0
12_0_10,88,4107.18,4084.62,4100.51,4094.36,4166.15,4091.28,4222.05,4106.15,4089.74,3974.87,4100,4092.31,4141.54,4056.92,0
12_0_10,89,4105.13,4085.13,4099.49,4093.33,4154.36,4084.1,4267.18,4094.36,4076.92,3961.54,4083.59,4083.59,4128.72,4047.18,0
12_0_10,90,4106.67,4084.62,4098.97,4089.23,4160,4083.59,4285.13,4094.87,4083.59,3956.41,4082.56,4078.97,4118.97,4046.15,0
12_0_10,91,4113.85,4088.72,4104.62,4090.77,4171.79,4090.26,4283.08,4107.18,4094.87,3966.67,4093.85,4091.28,4120.51,4056.41,0
12_0_10,92,4122.05,4095.38,4108.21,4102.56,4170.26,4098.97,4300,4113.33,4093.33,3977.95,4100.51,4105.64,4123.59,4063.08,0
12_0_10,93,4124.62,4092.82,4105.64,4107.18,4168.72,4103.08,4276.41,4110.26,4091.79,3976.41,4109.23,4108.21,4126.15,4065.13,0
12_0_10,94,4120.51,4084.1,4103.08,4093.85,4167.18,4093.85,4229.74,4106.15,4090.77,3971.79,4114.87,4105.13,4128.21,4065.64,0
12_0_10,95,4112.31,4082.05,4102.05,4086.15,4158.97,4088.21,4230.26,4105.64,4090.77,3973.33,4109.23,4096.41,4120.51,4062.05,0
12_0_10,96,4112.31,4090.77,4099.49,4093.33,4165.64,4098.97,4222.56,4108.72,4095.9,3974.87,4103.08,4088.72,4113.85,4060,0
12_0_10,97,4121.54,4103.59,4098.46,4098.46,4176.41,4104.62,4178.97,4104.1,4092.82,3967.18,4106.15,4092.31,4116.41,4063.59,0
12_0_10,98,4125.13,4105.64,4100,4099.49,4171.28,4093.85,4165.64,4092.31,4086.15,3962.56,4108.72,4094.36,4116.41,4065.13,0
12_0_10,99,4120.51,4103.08,4100,4104.1,4168.72,4090.26,4166.67,4093.33,4092.31,3971.79,4106.67,4089.74,4109.23,4061.03,0
12_0_10,100,4121.03,4106.67,4097.95,4102.56,4171.28,4096.41,4134.36,4107.18,4094.87,3979.49,4113.33,4094.87,4106.67,4064.1,0
12_0_10,101,4124.1,4106.15,4100.51,4097.44,4168.21,4094.36,4096.41,4110.77,4089.23,3978.46,4121.54,4106.15,4113.33,4071.79,0
12_0_10,102,4125.13,4100,4104.1,4095.9,4166.15,4087.18,4072.82,4103.08,4092.82,3981.54,4122.05,4111.79,4121.54,4077.95,0
12_0_10,103,4132.31,4095.38,4106.15,4096.92,4166.15,4087.18,4063.08,4100.51,4096.41,3986.15,4125.13,4114.87,4123.59,4082.56,0
12_0_10,104,4132.31,4089.74,4102.05,4094.36,4159.49,4088.72,4076.41,4103.08,4089.74,3981.54,4125.64,4110.26,4115.38,4077.44,0
12_0_10,105,4126.67,4091.79,4100,4095.38,4158.97,4088.21,4086.15,4105.64,4090.77,3976.41,4116.92,4102.56,4107.18,4069.23,0
12_0_10,106,4130.26,4105.13,4102.56,4103.08,4168.21,4088.21,4059.49,4105.13,4093.85,3975.38,4117.95,4104.62,4103.59,4072.82,0
12_0_10,107,4132.82,4108.21,4105.13,4109.23,4172.31,4087.69,4034.36,4096.41,4087.18,3973.33,4121.54,4107.69,4095.38,4074.87,0
12_0_10,108,4129.74,4104.1,4103.08,4108.72,4169.23,4090.77,4040,4094.36,4087.69,3978.46,4109.74,4104.62,4086.15,4067.69,0
12_0_10,109,4128.72,4105.64,4099.49,4104.62,4167.18,4092.82,3996.92,4100,4093.33,3983.08,4102.05,4102.56,4082.56,4062.56,0
12_0_10,110,4127.18,4105.13,4096.92,4103.08,4167.18,4091.79,3914.87,4101.03,4091.79,3981.54,4109.74,4098.46,4080.51,4062.05,0
12_0_10,111,4123.59,4098.46,4098.46,4103.59,4163.08,4090.26,3911.28,4102.05,4090.77,3983.59,4112.82,4096.92,4076.41,4060.51,0
12_0_10,112,4123.59,4092.82,4100.51,4098.97,4154.36,4083.08,3979.49,4103.08,4091.28,3982.05,4106.67,4096.92,4072.31,4057.95,0
12_0_10,113,4124.1,4088.72,4098.97,4089.74,4154.87,4076.92,4035.9,4098.97,4090.77,3971.28,4103.08,4094.36,4073.33,4057.44,0
12_0_10,114,4125.64,4089.23,4098.97,4089.23,4167.18,4085.13,4047.18,4098.46,4094.36,3978.46,4113.33,4101.03,4085.64,4067.69,0
12_0_10,115,4128.21,4093.33,4101.03,4102.05,4172.82,4095.38,4031.28,4104.62,4093.85,3989.23,4122.56,4106.67,4094.36,4077.44,0
12_0_10,116,4126.67,4090.77,4099.49,4104.1,4163.08,4091.79,4030.77,4097.44,4080,3966.15,4107.18,4094.36,4084.1,4067.69,0
12_0_10,117,4124.62,4089.23,4094.87,4094.87,4160,4088.72,4061.54,4086.67,4072.31,3950.26,4092.82,4085.13,4074.36,4058.46,0
12_0_10,118,4124.1,4097.44,4094.87,4098.46,4167.69,4090.26,4079.49,4092.31,4081.03,3969.74,4100,4090.77,4075.9,4060.51,0
12_0_10,119,4129.23,4107.18,4097.95,4109.74,4166.67,4089.23,4059.49,4104.62,4090.77,3978.97,4103.59,4092.82,4076.92,4063.08,0
12_0_10,128,4136.41,4105.64,4098.46,4093.33,4168.21,4098.97,3904.1,4104.62,4088.72,3992.31,4101.03,4090.77,4061.54,4064.1,0
12_0_10,0,4140,4118.97,4101.54,4102.05,4172.82,4105.13,3936.41,4108.72,4087.18,3996.41,4105.64,4090.26,4066.15,4069.74,0
12_0_10,1,4136.92,4112.31,4095.9,4106.67,4168.21,4098.46,3985.64,4097.44,4085.13,3985.64,4096.41,4084.1,4061.03,4060.51,0
12_0_10,2,4135.38,4104.1,4097.95,4105.13,4169.23,4099.49,4047.18,4088.21,4075.9,3978.46,4092.82,4077.95,4057.95,4055.38,0
12_0_10,3,4137.44,4115.9,4103.08,4105.64,4175.9,4109.23,4071.79,4088.72,4071.79,3981.03,4094.36,4080.51,4060.51,4061.03,0
12_0_10,4,4140,4124.62,4104.1,4108.72,4173.33,4102.56,4063.59,4095.38,4076.92,3983.08,4094.87,4088.21,4059.49,4066.15,0
12_0_10,5,4147.69,4118.46,4103.08,4112.31,4173.33,4094.36,4063.59,4104.62,4084.1,3986.15,4104.62,4092.31,4063.08,4072.31,0
12_0_10,6,4154.36,4118.46,4107.18,4112.82,4182.56,4102.56,4038.46,4107.69,4087.69,3987.69,4109.74,4094.87,4063.59,4076.92,0
12_0_10,7,4149.23,4121.03,4108.21,4108.72,4186.67,4107.69,3973.85,4104.1,4081.03,3978.97,4095.9,4095.38,4047.69,4069.23,0
12_0_10,8,4138.46,4110.26,4102.56,4103.08,4183.59,4105.13,3935.38,4102.56,4081.03,3982.56,4088.21,4089.74,4045.64,4062.56,0
12_0_10,9,4140,4099.49,4097.95,4099.49,4179.49,4104.1,3960,4105.13,4094.36,4007.69,4100,4087.69,4070.26,4075.9,0
12_0_10,10,4150.77,4099.49,4103.59,4101.03,4180,4106.67,4013.85,4113.85,4094.36,4020,4115.38,4098.46,4093.33,4098.46,0
12_0_10,11,4154.36,4095.38,4103.59,4098.97,4180.51,4104.62,4033.85,4117.95,4085.13,4014.87,4125.13,4102.56,4108.21,4109.23,0
12_0_10,12,4150.77,4088.72,4098.97,4090.26,4175.9,4101.03,4002.05,4111.28,4088.21,4014.36,4133.33,4096.41,4114.87,4107.18,0
12_0_10,13,4150.26,4089.74,4102.05,4096.41,4170.77,4100.51,3977.44,4111.28,4092.82,4012.82,4142.05,4101.03,4112.31,4108.21,0
12_0_10,14,4155.38,4090.77,4109.23,4108.72,4171.28,4096.92,3991.79,4115.38,4090.26,4010.26,4140.51,4110.26,4110.77,4117.44,0
12_0_10,15,4155.9,4089.74,4108.72,4100.51,4172.31,4093.85,3985.64,4114.36,4090.26,4011.79,4134.87,4110.26,4110.26,4123.08,0
12_0_10,16,4152.82,4091.28,4108.72,4089.74,4170.26,4098.97,3941.03,4118.46,4090.77,4007.69,4131.28,4108.72,4102.05,4121.03,0
12_0_10,17,4152.82,4089.23,4110.26,4094.87,4169.74,4102.56,3887.18,4124.1,4088.72,4004.1,4126.15,4114.36,4096.92,4118.46,0
12_0_10,18,4149.23,4080,4107.18,4094.36,4169.74,4096.41,3847.18,4115.38,4084.1,4001.03,4118.97,4112.82,4090.77,4114.36,0
12_0_10,19,4137.44,4072.82,4101.03,4087.69,4168.72,4091.28,3843.59,4105.64,4077.44,3996.92,4112.31,4100,4080,4102.05,0
12_0_11,20,4131.28,4075.9,4098.97,4089.23,4168.72,4097.44,3837.95,4105.13,4075.38,4003.08,4112.31,4090.26,4077.95,4092.82,0
12_0_11,21,4134.36,4081.03,4103.59,4092.82,4171.28,4104.1,3813.33,4104.1,4077.44,4015.9,4116.92,4090.77,4087.69,4092.82,0
12_0_11,22,4138.97,4082.05,4105.64,4094.87,4169.23,4107.18,3828.21,4105.13,4080,4020.51,4116.41,4092.31,4091.79,4094.36,0
12_0_11,23,4137.44,4080,4101.03,4093.33,4161.03,4105.64,3895.38,4105.64,4075.38,4009.23,4109.23,4088.72,4080.51,4093.85,0
12_0_11,24,4132.31,4079.49,4097.44,4089.74,4154.87,4099.49,3953.33,4103.59,4071.28,3990.77,4103.59,4086.67,4066.15,4090.77,0
12_0_11,25,4132.31,4081.03,4102.05,4090.77,4154.36,4101.03,3982.05,4107.18,4075.9,3988.21,4106.15,4090.26,4063.08,4091.28,0
12_0_11,26,4132.31,4081.54,4104.62,4092.31,4153.33,4108.72,3997.44,4109.74,4075.9,3999.49,4106.67,4087.18,4067.69,4092.82,0
12_0_11,27,4127.69,4076.41,4098.46,4090.77,4152.82,4105.13,3984.1,4105.13,4074.36,4005.13,4103.59,4076.92,4066.67,4087.18,0
12_0_11,28,4115.9,4069.23,4093.33,4085.64,4154.87,4100,3961.03,4097.44,4080,4008.72,4098.46,4073.33,4063.08,4077.95,0
12_0_11,29,4097.44,4068.21,4096.92,4077.44,4156.41,4103.08,3954.36,4092.31,4077.44,4014.87,4093.33,4073.33,4059.49,4072.31,0
12_0_11,30,4092.31,4076.41,4100.51,4080,4158.46,4101.54,3960,4095.9,4067.69,4012.82,4097.44,4076.41,4060,4076.92,0
12_0_11,31,4097.95,4080,4102.05,4089.23,4155.38,4092.82,3965.64,4105.13,4068.72,4007.18,4105.13,4082.56,4068.72,4084.62,0
12_0_11,32,4082.05,4083.08,4106.15,4090.26,4144.62,4089.23,3967.69,4107.69,4074.36,4011.28,4107.69,4082.56,4073.85,4090.77,0
12_0_11,33,4053.33,4089.23,4109.74,4090.77,4136.41,4089.74,3975.38,4105.13,4074.87,4016.92,4109.74,4083.08,4072.82,4091.79,0
12_0_11,34,4040.51,4085.13,4103.59,4093.33,4144.1,4092.31,4000.51,4108.21,4074.87,4014.87,4108.72,4087.69,4069.74,4089.74,0
12_0_11,35,4036.41,4075.9,4099.49,4085.13,4154.87,4097.44,4042.56,4107.69,4070.26,4006.67,4095.38,4084.1,4058.97,4085.13,0
12_0_11,36,4028.72,4072.31,4100.51,4076.92,4155.9,4101.03,4065.64,4102.56,4066.15,3998.46,4087.18,4073.33,4044.62,4077.95,0
12_0_11,37,4024.62,4070.26,4098.46,4080.51,4155.38,4105.64,4073.33,4104.62,4077.95,4011.28,4091.79,4073.85,4044.1,4075.9,0
12_0_11,38,4022.56,4067.69,4094.36,4085.64,4154.87,4108.21,4092.82,4107.18,4085.13,4027.18,4085.13,4075.38,4044.62,4072.82,0
12_0_11,39,4028.21,4071.79,4095.9,4088.72,4157.44,4106.67,4103.08,4107.69,4075.9,4024.1,4075.9,4072.82,4040,4071.79,0
12_0_11,40,4041.03,4081.03,4101.54,4090.77,4159.49,4109.74,4089.23,4112.82,4072.82,4025.64,4088.72,4082.05,4061.03,4088.21,0
12_0_11,41,4044.1,4078.46,4102.05,4089.23,4147.69,4109.74,4090.26,4112.82,4080.51,4035.38,4100,4093.33,4092.82,4107.18,0
12_0_11,42,4041.03,4066.67,4101.54,4089.74,4139.49,4100,4127.18,4106.15,4080,4032.31,4096.41,4091.79,4110.77,4110.26,0
12_0_11,43,4044.1,4066.15,4100.51,4089.74,4148.72,4095.9,4157.95,4106.67,4072.82,4025.13,4096.41,4085.64,4128.21,4107.69,0
12_0_11,44,4045.13,4074.36,4097.44,4086.67,4155.9,4103.08,4131.28,4110.77,4071.79,4027.69,4094.36,4080.51,4151.28,4107.69,0
12_0_11,45,4040.51,4070.77,4094.87,4086.15,4155.38,4106.67,4083.08,4107.69,4076.41,4028.72,4088.72,4074.87,4168.21,4101.03,0
12_0_11,46,4040.51,4062.56,4094.87,4090.77,4157.44,4103.59,4106.67,4106.15,4079.49,4031.28,4094.36,4075.9,4182.05,4094.87,0
12_0_11,47,4044.62,4065.13,4089.74,4090.26,4157.44,4106.15,4155.9,4109.74,4078.97,4035.9,4098.97,4080.51,4191.28,4098.46,0
12_0_11,48,4042.05,4061.03,4083.08,4084.62,4152.31,4106.67,4142.05,4108.21,4080.51,4031.79,4094.36,4078.46,4187.18,4098.46,0
12_0_11,49,4044.62,4055.38,4085.64,4085.13,4151.79,4104.1,4136.92,4110.77,4091.28,4039.49,4100.51,4083.59,4193.33,4101.03,0
12_0_11,50,4060.51,4067.18,4090.77,4093.85,4154.36,4113.85,4189.23,4120,4100.51,4059.49,4112.31,4093.33,4208.21,4114.36,0
12_0_11,51,4066.15,4075.38,4085.13,4098.46,4154.36,4120,4216.92,4125.64,4092.82,4055.9,4107.69,4093.85,4203.08,4117.95,0
12_0_11,52,4055.38,4064.62,4076.41,4092.82,4152.31,4111.28,4210.26,4121.54,4083.08,4035.9,4093.33,4088.21,4182.05,4108.21,0
12_0_11,53,4044.62,4058.46,4073.85,4087.18,4153.33,4108.21,4216.41,4109.23,4081.54,4030.77,4087.18,4083.08,4165.64,4099.49,0
12_0_11,54,4040,4064.62,4068.72,4089.74,4154.36,4114.36,4188.72,4101.03,4078.97,4031.79,4085.13,4077.44,4156.41,4094.36,0
12_0_11,55,4034.87,4067.18,4056.41,4092.31,4152.31,4112.82,4123.08,4102.56,4074.87,4025.64,4078.46,4073.33,4149.74,4089.23,0
12_0_11,56,4034.36,4068.72,4050.77,4088.72,4155.9,4112.31,4098.46,4107.18,4080,4027.69,4077.44,4078.97,4149.74,4089.74,0
12_0_11,57,4038.97,4074.87,4048.72,4087.18,4160.51,4118.97,4111.28,4111.28,4091.28,4040,4087.69,4086.67,4153.33,4098.46,0
12_0_11,58,4043.08,4073.85,4040,4092.82,4156.41,4122.05,4101.03,4118.97,4094.87,4050.26,4094.87,4086.15,4156.41,4106.67,0
12_0_11,59,4044.62,4072.31,4033.33,4091.79,4150.77,4119.49,4085.64,4132.82,4090.26,4048.72,4093.85,4081.03,4157.95,4109.23,0
12_0_11,60,4043.08,4074.36,4035.38,4084.1,4152.31,4112.82,4099.49,4125.64,4089.23,4045.64,4090.26,4081.03,4151.28,4107.18,0
12_0_11,61,4044.62,4075.38,4040,4088.21,4153.85,4107.18,4109.23,4104.1,4093.85,4050.77,4084.62,4082.56,4140.51,4104.62,0
12_0_11,62,4053.85,4075.9,4051.28,4098.46,4152.31,4108.72,4115.9,4107.18,4089.23,4048.72,4080,4080,4133.33,4100.51,0
12_0_11,63,4061.54,4077.95,4092.82,4096.41,4152.31,4110.77,4130.77,4107.18,4071.28,4033.33,4074.87,4079.49,4125.13,4093.85,0
12_0_11,64,4063.08,4076.41,4141.54,4090.26,4149.74,4102.05,4123.08,4080,4060,4029.74,4067.18,4082.56,4120,4091.79,0
12_0_11,65,4061.03,4067.18,4134.87,4091.79,4141.03,4094.87,4096.41,4081.54,4071.28,4035.9,4068.72,4082.05,4120,4090.77,0
12_0_11,66,4059.49,4068.21,4087.69,4091.79,4139.49,4101.54,4061.54,4098.97,4081.03,4035.9,4073.85,4076.92,4115.9,4090.26,0
12_0_11,67,4061.03,4075.9,4083.59,4090.77,4142.05,4102.05,4008.72,4076.92,4068.72,4032.82,4064.1,4075.38,4108.21,4091.79,0
12_0_11,68,4059.49,4065.64,4114.87,4089.74,4131.79,4091.79,3969.74,4070.26,4057.95,4027.69,4046.67,4074.87,4095.9,4085.64,0
12_0_11,69,4056.92,4052.31,4125.64,4084.1,4129.23,4098.97,3989.23,4093.85,4065.64,4026.67,4046.67,4072.31,4083.08,4074.36,0
12_0_11,70,4058.97,4060,4121.03,4082.05,4140.51,4112.31,4028.72,4082.56,4070.26,4031.79,4055.38,4072.31,4081.54,4074.36,0
12_0_11,71,4064.1,4065.64,4121.54,4082.05,4136.92,4097.95,4031.79,4065.64,4060.51,4031.28,4057.44,4071.79,4083.59,4077.95,0
12_0_11,72,4065.13,4061.03,4117.95,4080.51,4129.23,4085.64,4034.87,4081.54,4056.92,4032.31,4060,4069.23,4079.49,4075.38,0
12_0_11,73,4073.85,4074.87,4114.36,4085.13,4136.92,4098.97,4065.64,4096.92,4073.85,4051.28,4074.87,4074.87,4088.72,4079.49,0
12_0_11,74,4089.74,4091.79,4114.87,4095.9,4138.46,4105.64,4083.08,4100.51,4092.82,4068.72,4091.79,4090.26,4105.13,4093.85,0
12_0_11,75,4095.9,4087.18,4112.82,4093.33,4133.85,4106.15,4068.72,4106.15,4086.15,4060,4085.13,4092.82,4098.46,4094.87,0
12_0_11,76,4092.31,4078.46,4116.92,4084.1,4141.03,4113.33,4002.05,4116.92,4069.74,4048.72,4063.59,4081.54,4086.67,4086.67,0
12_0_11,77,4095.38,4077.44,4125.13,4085.13,4136.41,4105.13,3862.05,4120.51,4077.95,4064.1,4060.51,4081.54,4092.31,4087.69,0
12_0_11,78,4105.64,4076.41,4124.1,4089.23,4118.46,4084.62,3793.85,4107.69,4092.82,4086.15,4072.82,4089.74,4100,4088.21,0
12_0_11,79,4109.23,4078.46,4118.46,4086.15,4120,4086.15,3914.87,4098.97,4086.15,4087.18,4074.36,4085.13,4100.51,4080.51,0
12_0_11,80,4106.67,4083.59,4109.23,4077.44,4126.67,4102.05,4056.92,4083.08,4062.56,4069.23,4066.67,4072.31,4094.36,4072.31,0
12_0_11,81,4115.9,4094.87,4097.44,4081.03,4122.56,4107.18,4069.74,4065.64,4054.36,4060,4075.38,4076.41,4091.79,4077.95,0
12_0_11,82,4137.44,4108.21,4096.41,4093.33,4123.08,4106.15,3979.49,4092.31,4079.49,4082.05,4094.87,4092.82,4105.64,4092.82,0
12_0_11,83,4143.08,4106.15,4097.44,4091.79,4123.59,4104.62,3861.03,4128.72,4105.13,4098.46,4097.95,4097.95,4110.77,4096.92,0
12_0_11,84,4130.77,4091.28,4088.72,4083.59,4113.33,4098.46,3795.38,4107.69,4077.44,4072.82,4077.44,4089.74,4090.77,4088.21,0
12_0_11,85,4129.74,4091.79,4086.15,4089.23,4096.41,4094.87,3762.05,4087.69,4044.1,4064.1,4059.49,4090.26,4086.15,4087.18,0
12_0_11,86,4133.33,4095.38,4090.26,4089.23,4075.38,4096.41,3703.08,4115.38,4066.67,4095.9,4052.31,4091.79,4094.36,4091.28,0
12_0_11,87,4121.03,4085.64,4083.08,4072.82,4067.18,4097.44,3735.38,4117.95,4082.56,4099.49,4040,4075.38,4078.97,4076.92,0
12_0_11,88,4124.62,4091.28,4082.56,4073.85,4077.44,4091.79,3944.1,4088.21,4057.44,4079.49,4043.59,4070.26,4071.79,4066.67,0
12_0_11,89,4151.79,4114.36,4092.31,4084.1,4074.36,4090.77,4036.92,4090.77,4053.85,4093.33,4072.82,4085.64,4087.18,4078.97,0
12_0_11,90,4160.51,4115.38,4090.26,4077.44,4057.95,4094.87,3827.69,4107.69,4066.67,4118.46,4078.97,4086.15,4086.15,4078.46,0
12_0_11,91,4151.79,4102.56,4084.1,4071.28,4054.87,4104.62,3609.23,4104.62,4057.44,4117.95,4055.9,4073.85,4071.28,4061.54,0
12_0_11,92,4154.87,4103.08,4089.74,4075.38,4052.82,4110.77,3558.46,4102.56,4058.46,4112.82,4046.15,4072.82,4065.13,4057.44,0
12_0_11,93,4161.03,4105.13,4089.23,4071.79,4039.49,4098.97,3517.44,4106.15,4069.23,4115.9,4050.26,4077.95,4061.03,4063.59,0
12_0_11,94,4156.41,4096.92,4083.59,4065.13,4028.72,4090.77,3453.33,4105.13,4055.9,4125.64,4050.26,4080,4060.51,4062.05,0
12_0_11,95,4155.38,4091.79,4086.67,4067.18,4016.92,4102.56,3460.51,4104.62,4042.56,4128.21,4049.23,4080,4063.08,4063.08,0
12_0_11,96,4161.03,4090.26,4086.15,4064.62,4002.05,4109.23,3465.13,4107.18,4056.41,4126.67,4043.59,4075.38,4059.49,4065.13,0
12_0_11,97,4167.69,4093.85,4083.08,4063.59,3999.49,4108.21,3410.77,4097.44,4061.54,4135.9,4038.46,4077.44,4052.82,4061.03,0
12_0_11,98,4176.92,4103.08,4088.21,4069.74,4008.72,4115.38,3354.36,4089.23,4050.77,4143.08,4049.23,4086.67,4052.31,4059.49,0
12_0_11,99,4186.67,4109.23,4098.97,4071.79,4003.59,4124.1,3315.38,4097.44,4052.31,4139.49,4062.56,4092.31,4062.05,4066.15,0
12_0_11,100,4190.77,4109.74,4105.13,4069.23,3990.26,4128.21,3281.03,4108.21,4059.49,4146.15,4063.59,4092.31,4067.69,4071.28,0
12_0_11,101,4185.64,4103.08,4108.21,4068.21,4000,4124.62,3203.08,4108.72,4057.95,4152.82,4054.36,4083.59,4051.28,4062.05,0
12_0_11,102,4182.05,4095.38,4113.33,4067.18,4009.23,4115.9,3114.87,4103.08,4057.44,4141.54,4044.62,4078.97,4043.08,4056.41,0
12_0_11,103,4186.15,4091.79,4120,4067.69,3992.82,4129.23,3097.95,4105.13,4061.03,4133.33,4044.1,4086.15,4055.38,4062.56,0
12_0_11,104,4189.23,4092.82,4123.08,4072.82,3984.62,4152.82,3103.08,4113.85,4059.49,4140.51,4045.64,4089.74,4054.87,4063.08,0
12_0_11,105,4193.33,4097.95,4121.03,4075.9,3991.79,4144.1,3080.51,4103.59,4047.69,4147.69,4046.67,4085.64,4047.18,4063.08,0
12_0_11,106,4200.51,4105.13,4116.41,4075.9,3989.74,4119.49,3070.26,4082.05,4041.03,4149.23,4050.77,4084.1,4053.33,4069.23,0
12_0_11,107,4208.21,4107.18,4120,4081.03,3989.23,4121.54,3055.9,4085.64,4058.97,4157.95,4062.56,4085.13,4059.49,4071.28,0
12_0_11,108,4216.41,4107.69,4128.72,4087.69,3996.41,4142.05,3013.33,4110.26,4078.46,4169.74,4075.38,4090.26,4058.97,4074.36,0
12_0_11,109,4223.59,4108.72,4129.23,4085.64,3996.92,4153.33,2997.44,4121.03,4061.54,4158.97,4075.38,4094.36,4057.44,4078.46,0
12_0_11,110,4220.51,4093.85,4111.79,4071.79,3989.74,4154.87,3005.64,4107.69,4041.54,4136.41,4057.95,4080,4046.15,4068.72,0
12_0_11,111,4216.41,4080.51,4100.51,4065.13,3986.15,4156.92,3002.56,4090.26,4051.28,4137.95,4043.08,4062.05,4032.31,4055.38,0
12_0_11,112,4229.23,4094.36,4109.74,4075.9,3993.33,4157.44,3002.05,4085.64,4063.08,4154.36,4044.1,4065.64,4036.92,4058.46,0
12_0_11,113,4247.69,4110.26,4120.51,4084.62,3999.49,4149.23,3007.69,4094.36,4062.05,4158.97,4052.31,4077.44,4049.23,4071.79,0
12_0_11,114,4250.26,4104.1,4123.08,4082.56,3984.1,4142.05,3004.62,4092.31,4049.74,4148.72,4055.9,4077.95,4048.72,4074.36,0
12_0_11,115,4246.15,4095.38,4123.08,4077.44,3972.82,4144.62,3005.64,4078.97,4029.74,4122.05,4056.41,4070.77,4037.95,4065.13,0
12_0_11,116,4256.92,4103.08,4130.77,4077.95,3991.79,4148.21,3021.03,4090.77,4043.59,4124.1,4069.23,4075.38,4040.51,4067.18,0
12_0_11,117,4266.15,4105.13,4134.36,4078.97,3998.97,4154.36,3023.59,4096.92,4066.67,4153.85,4084.1,4081.03,4051.79,4073.85,0
12_0_11,118,4258.97,4086.15,4128.21,4067.18,3978.46,4159.49,3014.87,4071.79,4044.62,4143.08,4073.85,4065.64,4041.03,4057.44,0
12_0_11,119,4274.87,4092.31,4129.23,4069.74,3987.69,4143.08,3023.59,4082.05,4049.23,4134.36,4076.92,4066.15,4041.03,4053.33,0
12_0_11,120,4315.9,4126.67,4144.62,4094.87,4016.41,4134.36,3049.23,4118.97,4079.49,4173.33,4111.28,4100,4072.82,4084.62,0
12_0_11,121,4326.67,4131.79,4151.79,4097.95,4012.82,4162.56,3063.59,4113.85,4064.62,4185.13,4113.33,4112.31,4077.44,4095.9,0
12_0_11,122,4321.03,4118.97,4147.69,4087.69,4010.77,4180,3067.69,4107.69,4061.03,4168.21,4087.18,4103.59,4060.51,4084.62,0
12_0_11,123,4329.74,4127.69,4146.67,4097.95,4024.1,4172.82,3074.36,4121.03,4070.26,4168.72,4076.41,4105.13,4062.56,4088.72,0
12_0_11,124,4321.54,4126.15,4143.08,4102.05,4015.9,4172.31,3068.72,4098.97,4043.08,4156.92,4064.1,4095.38,4056.41,4087.69,0
12_0_11,125,4308.72,4109.23,4134.87,4092.31,4002.56,4166.15,3069.74,4089.23,4052.82,4153.85,4054.36,4085.64,4048.21,4076.41,0
12_0_11,126,4336.41,4130.26,4134.87,4109.74,4010.26,4157.95,3100.51,4128.21,4097.95,4198.97,4084.1,4114.87,4084.62,4100.51,0
12_0_11,127,4366.15,4157.95,4136.92,4125.13,4022.05,4170.26,3116.41,4115.38,4062.56,4204.1,4102.56,4129.23,4112.31,4120,0
12_0_11,128,4365.64,4144.62,4130.26,4109.23,4021.54,4172.31,3112.82,4093.33,4041.03,4169.74,4078.97,4107.69,4102.05,4100,0
12_0_11,0,4382.56,4136.41,4131.28,4105.13,4015.38,4164.62,3130.26,4147.18,4108.72,4207.69,4086.67,4121.03,4130.77,4106.67,0
12_0_11,1,4405.13,4142.05,4131.79,4115.9,4013.85,4181.03,3147.69,4148.72,4100,4239.49,4100,4142.05,4166.15,4128.21,0
12_0_11,2,4393.33,4127.18,4119.49,4108.21,4012.31,4182.05,3143.08,4082.56,4031.28,4191.79,4062.56,4116.92,4150.77,4108.72,0
12_0_11,3,4392.82,4121.54,4121.03,4103.08,4001.54,4152.82,3150.26,4093.85,4049.23,4178.46,4046.67,4107.69,4144.62,4100,0
12_0_11,4,4426.15,4148.72,4141.54,4120.51,3996.92,4141.03,3164.1,4138.97,4087.18,4204.1,4082.56,4133.33,4174.36,4125.13,0
12_0_11,5,4446.15,4162.56,4152.82,4127.18,4009.74,4136.92,3169.23,4131.28,4062.05,4197.95,4100,4131.79,4196.41,4129.74,0
12_0_11,6,4444.62,4140,4151.28,4104.62,4008.72,4130.77,3176.41,4129.74,4058.46,4197.95,4092.31,4113.85,4199.49,4108.21,0
12_0_11,7,4460,4122.56,4162.56,4089.23,3984.62,4130.26,3188.72,4136.92,4070.26,4211.79,4097.44,4117.44,4194.36,4101.54,0
12_0_11,8,4489.74,4128.72,4182.05,4099.49,3973.33,4128.21,3207.18,4122.56,4042.56,4210.77,4114.36,4125.64,4193.85,4114.36,0
12_0_11,9,4512.31,4138.97,4185.64,4104.1,3981.54,4125.13,3225.13,4118.46,4041.03,4224.62,4122.56,4124.62,4202.05,4120.51,0
12_0_11,10,4533.85,4137.44,4180,4098.46,3983.08,4129.23,3234.87,4115.38,4066.67,4242.05,4120.51,4124.1,4197.95,4113.33,0
12_0_11,11,4562.56,4134.36,4177.95,4100.51,3980,4132.31,3246.67,4112.31,4062.05,4232.82,4116.92,4124.62,4185.13,4109.23,0
12_0_11,12,4590.77,4146.67,4181.03,4110.26,3987.69,4122.05,3255.38,4123.08,4050.77,4220.51,4121.54,4123.08,4182.05,4110.26,0
12_0_11,13,4613.33,4156.92,4181.54,4113.85,3986.15,4113.33,3255.9,4124.62,4062.05,4208.21,4130.26,4120.51,4173.85,4101.54,0
12_0_11,14,4635.38,4149.74,4176.41,4112.82,3974.36,4115.38,3266.67,4116.41,4050.26,4196.92,4142.05,4114.87,4168.21,4091.28,0
12_0_12,15,4662.05,4140.51,4171.79,4109.23,3980,4126.67,3290.26,4130.77,4048.21,4217.44,4164.1,4112.82,4184.1,4094.36,0
12_0_12,16,4686.67,4136.41,4187.18,4099.49,3989.23,4125.64,3315.9,4145.64,4078.46,4238.97,4174.87,4110.26,4190.26,4089.23,0
12_0_12,17,4703.08,4124.62,4212.31,4090.26,3980.51,4119.49,3339.49,4134.36,4077.95,4219.49,4165.64,4099.49,4170.26,4068.21,0
12_0_12,18,4720,4110.77,4222.56,4080.51,3975.38,4123.08,3347.18,4124.62,4062.05,4193.85,4152.31,4086.15,4151.79,4049.23,0
12_0_12,19,4750.77,4113.85,4230.77,4077.95,4003.08,4105.13,3345.13,4132.31,4062.56,4205.64,4145.13,4083.59,4151.79,4045.64,0
12_0_12,20,4786.67,4129.74,4248.72,4095.38,4027.69,4081.03,3364.1,4154.87,4068.21,4223.59,4146.67,4094.87,4162.05,4055.38,0
12_0_12,21,4814.87,4147.69,4260.51,4121.54,4028.72,4078.97,3394.36,4173.85,4072.31,4214.87,4162.56,4108.72,4177.44,4070.26,0
12_0_12,22,4826.15,4153.33,4260,4127.69,4073.85,4075.9,3388.72,4157.95,4073.33,4216.41,4171.28,4114.36,4185.64,4077.44,0
12_0_12,23,4817.95,4143.08,4251.28,4113.85,4140,4059.49,3354.36,4131.79,4056.92,4221.03,4150.77,4097.95,4173.33,4061.03,0
12_0_12,24,4820,4135.38,4245.64,4103.59,4137.44,4054.87,3355.38,4143.59,4093.85,4211.79,4157.95,4087.69,4167.69,4045.64,0
12_0_12,25,4837.44,4126.67,4240.51,4085.64,4118.46,4078.46,3387.18,4145.64,4123.08,4195.38,4189.23,4085.64,4161.03,4034.36,0
12_0_12,26,4856.41,4116.41,4231.28,4069.23,4153.33,4093.85,3395.38,4103.59,4039.49,4176.92,4185.64,4063.08,4129.23,4010.26,0
12_0_12,27,4897.95,4135.9,4230.26,4086.67,4175.9,4077.44,3395.9,4096.92,4013.33,4184.1,4194.87,4058.46,4122.05,4008.72,0
12_0_12,28,4950.26,4160.51,4240,4113.85,4157.95,4055.38,3413.85,4123.08,4072.31,4205.64,4238.97,4083.59,4145.13,4031.79,0
12_0_12,29,4951.79,4144.62,4236.92,4112.31,4152.82,4060.51,3430.77,4141.54,4068.21,4201.03,4224.62,4075.9,4139.49,4022.56,0
12_0_12,30,4930.26,4135.38,4227.18,4107.69,4166.67,4081.03,3443.59,4159.49,4050.26,4195.9,4177.44,4055.38,4129.74,4008.72,0
12_0_12,31,4929.74,4152.82,4222.05,4117.44,4176.41,4090.77,3450.77,4140.51,4069.74,4206.15,4171.28,4061.54,4142.56,4022.05,0
12_0_12,32,4918.46,4145.64,4206.67,4114.36,4174.36,4084.1,3445.13,4102.56,4056.41,4202.05,4163.08,4053.85,4135.9,4014.36,0
12_0_12,33,4908.21,4136.41,4201.54,4110.77,4166.15,4079.49,3457.95,4138.46,4062.05,4213.33,4158.97,4048.72,4130.26,4006.67,0
12_0_12,34,4927.69,4159.49,4214.36,4125.64,4160.51,4093.33,3494.87,4192.82,4116.92,4250.26,4193.33,4078.97,4161.03,4038.46,0
12_0_12,35,4923.59,4154.36,4209.23,4122.56,4149.74,4108.72,3499.49,4164.62,4101.54,4242.56,4186.15,4075.38,4160,4036.41,0
12_0_12,36,4887.18,4124.1,4190.77,4099.49,4139.49,4112.31,3483.59,4128.72,4051.28,4219.49,4133.85,4035.9,4118.97,3996.41,0
12_0_12,37,4881.03,4139.49,4196.92,4100,4135.9,4108.21,3491.79,4151.28,4063.59,4237.95,4128.72,4041.03,4118.97,4000,0
12_0_12,38,4885.64,4160.51,4207.18,4114.36,4131.28,4098.97,3509.23,4175.9,4087.18,4250.77,4137.44,4066.15,4141.03,4020,0
12_0_12,39,4859.49,4143.59,4202.56,4106.15,4124.1,4103.59,3518.46,4173.33,4083.08,4247.18,4109.23,4058.97,4134.36,4008.72,0
12_0_12,40,4832.31,4139.49,4199.49,4098.97,4112.82,4127.18,3523.59,4153.33,4081.03,4263.08,4086.15,4047.69,4126.67,4000.51,0
12_0_12,41,4824.62,4151.79,4201.03,4110.77,4102.56,4130.77,3529.23,4144.1,4091.28,4276.92,4094.87,4055.38,4134.36,4013.85,0
12_0_12,42,4828.21,4155.9,4204.62,4125.64,4111.28,4108.21,3543.08,4157.44,4085.64,4264.62,4111.28,4065.13,4143.08,4030.77,0
12_0_12,43,4826.67,4158.97,4205.64,4125.64,4126.15,4099.49,3555.9,4161.03,4066.15,4252.82,4107.18,4060,4142.05,4030.77,0
12_0_12,44,4813.33,4163.08,4204.1,4113.85,4118.46,4108.72,3558.97,4165.64,4088.72,4274.87,4096.41,4052.31,4133.33,4019.49,0
12_0_12,45,4801.03,4157.95,4206.15,4111.79,4104.62,4111.28,3564.62,4187.69,4122.56,4304.1,4096.92,4056.92,4121.03,4014.87,0
12_0_12,46,4786.15,4151.28,4206.67,4117.95,4109.23,4107.69,3572.31,4166.67,4080,4294.87,4088.21,4054.87,4116.41,4012.31,0
12_0_12,47,4760.51,4153.85,4209.23,4128.72,4107.18,4103.59,3577.44,4144.1,4054.87,4288.72,4074.36,4050.26,4128.72,4015.38,0
12_0_12,48,4727.18,4156.41,4216.41,4146.15,4089.74,4101.03,3587.69,4197.44,4117.95,4311.79,4072.31,4060,4142.05,4026.15,0
12_0_12,49,4685.64,4144.1,4210.26,4157.44,4079.49,4103.59,3593.33,4207.18,4118.46,4303.08,4056.41,4060.51,4134.87,4024.62,0
12_0_12,50,4645.64,4129.23,4195.9,4164.62,4078.97,4094.87,3596.41,4138.46,4042.05,4277.44,4034.36,4047.18,4126.15,4017.44,0
12_0_12,51,4635.38,4135.38,4192.31,4176.41,4076.41,4078.97,3604.62,4143.59,4061.03,4293.33,4054.36,4048.72,4140,4028.72,0
12_0_12,52,4643.08,4144.1,4192.31,4180,4071.28,4085.13,3609.23,4189.23,4109.74,4294.36,4070.77,4045.13,4140.51,4028.21,0
12_0_12,53,4647.18,4136.41,4190.77,4171.28,4073.33,4094.36,3611.28,4165.13,4071.79,4270.26,4058.97,4030.77,4120,4009.23,0
12_0_12,54,4657.44,4140,4201.03,4171.28,4077.44,4088.72,3625.13,4153.85,4065.13,4286.15,4076.41,4046.15,4117.95,4016.92,0
12_0_12,55,4654.87,4148.72,4213.33,4175.9,4076.41,4088.72,3634.87,4187.69,4113.85,4313.33,4093.85,4065.13,4131.79,4032.31,0
12_0_12,56,4620,4143.08,4217.44,4177.95,4077.95,4088.72,3628.21,4180,4097.44,4308.72,4064.62,4058.46,4132.82,4028.21,0
12_0_12,57,4576.41,4135.38,4214.36,4187.18,4077.44,4080.51,3620,4153.33,4057.44,4305.13,4035.9,4053.33,4115.9,4029.74,0
12_0_12,58,4544.62,4132.31,4215.38,4203.08,4068.21,4086.15,3622.05,4178.46,4080,4310.26,4032.31,4055.9,4096.92,4047.18,0
12_0_12,59,4513.85,4126.15,4217.44,4215.9,4063.59,4103.59,3611.79,4190.26,4091.79,4301.54,4015.38,4046.15,4085.13,4053.33,0
12_0_12,60,4483.59,4116.92,4206.15,4218.97,4065.13,4116.92,3587.69,4147.69,4053.85,4281.03,3989.23,4027.69,4074.87,4046.67,0
12_0_12,61,4476.92,4124.1,4200.51,4229.74,4066.67,4121.54,3591.79,4130.77,4063.59,4293.85,4002.05,4029.74,4085.13,4061.54,0
12_0_12,62,4489.23,4138.97,4208.72,4246.67,4068.21,4115.9,3617.95,4152.31,4097.44,4328.72,4031.28,4043.59,4108.21,4083.08,0
12_0_12,63,4500.51,4136.92,4214.36,4240,4066.67,4104.62,3622.05,4160,4088.72,4327.69,4037.44,4037.44,4101.03,4076.92,0
12_0_12,64,4507.18,4126.67,4214.87,4218.46,4059.49,4103.59,3612.31,4144.1,4070.26,4304.1,4030.77,4020,4074.36,4058.97,0
12_0_12,65,4510.77,4121.03,4216.92,4211.28,4056.92,4110.77,3613.33,4131.79,4070.26,4310.77,4033.85,4017.95,4068.21,4055.38,0
12_0_12,66,4510.77,4128.21,4221.03,4212.31,4065.13,4105.64,3616.92,4144.62,4079.49,4333.33,4031.28,4029.74,4076.41,4058.97,0
12_0_12,67,4498.46,4134.87,4228.72,4211.79,4069.74,4095.38,3625.13,4164.62,4101.03,4333.85,4014.87,4035.9,4079.49,4060,0
12_0_12,68,4473.33,4128.72,4236.41,4218.97,4067.18,4102.05,3629.23,4145.13,4092.82,4324.62,4004.1,4034.87,4076.92,4067.69,0
12_0_12,69,4441.54,4118.46,4241.54,4228.72,4063.59,4112.31,3630.77,4128.72,4061.03,4326.67,3991.28,4033.85,4071.28,4072.82,0
12_0_12,70,4424.1,4120.51,4257.44,4239.49,4063.59,4093.85,3729.74,4154.87,4071.28,4344.62,3985.13,4043.59,4080.51,4083.08,0
12_0_12,71,4412.31,4117.95,4287.18,4247.18,4061.03,4074.36,3958.46,4142.05,4082.05,4357.44,3985.64,4050.26,4091.28,4101.54,0
12_0_12,72,4394.36,4103.08,4319.49,4241.03,4052.31,4076.41,4167.18,4105.64,4061.03,4345.13,3975.38,4041.54,4081.03,4101.54,0
12_0_12,73,4397.95,4112.31,4356.92,4236.41,4049.74,4065.13,4252.82,4110.77,4046.15,4325.64,3975.38,4042.05,4073.33,4101.03,0
12_0_12,74,4409.23,4124.62,4392.31,4233.85,4049.74,4050.26,4292.31,4116.92,4061.03,4323.08,3991.79,4046.67,4069.74,4104.1,0
12_0_12,75,4400,4109.23,4423.08,4216.41,4048.21,4046.67,4353.85,4102.05,4076.41,4321.03,3992.82,4035.9,4051.79,4083.08,0
12_0_12,76,4397.44,4095.38,4461.03,4203.59,4053.33,4041.03,4385.13,4094.87,4056.41,4311.28,3981.03,4034.87,4038.46,4065.64,0
12_0_12,77,4419.49,4109.74,4492.82,4215.38,4060.51,4035.38,4318.46,4111.79,4048.72,4333.85,3993.85,4059.49,4052.31,4088.21,0
12_0_12,78,4419.49,4115.38,4510.77,4224.1,4053.33,4045.13,4229.74,4120.51,4068.21,4364.1,3997.95,4068.72,4057.44,4100,0
12_0_12,79,4385.64,4090.26,4525.64,4211.79,4038.46,4048.21,4260,4096.41,4065.64,4350.26,3958.46,4046.67,4028.72,4071.28,0
12_0_12,80,4364.62,4084.1,4493.33,4210.77,4045.64,4030.26,4364.62,4072.82,4043.08,4338.97,3935.9,4037.95,4016.41,4064.62,0
12_0_12,81,4367.18,4113.33,4390.26,4227.18,4070.77,4023.59,4432.31,4103.08,4050.77,4384.1,3953.33,4047.18,4047.18,4096.92,0
12_0_12,82,4358.46,4128.21,4290.26,4226.67,4073.85,4038.97,4510.26,4144.1,4068.21,4426.67,3958.97,4037.95,4062.56,4114.87,0
12_0_12,83,4331.79,4112.82,4240,4213.33,4056.92,4051.79,4635.38,4132.82,4078.46,4438.46,3937.95,4013.33,4045.13,4106.15,0
12_0_12,84,4316.92,4109.74,4207.18,4220,4054.36,4042.05,4725.13,4104.62,4079.49,4469.74,3933.33,4006.67,4052.31,4110.77,0
12_0_12,85,4317.95,4125.64,4175.9,4234.36,4061.03,4029.23,4758.97,4098.97,4058.46,4499.49,3946.67,4006.67,4083.59,4132.82,0
12_0_12,86,4318.46,4140,4158.46,4231.79,4066.67,4026.15,4791.79,4129.74,4073.33,4511.79,3961.03,4006.67,4105.13,4145.64,0
12_0_12,87,4324.1,4154.87,4151.28,4231.28,4075.9,4021.54,4850.77,4156.41,4098.97,4538.46,3977.95,4016.41,4125.64,4155.38,0
12_0_12,88,4320.51,4155.38,4146.15,4230.26,4068.72,4021.54,4887.69,4129.74,4076.92,4566.67,3972.82,4013.85,4130.77,4154.36,0
12_0_12,89,4309.23,4149.23,4144.1,4227.69,4056.92,4020.51,4870.77,4107.69,4072.31,4583.08,3966.15,4006.67,4126.15,4153.33,0
12_0_12,90,4309.23,4156.92,4153.33,4238.97,4071.28,4004.1,4865.13,4130.77,4094.87,4605.13,3977.44,4020,4147.18,4174.36,0
12_0_12,91,4303.08,4161.54,4160,4243.59,4075.38,3989.23,4892.82,4152.31,4093.33,4635.9,3975.9,4032.31,4162.05,4191.79,0
12_0_12,92,4278.97,4150.77,4154.87,4230.77,4059.49,3989.23,4907.69,4141.54,4084.62,4654.36,3964.1,4026.67,4141.54,4191.28,0
12_0_12,93,4273.33,4148.21,4151.28,4232.31,4066.15,3987.69,4908.21,4141.03,4093.85,4668.21,3968.21,4030.77,4135.38,4205.64,0
12_0_12,94,4280.51,4155.38,4151.79,4247.69,4080.51,3988.21,4910.77,4144.1,4091.28,4685.64,3977.44,4042.05,4149.74,4231.28,0
12_0_12,95,4269.74,4155.9,4149.74,4245.13,4074.87,4002.05,4912.82,4123.59,4070.26,4693.85,3972.82,4036.92,4144.62,4235.9,0
12_0_12,96,4258.46,4154.87,4146.15,4233.85,4068.21,4000,4921.03,4112.31,4061.03,4690.26,3966.15,4028.21,4128.21,4229.23,0
12_0_12,97,4264.1,4155.9,4151.28,4230.77,4063.59,3976.41,4912.31,4125.64,4081.03,4675.38,3973.85,4029.23,4122.05,4230.26,0
12_0_12,98,4268.72,4155.38,4160,4224.1,4048.21,3972.82,4888.21,4128.72,4090.26,4670.26,3987.18,4032.82,4117.44,4231.79,0
12_0_12,99,4260,4158.97,4165.64,4215.38,4043.08,3975.38,4868.21,4111.28,4068.72,4681.54,3983.59,4029.23,4109.74,4228.72,0
12_0_12,100,4252.82,4168.72,4168.21,4223.59,4057.44,3958.46,4827.18,4116.92,4066.67,4696.41,3977.95,4033.33,4111.28,4233.33,0
12_0_12,101,4246.67,4167.69,4163.59,4230.77,4063.59,3956.92,4800.51,4134.36,4075.38,4685.64,3985.13,4038.97,4110.77,4241.03,0
12_0_12,102,4231.79,4153.33,4153.85,4221.03,4052.31,3967.18,4841.03,4123.08,4062.56,4662.05,3978.97,4027.69,4096.92,4233.33,0
12_0_12,103,4226.15,4148.72,4151.28,4216.41,4039.49,3957.95,4890.26,4100.51,4062.56,4667.18,3975.38,4023.59,4091.28,4230.26,0
12_0_12,104,4243.08,4164.62,4156.92,4229.23,4045.13,3951.79,4887.69,4106.15,4075.9,4677.44,3998.46,4042.56,4106.15,4247.18,0
12_0_12,105,4250.77,4181.03,4157.44,4237.95,4058.46,3962.56,4852.82,4128.21,4076.92,4673.85,4005.13,4050.77,4112.31,4255.9,0
12_0_12,106,4233.33,4181.03,4152.31,4233.33,4063.59,3963.08,4782.05,4113.85,4068.21,4670.77,3981.03,4039.49,4099.49,4245.13,0
12_0_12,107,4223.08,4175.9,4153.85,4234.36,4066.15,3956.41,4690.77,4108.72,4072.82,4672.31,3978.97,4042.05,4094.36,4247.69,0
12_0_12,108,4230.26,4182.56,4155.9,4245.13,4066.15,3956.92,4656.41,4141.54,4089.74,4671.79,3999.49,4057.95,4110.77,4269.23,0
12_0_12,109,4235.38,4192.82,4146.67,4253.85,4062.56,3957.44,4688.72,4138.97,4086.67,4664.1,4013.33,4066.67,4127.69,4284.1,0
12_0_12,110,4227.18,4187.69,4126.67,4247.69,4060.51,3962.56,4724.1,4097.95,4060,4654.87,4011.28,4061.03,4116.41,4280,0
12_0_12,111,4225.13,4185.64,4115.9,4236.41,4056.92,3960,4757.44,4085.64,4058.46,4649.74,4015.9,4056.92,4100.51,4273.33,0
12_0_12,112,4246.67,4203.08,4121.03,4240,4051.28,3944.62,4810.26,4101.03,4078.46,4646.67,4040,4069.23,4107.18,4280,0
12_0_12,113,4261.54,4209.74,4125.13,4240,4050.77,3944.62,4819.49,4106.67,4075.38,4641.54,4051.28,4072.31,4104.1,4277.95,0
12_0_12,114,4248.21,4196.92,4127.69,4223.08,4051.79,3956.92,4743.59,4113.33,4073.85,4645.64,4037.44,4058.97,4080,4257.44,0
12_0_12,115,4235.38,4190.26,4135.38,4211.28,4050.77,3950.77,4660.51,4113.33,4076.92,4642.05,4029.74,4055.38,4067.69,4245.13,0
12_0_12,116,4231.28,4192.82,4141.03,4212.82,4049.74,3938.97,4644.62,4102.05,4069.23,4618.97,4025.64,4060,4067.18,4248.21,0
12_0_12,117,4217.44,4186.15,4143.59,4210.77,4046.15,3941.03,4674.36,4094.87,4065.64,4607.69,4009.74,4056.92,4059.49,4246.15,0
12_0_12,118,4210.77,4184.62,4156.41,4213.33,4048.72,3940.51,4698.46,4094.87,4066.67,4608.72,4010.77,4061.54,4057.95,4245.64,0
12_0_12,119,4216.41,4190.26,4170.26,4220,4051.79,3945.64,4723.08,4110.26,4073.85,4602.56,4015.9,4071.28,4060,4249.74,0
12_0_12,120,4205.13,4181.54,4170.77,4213.85,4043.59,3957.44,4724.1,4103.59,4075.38,4588.21,3997.44,4061.54,4045.13,4237.44,0
12_0_12,121,4187.69,4165.64,4175.38,4208.72,4046.67,3947.69,4617.44,4091.28,4058.46,4566.15,3985.64,4056.92,4033.33,4228.72,0
12_0_12,122,4170.26,4152.82,4185.64,4206.15,4049.74,3937.44,4469.23,4099.49,4046.15,4542.56,3976.92,4062.05,4032.31,4230.26,0
12_0_12,123,4144.62,4137.44,4182.05,4197.95,4025.64,3941.54,4449.23,4090.26,4056.41,4541.54,3953.85,4052.82,4023.59,4220,0
12_0_12,124,4138.46,4138.46,4182.56,4204.62,4020,3931.79,4580,4082.05,4068.21,4555.38,3956.41,4055.9,4024.1,4220,0
12_0_12,125,4161.54,4157.95,4202.56,4219.49,4043.59,3919.49,4706.15,4103.59,4065.64,4550.26,3983.08,4075.38,4035.9,4242.05,0
12_0_12,126,4172.31,4160.51,4212.82,4211.79,4046.15,3929.74,4735.9,4101.54,4049.74,4525.13,3982.56,4070.26,4023.08,4241.03,0
12_0_12,127,4162.56,4144.1,4206.67,4190.77,4035.9,3942.56,4723.59,4075.9,4041.03,4506.15,3965.13,4049.23,3994.36,4214.36,0
12_0_12,128,4167.18,4147.18,4214.36,4192.31,4045.13,3939.49,4718.97,4081.03,4055.38,4505.64,3968.72,4057.95,3988.72,4215.9,0
12_0_12,0,4178.97,4160.51,4225.64,4208.21,4054.36,3939.49,4676.41,4084.1,4061.03,4510.77,3977.95,4078.46,3999.49,4235.38,0
12_0_12,1,4164.1,4152.82,4214.36,4204.1,4045.13,3949.23,4582.05,4071.28,4054.36,4506.15,3964.1,4072.31,3994.87,4230.26,0
12_0_12,2,4138.46,4136.41,4205.13,4187.69,4040.51,3944.62,4522.56,4078.97,4048.72,4489.23,3941.54,4060.51,3976.41,4213.33,0
12_0_12,3,4134.36,4134.36,4214.36,4188.21,4044.62,3931.28,4504.1,4086.15,4041.03,4473.33,3934.36,4066.15,3965.64,4214.36,0
12_0_12,4,4144.1,4148.21,4233.33,4206.15,4046.15,3935.9,4485.13,4078.46,4043.08,4477.95,3942.56,4077.95,3972.31,4227.69,0
12_0_12,5,4140.51,4154.36,4243.59,4207.69,4035.9,3949.23,4511.28,4077.95,4051.79,4481.03,3947.69,4077.44,3972.82,4226.15,0
12_0_12,6,4118.97,4134.36,4231.79,4186.67,4031.79,3941.54,4583.59,4078.46,4052.31,4451.28,3936.41,4061.03,3950.77,4206.15,0
12_0_12,7,4101.03,4118.97,4210.77,4171.79,4047.18,3935.9,4627.69,4072.31,4038.46,4426.67,3921.54,4048.72,3930.77,4189.23,0
12_0_12,8,4105.13,4140,4206.15,4181.54,4047.69,3943.08,4620,4072.82,4031.79,4446.15,3936.92,4061.54,3941.03,4203.08,0
12_0_12,9,4118.97,4165.13,4197.44,4198.97,4038.97,3941.03,4615.9,4080.51,4048.72,4463.08,3968.21,4081.54,3966.15,4229.74,0
12_0_12,10,4104.1,4149.74,4163.59,4184.1,4041.03,3949.74,4660.51,4085.64,4057.95,4436.41,3958.46,4065.13,3951.79,4219.49,0
12_0_12,11,4088.72,4135.38,4143.08,4165.64,4041.03,3960,4708.72,4084.1,4045.13,4420,3938.97,4045.13,3924.62,4200,0
12_0_12,12,4107.69,4155.9,4150.77,4178.97,4038.46,3944.1,4684.1,4095.9,4060,4441.03,3963.08,4063.08,3938.46,4217.95,0
12_0_12,13,4113.85,4161.03,4148.21,4184.62,4044.62,3937.44,4619.49,4101.54,4070.77,4441.54,3967.18,4070.26,3944.62,4229.23,0
12_0_13,14,4094.36,4146.67,4140.51,4175.38,4047.18,3955.9,4603.59,4076.41,4032.31,4414.87,3930.77,4049.74,3913.85,4209.74,0
12_0_13,15,4096.92,4161.03,4149.23,4184.62,4044.62,3961.54,4598.46,4064.1,4023.08,4410.77,3925.64,4053.33,3903.59,4216.41,0
12_0_13,16,4100,4174.87,4147.69,4188.21,4048.21,3952.82,4525.64,4077.95,4042.56,4412.82,3935.9,4064.1,3912.82,4238.97,0
12_0_13,17,4071.28,4154.36,4129.23,4169.23,4044.1,3953.85,4475.38,4083.59,4037.44,4393.33,3911.79,4049.23,3892.82,4232.31,0
12_0_13,18,4053.33,4149.23,4123.59,4172.31,4046.15,3956.41,4490.77,4083.08,4038.97,4381.54,3896.92,4045.13,3873.33,4232.82,0
12_0_13,19,4053.85,4163.59,4115.9,4187.69,4055.9,3961.03,4452.31,4089.23,4041.03,4383.59,3910.77,4058.97,3883.08,4261.54,0
12_0_13,20,4046.15,4158.46,4090.26,4185.13,4048.72,3974.36,4385.13,4094.87,4036.92,4383.59,3914.87,4062.56,3887.69,4282.56,0
12_0_13,21,4042.05,4158.46,4055.9,4186.67,4038.46,3977.95,4439.49,4106.67,4053.85,4391.79,3917.44,4062.05,3885.64,4293.33,0
12_0_13,22,4033.85,4168.21,3994.36,4191.28,4043.59,3963.59,4561.03,4115.38,4053.85,4384.62,3921.54,4050.26,3877.44,4295.38,0
12_0_13,23,4026.67,4168.21,3939.49,4191.28,4046.15,3956.92,4590.77,4105.64,4032.82,4360,3922.05,4033.33,3868.72,4297.44,0
12_0_13,24,4049.23,4178.97,3949.23,4198.97,4041.54,3972.82,4577.44,4108.21,4048.72,4356.41,3940,4045.64,3876.92,4313.85,0
12_0_13,25,4070.26,4187.69,3984.62,4204.62,4048.21,3990.26,4596.92,4114.36,4066.15,4356.41,3949.74,4060,3878.46,4322.05,0
12_0_13,26,4060.51,4173.85,3996.41,4202.05,4049.74,3986.15,4599.49,4103.59,4046.15,4332.31,3933.33,4049.23,3856.41,4309.74,0
12_0_13,27,4054.36,4162.56,4007.69,4203.08,4040.51,3976.92,4582.05,4094.87,4026.15,4301.54,3921.54,4048.21,3837.95,4309.74,0
12_0_13,28,4062.56,4164.62,4020.51,4202.56,4038.46,3976.92,4588.21,4086.15,4021.03,4276.41,3922.05,4062.05,3836.92,4320,0
12_0_13,29,4060.51,4157.44,4021.54,4200.51,4050.77,3975.38,4602.56,4086.15,4030.26,4271.28,3914.36,4060,3829.23,4314.87,0
12_0_13,30,4052.82,4143.08,4026.15,4205.64,4054.36,3972.82,4592.31,4099.49,4043.08,4282.56,3902.05,4049.74,3811.28,4307.69,0
12_0_13,31,4057.95,4135.9,4041.03,4208.72,4038.46,3973.33,4583.08,4104.1,4033.85,4275.9,3901.54,4052.31,3802.05,4313.33,0
12_0_13,32,4077.95,4141.03,4055.9,4211.28,4036.41,3977.44,4602.56,4109.23,4029.23,4260,3913.85,4068.21,3811.79,4326.67,0
12_0_13,33,4078.46,4135.38,4068.21,4217.44,4043.08,3976.41,4604.62,4112.82,4040.51,4250.77,3908.72,4072.82,3810.26,4329.23,0
12_0_13,34,4053.33,4111.28,4089.74,4216.41,4034.36,3971.28,4562.56,4092.82,4028.21,4228.21,3882.56,4056.41,3782.05,4311.28,0
12_0_13,35,4053.33,4104.62,4135.9,4210.26,4031.28,3966.67,4536.92,4083.59,4007.69,4199.49,3874.87,4052.31,3769.23,4297.44,0
12_0_13,36,4073.85,4109.74,4178.97,4210.26,4045.13,3962.56,4558.46,4092.82,4005.64,4178.97,3880.51,4064.62,3770.77,4298.97,0
12_0_13,37,4068.21,4095.38,4199.49,4209.23,4048.72,3961.54,4572.31,4069.23,3991.28,4145.13,3862.05,4063.59,3752.31,4292.31,0
12_0_13,38,4049.74,4076.92,4215.9,4198.46,4038.97,3953.33,4556.41,4051.28,3987.18,4118.97,3845.64,4053.85,3736.92,4278.97,0
12_0_13,39,4047.18,4067.18,4231.28,4185.64,4032.82,3941.54,4564.62,4078.46,4010.26,4117.95,3849.23,4052.31,3745.64,4270.77,0
12_0_13,40,4048.21,4061.03,4232.31,4181.54,4033.33,3943.59,4597.95,4078.46,4004.1,4097.95,3844.62,4049.23,3755.9,4262.56,0
12_0_13,41,4055.38,4065.64,4228.72,4188.72,4044.62,3946.67,4607.69,4053.85,3978.97,4071.79,3837.44,4049.74,3771.79,4262.56,0
12_0_13,42,4063.08,4065.13,4226.15,4186.67,4046.67,3938.46,4595.9,4051.79,3977.44,4071.79,3830.26,4051.28,3791.28,4263.59,0
12_0_13,43,4052.82,4045.13,4234.36,4171.79,4036.41,3938.46,4590.77,4057.95,3979.49,4057.95,3807.18,4043.59,3788.21,4245.64,0
12_0_13,44,4048.72,4038.46,4261.03,4165.64,4037.95,3938.46,4585.64,4048.21,3971.28,4022.05,3785.13,4041.54,3783.59,4229.74,0
12_0_13,45,4061.03,4046.67,4274.36,4174.87,4042.05,3928.72,4569.74,4036.92,3970.77,4015.9,3780.51,4049.74,3805.64,4234.36,0
12_0_13,46,4066.67,4037.95,4296.41,4180,4036.41,3933.85,4570.77,4042.05,3973.85,4014.87,3770.77,4054.87,3821.54,4229.74,0
12_0_13,47,4071.28,4031.28,4331.28,4171.28,4031.79,3934.87,4600,4055.9,3974.87,3995.38,3762.56,4060,3816.92,4217.44,0
12_0_13,48,4076.92,4044.62,4294.36,4167.18,4036.92,3924.1,4615.38,4063.08,3978.46,3992.82,3772.31,4065.13,3815.9,4218.46,0
12_0_13,49,4071.79,4050.77,4193.33,4171.28,4044.62,3931.79,4572.82,4058.97,3982.05,3993.33,3769.74,4055.38,3814.87,4216.92,0
12_0_13,50,4076.92,4050.26,4146.67,4167.18,4052.31,3946.67,4494.36,4057.44,3984.62,3984.62,3757.95,4049.23,3809.23,4215.38,0
12_0_13,51,4087.18,4056.41,4150.77,4151.79,4060.51,3946.15,4446.67,4064.62,3981.54,3977.44,3754.87,4050.77,3803.08,4222.05,0
12_0_13,52,4081.03,4056.41,4139.49,4153.85,4058.46,3943.59,4436.92,4069.74,3974.36,3969.74,3747.18,4046.15,3789.23,4220.51,0
12_0_13,53,4078.97,4050.77,4125.13,4165.13,4056.92,3945.64,4425.13,4065.64,3971.28,3971.28,3732.82,4044.62,3778.97,4215.38,0
12_0_13,54,4087.69,4053.85,4121.03,4160,4061.03,3951.79,4426.67,4074.36,3978.97,3985.13,3729.74,4050.26,3780.51,4217.44,0
12_0_13,55,4085.64,4048.72,4110.77,4147.18,4057.95,3964.1,4446.15,4085.64,3987.69,3976.92,3723.08,4044.62,3769.74,4206.67,0
12_0_13,56,4086.15,4038.46,4107.18,4138.97,4053.85,3958.97,4446.67,4073.85,3988.72,3957.44,3715.38,4035.9,3757.95,4194.87,0
12_0_13,57,4103.08,4050.77,4113.85,4143.08,4062.56,3942.56,4433.33,4069.74,3984.62,3958.46,3723.08,4048.21,3767.18,4209.74,0
12_0_13,58,4108.72,4062.56,4130.26,4156.92,4066.15,3946.15,4407.18,4084.62,3974.36,3953.85,3715.38,4060.51,3770.26,4218.97,0
12_0_13,59,4096.92,4051.79,4144.62,4153.85,4057.95,3956.41,4352.82,4080.51,3967.69,3937.44,3684.1,4051.79,3758.46,4208.21,0
12_0_13,60,4082.05,4030.77,4133.85,4134.87,4054.87,3949.23,4310.26,4068.21,3981.54,3929.23,3658.46,4038.46,3743.08,4196.92,0
12_0_13,61,4071.79,4021.54,4107.69,4132.31,4048.21,3934.87,4327.18,4080,3990.26,3923.59,3649.74,4033.85,3728.21,4192.31,0
12_0_13,62,4074.87,4031.79,4097.95,4145.64,4044.62,3936.41,4367.69,4088.21,3968.72,3913.33,3647.69,4035.38,3728.72,4194.87,0
12_0_13,63,4083.08,4043.08,4106.67,4143.08,4056.41,3948.72,4383.59,4078.46,3957.95,3910.26,3651.79,4035.9,3740,4201.54,0
12_0_13,64,4085.13,4037.95,4112.31,4134.36,4056.92,3947.69,4371.28,4080,3977.44,3913.33,3653.85,4034.87,3735.9,4201.03,0
12_0_13,65,4081.54,4027.69,4115.9,4129.23,4043.08,3934.87,4350.77,4083.59,3974.87,3896.41,3643.08,4028.72,3718.46,4190.77,0
12_0_13,66,4083.08,4025.64,4128.21,4127.18,4043.08,3935.9,4349.23,4074.87,3958.97,3874.36,3637.44,4026.15,3709.23,4186.15,0
12_0_13,67,4083.08,4022.56,4130.77,4123.59,4046.67,3945.64,4352.31,4071.79,3972.82,3875.9,3633.33,4024.62,3705.64,4186.67,0
12_0_13,68,4078.46,4012.82,4123.59,4113.33,4037.95,3936.41,4353.33,4076.92,3977.44,3876.92,3624.1,4015.9,3699.49,4180.51,0
12_0_13,69,4076.92,4008.21,4130.77,4109.23,4034.36,3921.54,4366.15,4070.77,3958.46,3866.15,3622.56,4009.74,3693.33,4174.87,0
12_0_13,70,4072.31,4001.54,4136.92,4103.59,4043.08,3926.15,4367.18,4050.26,3946.15,3855.9,3620,4002.56,3680,4165.64,0
12_0_13,71,4075.38,3999.49,4127.69,4093.33,4046.15,3929.23,4343.59,4047.18,3947.69,3844.1,3618.97,4000.51,3676.41,4162.05,0
12_0_13,72,4089.74,4008.21,4127.69,4093.33,4043.59,3918.97,4323.59,4064.62,3954.36,3841.54,3629.23,4010.77,3691.28,4174.87,0
12_0_13,73,4091.79,4008.72,4158.46,4097.44,4046.15,3920.51,4309.23,4078.97,3966.67,3851.79,3630.77,4011.79,3695.9,4178.97,0
12_0_13,74,4086.15,3997.95,4196.92,4090.77,4052.31,3924.1,4284.1,4081.03,3975.9,3854.36,3620.51,4005.64,3690.77,4169.23,0
12_0_13,75,4090.77,3997.44,4197.44,4081.03,4050.26,3910.77,4272.31,4080.51,3969.23,3847.18,3621.03,4007.18,3694.87,4166.67,0
12_0_13,76,4080,3991.28,4150.77,4065.64,4038.97,3906.15,4270.26,4069.23,3958.97,3830.26,3613.85,3990.77,3684.62,4154.87,0
12_0_13,77,4061.03,3974.87,4105.64,4051.79,4029.74,3908.21,4237.95,4052.31,3952.82,3812.82,3597.95,3967.18,3669.23,4138.97,0
12_0_13,78,4071.79,3984.1,4086.67,4058.97,4030.77,3901.03,4204.62,4071.28,3958.97,3823.08,3607.18,3976.92,3687.18,4152.31,0
12_0_13,79,4085.64,4005.64,4070.26,4065.64,4037.44,3902.05,4218.97,4096.41,3965.64,3841.03,3623.59,3987.18,3710.26,4168.21,0
12_0_13,80,4076.41,4001.54,4052.82,4053.33,4039.49,3910.77,4247.69,4083.59,3960,3829.74,3621.54,3968.72,3706.15,4156.92,0
12_0_13,81,4070.77,3986.67,4050.26,4042.05,4030.77,3910.77,4253.85,4053.85,3943.08,3805.13,3615.9,3955.38,3695.9,4148.72,0
12_0_13,82,4081.03,3981.54,4061.54,4033.85,4016.41,3906.67,4269.23,4043.08,3935.38,3793.33,3621.54,3955.38,3696.92,4151.28,0
12_0_13,83,4097.44,3989.74,4071.79,4030.77,4013.85,3898.97,4302.56,4065.64,3951.79,3808.72,3643.59,3966.15,3716.92,4164.1,0
12_0_13,84,4103.08,3992.82,4093.33,4033.85,4025.13,3893.33,4302.56,4075.9,3951.79,3825.64,3658.46,3975.9,3734.36,4174.36,0
12_0_13,85,4093.33,3973.85,4141.03,4023.08,4027.18,3894.87,4253.85,4055.38,3928.72,3808.21,3640,3958.97,3717.95,4151.28,0
12_0_13,86,4089.23,3961.54,4160.51,4013.85,4018.97,3893.85,4200.51,4056.92,3929.23,3794.87,3617.95,3943.59,3705.64,4130.77,0
12_0_13,87,4093.33,3976.41,4100.51,4017.95,4017.44,3900.51,4176.41,4080,3940,3811.28,3625.64,3940,3727.69,4144.1,0
12_0_13,88,4086.67,3986.67,4020.51,4009.23,4021.03,3915.38,4166.15,4074.36,3926.15,3818.46,3639.49,3924.1,3741.03,4154.87,0
12_0_13,89,4089.74,3995.38,3986.67,4004.62,4028.21,3911.28,4158.46,4076.92,3919.49,3822.56,3649.74,3905.13,3746.67,4158.46,0
12_0_13,90,4106.67,4011.28,3972.82,4018.46,4033.85,3897.95,4152.31,4108.72,3931.28,3844.1,3665.64,3884.1,3764.62,4173.33,0
12_0_13,91,4105.13,4011.28,3953.33,4017.44,4032.31,3894.36,4142.05,4111.28,3923.59,3850.26,3673.33,3853.33,3771.28,4175.38,0
12_0_13,92,4094.36,4001.54,3947.69,4002.05,4026.15,3893.33,4139.49,4091.28,3902.05,3840,3664.62,3838.97,3767.69,4161.03,0
12_0_13,93,4089.74,3996.92,3955.9,4001.03,4020,3890.77,4150.77,4091.79,3898.97,3842.56,3654.87,3841.54,3770.26,4153.33,0
12_0_13,94,4082.56,3993.33,3960,3996.92,4013.85,3887.18,4158.46,4105.64,3912.31,3848.72,3652.31,3840,3769.23,4151.28,0
12_0_13,95,4078.97,3993.85,3957.44,3985.13,4011.28,3877.95,4137.95,4105.64,3914.36,3838.46,3650.77,3840.51,3772.31,4151.79,0
12_0_13,96,4084.62,3997.44,3956.92,3985.64,4009.23,3863.08,4082.05,4075.38,3894.87,3826.15,3651.28,3845.64,3782.05,4152.31,0
12_0_13,97,4089.74,4001.54,3957.44,3988.21,4005.64,3857.44,4032.82,4056.41,3886.67,3835.9,3660.51,3846.67,3773.33,4154.36,0
12_0_13,98,4088.21,4002.05,3953.33,3977.44,4006.67,3860.51,4034.87,4079.49,3904.62,3846.67,3668.72,3849.74,3754.36,4156.41,0
12_0_13,99,4078.97,3992.82,3953.33,3964.62,3998.97,3855.9,4065.64,4098.46,3915.9,3840.51,3664.62,3848.72,3750.26,4146.67,0
12_0_13,100,4072.82,3982.05,3960,3956.41,3986.67,3846.15,4094.36,4095.38,3908.72,3841.03,3657.95,3846.15,3752.82,4136.41,0
12_0_13,101,4081.03,3986.67,3966.15,3947.18,3986.15,3849.74,4121.54,4092.82,3902.56,3852.82,3665.64,3850.77,3757.44,4141.03,0
12_0_13,102,4084.1,3988.21,3968.72,3943.08,3990.77,3851.79,4128.72,4096.92,3905.64,3851.28,3676.92,3852.31,3763.59,4138.46,0
12_0_13,103,4076.41,3980,3976.41,3943.08,3992.31,3844.62,4131.79,4094.87,3915.38,3849.23,3685.64,3853.85,3766.67,4125.64,0
12_0_13,104,4074.87,3978.46,3985.64,3932.31,3991.28,3845.13,4115.9,4095.9,3918.97,3857.95,3693.33,3858.46,3769.23,4120,0
12_0_13,105,4070.77,3971.79,3989.23,3915.9,3985.64,3842.56,4046.67,4097.44,3908.72,3849.23,3691.28,3852.82,3768.21,4113.33,0
12_0_13,106,4066.67,3961.54,3996.41,3907.18,3975.9,3834.36,4008.72,4085.13,3906.67,3843.59,3690.77,3846.15,3768.72,4105.64,0
12_0_13,107,4068.21,3956.41,4007.69,3899.49,3973.85,3835.9,4045.64,4076.92,3912.82,3860.51,3697.44,3853.33,3777.44,4106.15,0
12_0_13,108,4070.77,3959.49,4014.36,3890.77,3976.92,3846.15,4083.08,4086.67,3910.26,3869.23,3711.28,3862.56,3790.26,4109.23,0
12_0_13,109,4075.9,3968.72,4021.54,3891.28,3975.9,3854.36,4085.64,4093.33,3911.28,3861.54,3726.67,3863.08,3802.05,4111.79,0
12_0_13,110,4081.54,3976.41,4030.77,3886.67,3974.36,3860.51,4075.9,4095.9,3925.13,3861.54,3734.36,3865.64,3807.18,4112.82,0
12_0_13,111,4080,3971.79,4034.87,3865.13,3976.41,3865.64,4058.97,4106.15,3936.92,3868.21,3735.38,3867.69,3807.18,4107.69,0
12_0_13,112,4076.41,3960.51,4039.49,3849.23,3975.38,3862.56,4052.82,4095.38,3930.77,3862.05,3735.9,3864.62,3810.77,4099.49,0
12_0_13,113,4076.41,3957.44,4047.69,3844.1,3970.26,3860.51,4049.74,4070.77,3922.05,3856.41,3742.56,3862.56,3815.38,4092.31,0
12_0_13,114,4073.33,3957.44,4053.33,3835.9,3973.33,3866.67,4005.64,4076.41,3929.23,3862.56,3745.64,3862.05,3816.92,4083.59,0
12_0_13,115,4068.72,3952.82,4057.44,3826.67,3972.82,3870.77,3972.82,4087.69,3945.13,3863.59,3745.13,3858.46,3821.03,4075.38,0
12_0_13,116,4068.21,3953.85,4063.59,3825.13,3962.05,3863.08,3987.69,4089.23,3953.85,3860.51,3754.36,3860,3831.28,4079.49,0
12_0_13,117,4073.85,3965.13,4067.18,3831.79,3962.05,3851.79,3984.1,4096.41,3961.03,3873.85,3771.79,3868.72,3845.64,4091.79,0
12_0_13,118,4070.77,3965.64,4066.67,3834.87,3967.69,3848.72,3934.87,4085.64,3964.1,3874.36,3777.44,3868.21,3852.31,4086.67,0
12_0_13,119,4055.38,3956.41,4065.13,3828.72,3969.74,3852.82,3908.21,4061.54,3948.72,3844.1,3770.77,3859.49,3847.18,4067.69,0
12_0_13,120,4046.67,3952.82,4065.13,3818.97,3971.79,3859.49,3921.54,4057.95,3945.64,3841.03,3775.9,3857.44,3845.13,4060.51,0
12_0_13,121,4048.21,3949.23,4070.77,3821.03,3964.62,3863.08,3935.9,4075.38,3964.1,3862.56,3784.62,3861.54,3845.64,4063.08,0
12_0_13,122,4048.72,3943.08,4074.36,3834.36,3952.31,3862.05,3952.82,4078.97,3965.13,3855.38,3787.18,3864.1,3847.69,4061.03,0
12_0_13,123,4043.59,3942.05,4069.74,3830.26,3954.36,3858.97,3954.36,4064.1,3957.44,3841.03,3783.59,3858.46,3854.87,4055.38,0
12_0_13,124,4043.59,3943.59,4065.13,3815.9,3961.03,3853.85,3937.44,4073.33,3975.9,3854.36,3782.56,3854.87,3860,4050.77,0
12_0_13,125,4043.08,3944.1,4064.62,3820,3956.92,3854.36,3912.82,4093.85,3989.74,3866.67,3791.28,3860.51,3866.15,4050.26,0
12_0_13,126,4037.95,3949.74,4063.08,3830.77,3956.41,3861.54,3895.38,4075.38,3974.87,3860,3798.46,3862.56,3890.77,4051.28,0
12_0_13,127,4036.41,3955.9,4058.97,3830.77,3958.97,3863.59,3922.56,4058.46,3972.82,3858.97,3802.05,3858.46,3926.15,4051.28,0
12_0_13,128,4040.51,3958.46,4056.92,3830.26,3960.51,3863.08,3983.59,4082.05,3984.62,3862.05,3814.36,3863.08,3957.95,4057.44,0
12_0_13,0,4038.46,3954.87,4052.82,3832.82,3961.54,3864.62,4001.03,4093.33,3988.21,3854.36,3829.23,3868.72,3983.59,4057.44,0
12_0_13,1,4029.74,3944.62,4047.18,3831.28,3958.97,3864.1,3987.18,4077.95,3989.23,3845.64,3831.79,3864.1,3996.41,4046.15,0
12_0_13,2,4024.62,3937.44,4044.62,3826.67,3956.41,3861.03,4012.31,4069.23,3986.15,3844.62,3835.38,3866.67,4000.51,4038.46,0
12_0_13,3,4030.77,3941.03,4046.67,3829.74,3957.95,3860.51,4030.26,4069.74,3990.77,3849.74,3849.74,3881.54,4013.33,4044.62,0
12_0_13,4,4046.15,3953.85,4054.36,3843.08,3957.95,3865.64,4009.23,4081.54,4010.26,3861.54,3866.67,3897.95,4028.72,4057.44,0
12_0_13,5,4048.72,3960,4056.92,3847.69,3954.36,3874.36,4011.79,4096.41,4018.97,3868.72,3880.51,3904.62,4029.23,4054.36,0
12_0_13,6,4038.97,3953.85,4054.87,3834.87,3959.49,3889.23,4043.59,4092.82,4007.69,3858.97,3883.59,3900,4021.03,4040,0
12_0_13,7,4034.87,3943.59,4054.36,3827.18,3970.77,3895.9,4057.95,4086.15,4002.05,3856.41,3878.46,3896.92,4020,4034.36,0
12_0_13,8,4032.82,3941.54,4059.49,3830.26,3968.72,3881.54,4065.64,4076.92,4007.18,3860,3877.95,3902.05,4016.92,4030.26,0
12_0_13,9,4029.23,3941.03,4063.59,3829.23,3957.95,3872.82,4069.23,4058.97,4011.28,3855.38,3887.18,3906.67,4009.74,4021.03,0
12_0_13,10,4028.21,3937.44,4063.59,3826.15,3957.44,3885.13,4043.08,4058.97,4014.36,3854.36,3894.36,3908.21,4010.77,4019.49,0
12_0_13,11,4026.67,3937.95,4065.13,3830.77,3959.49,3893.85,4017.95,4072.31,4017.95,3854.87,3894.87,3916.41,4012.31,4022.05,0
12_0_13,12,4026.67,3943.59,4072.31,3844.62,3959.49,3890.77,4027.18,4081.54,4024.62,3855.9,3899.49,3927.69,4014.36,4022.56,0
12_0_14,13,4030.26,3950.77,4078.97,3860,3968.21,3892.31,4046.15,4092.31,4028.21,3849.23,3915.38,3929.23,4022.05,4029.74,0
12_0_14,14,4030.77,3954.36,4084.62,3862.56,3971.79,3891.28,4052.82,4094.87,4027.18,3831.79,3924.1,3927.69,4028.21,4035.38,0
12_0_14,15,4027.18,3956.41,4091.28,3862.56,3974.36,3897.44,4045.13,4081.03,4027.69,3829.23,3922.56,3934.87,4028.72,4033.33,0
12_0_14,16,4026.15,3959.49,4097.44,3871.28,3986.15,3913.33,4033.33,4075.9,4031.28,3851.79,3929.74,3944.62,4033.33,4032.82,0
12_0_14,17,4019.49,3952.31,4099.49,3876.41,3981.54,3917.44,4037.95,4090.77,4049.23,3869.23,3940,3950.77,4038.97,4033.33,0
12_0_14,18,4011.79,3941.54,4099.49,3876.41,3972.31,3918.46,4058.46,4093.33,4062.56,3862.56,3945.13,3953.33,4042.56,4031.79,0
12_0_14,19,4013.85,3949.23,4100.51,3878.97,3988.21,3928.21,4074.87,4075.9,4041.54,3850.26,3952.31,3953.33,4048.21,4030.77,0
12_0_14,20,4015.9,3958.97,4099.49,3883.59,3999.49,3925.64,4077.44,4075.38,4022.56,3841.03,3959.49,3952.82,4048.21,4031.79,0
12_0_14,21,4009.23,3950.26,4089.74,3884.62,3990.26,3917.44,4064.62,4091.79,4040.51,3831.28,3956.41,3948.72,4043.08,4027.18,0
12_0_14,22,4004.1,3948.72,4078.97,3888.21,3989.23,3928.21,4051.28,4082.56,4051.28,3818.97,3956.41,3950.26,4045.13,4026.15,0
12_0_14,23,4008.21,3962.56,4075.38,3899.49,3995.38,3940,4056.92,4071.79,4037.44,3813.33,3975.38,3962.56,4055.9,4041.54,0
12_0_14,24,4008.21,3961.54,4067.69,3902.56,3996.41,3936.41,4066.15,4091.79,4045.13,3815.38,3992.82,3969.23,4063.59,4047.18,0
12_0_14,25,3992.31,3947.18,4056.41,3895.9,4000,3936.92,4058.97,4094.36,4053.85,3806.67,3989.23,3953.85,4055.9,4027.69,0
12_0_14,26,3974.36,3941.03,4049.74,3896.92,3998.97,3945.64,4033.85,4070.26,4037.95,3792.82,3981.03,3939.49,4043.59,4011.28,0
12_0_14,27,3968.21,3939.49,4046.67,3904.62,4003.08,3946.15,4004.1,4074.36,4038.46,3795.9,3989.74,3943.59,4044.1,4016.41,0
12_0_14,28,3971.79,3941.54,4046.15,3915.9,4015.38,3949.74,3996.41,4104.1,4063.08,3808.72,4011.79,3956.92,4060,4030.26,0
12_0_14,29,3977.95,3952.31,4051.28,3932.82,4004.62,3961.03,4025.13,4111.28,4071.79,3802.56,4027.69,3966.15,4081.03,4040,0
12_0_14,30,3982.05,3959.49,4051.79,3942.05,3970.77,3963.08,4068.21,4100.51,4053.85,3779.49,4032.31,3966.15,4092.82,4043.08,0
12_0_14,31,3983.59,3952.82,4045.64,3938.97,3947.18,3953.85,4081.54,4096.41,4045.13,3770.77,4031.79,3960,4090.26,4037.95,0
12_0_14,32,3983.59,3946.67,4045.64,3941.54,3947.18,3954.87,4057.44,4092.82,4064.62,3785.64,4030.26,3956.92,4088.72,4030.26,0
12_0_14,33,3979.49,3939.49,4053.85,3941.54,3940,3959.49,4035.9,4081.03,4079.49,3790.26,4029.23,3955.9,4091.28,4021.03,0
12_0_14,34,3974.36,3928.21,4058.46,3935.38,3925.64,3948.21,4029.23,4075.9,4055.9,3757.95,4026.67,3954.87,4088.21,4017.95,0
12_0_14,35,3970.26,3927.18,4072.31,3942.56,3928.72,3944.62,4026.67,4082.05,4038.97,3729.74,4026.15,3957.95,4090.26,4020,0
12_0_14,36,3962.05,3922.56,4117.95,3950.26,3933.33,3955.9,4033.85,4082.05,4055.9,3736.41,4029.23,3961.03,4101.03,4011.28,0
12_0_14,37,3956.92,3912.82,4144.62,3949.23,3932.82,3962.56,4037.95,4081.54,4056.92,3743.59,4035.9,3957.44,4108.72,4004.1,0
12_0_14,38,3957.44,3921.03,4078.46,3957.95,3948.72,3964.62,4032.82,4089.23,4044.1,3734.87,4047.69,3958.46,4121.03,4012.82,0
12_0_14,39,3950.26,3944.1,3965.64,3971.28,3975.9,3973.33,4011.79,4093.85,4049.23,3732.31,4063.08,3956.41,4136.41,4023.59,0
12_0_14,40,3940.51,3953.33,3895.9,3973.33,3975.38,3988.21,3942.56,4100.51,4060.51,3743.08,4070.77,3945.13,4138.97,4024.62,0
12_0_14,41,3935.38,3948.72,3863.59,3978.46,3963.59,3997.44,3845.64,4108.72,4072.31,3753.33,4066.67,3937.95,4141.03,4028.21,0
12_0_14,42,3931.28,3945.64,3838.46,3996.41,3968.72,3998.97,3826.15,4106.15,4077.44,3759.49,4071.79,3942.05,4152.82,4034.36,0
12_0_14,43,3934.36,3944.1,3858.46,4011.79,3974.87,3996.41,3918.46,4107.69,4072.31,3760.51,4087.69,3952.82,4159.49,4038.97,0
12_0_14,44,3952.31,3945.64,3943.59,4013.33,3973.85,3995.38,4015.38,4112.31,4072.31,3763.59,4095.38,3961.54,4158.46,4042.56,0
12_0_14,45,3960,3935.9,4028.21,4003.59,3968.72,3997.95,4045.13,4090.26,4062.05,3745.64,4090.26,3954.87,4145.13,4020.51,0
12_0_14,46,3948.21,3926.15,4028.21,3998.46,3966.15,4004.1,4028.72,4067.18,4037.95,3709.74,4087.18,3941.54,4128.72,3987.18,0
12_0_14,47,3941.03,3941.03,3950.77,4009.74,3981.54,4000,3962.05,4083.59,4046.67,3717.95,4103.59,3942.56,4139.49,3988.21,0
12_0_14,48,3946.67,3964.62,3904.1,4026.67,4003.59,3997.44,3881.54,4110.77,4077.44,3744.62,4118.97,3948.21,4163.59,4009.23,0
12_0_14,49,3947.69,3964.62,3937.95,4033.33,3998.46,4013.85,3842.56,4100,4070.26,3731.28,4105.64,3942.56,4157.95,4005.64,0
12_0_14,50,3936.41,3947.18,3989.74,4036.41,3985.64,4020,3813.33,4092.82,4058.97,3727.18,4087.69,3940,4140.51,3994.87,0
12_0_14,51,3928.72,3936.92,4006.15,4046.67,3988.72,4007.69,3813.33,4112.31,4077.44,3747.69,4094.87,3943.08,4143.59,4001.03,0
12_0_14,52,3924.62,3924.1,4006.67,4052.82,3976.92,4012.31,3897.95,4090.26,4081.54,3730.26,4090.77,3933.85,4138.97,3992.31,0
12_0_14,53,3922.56,3918.46,4020,4054.36,3957.95,4024.1,3989.23,4043.08,4053.85,3708.72,4071.79,3922.56,4121.03,3976.41,0
12_0_14,54,3931.28,3924.62,4035.9,4061.54,3968.72,4015.38,4018.46,4044.1,4033.33,3725.13,4084.62,3921.03,4118.97,3985.13,0
12_0_14,55,3946.67,3926.67,4050.77,4068.72,3985.64,4000.51,4034.87,4073.33,4040,3734.36,4109.23,3917.44,4128.72,4002.05,0
12_0_14,56,3960,3932.31,4069.74,4077.95,3985.13,4009.23,4039.49,4076.92,4045.13,3731.79,4108.21,3905.64,4129.74,4003.59,0
12_0_14,57,3962.56,3939.49,4091.79,4091.79,3985.64,4026.67,3986.15,4069.74,4043.08,3749.74,4103.08,3891.28,4127.18,3998.46,0
12_0_14,58,3961.03,3934.36,4104.1,4094.87,3983.08,4030.26,3905.64,4071.28,4053.33,3778.46,4109.23,3883.08,4129.74,4001.03,0
12_0_14,59,3956.92,3923.08,4104.1,4083.59,3984.1,4025.64,3889.74,4069.74,4071.28,3800,4106.67,3877.44,4125.13,3997.95,0
12_0_14,60,3957.44,3927.69,4102.05,4081.03,3994.87,4031.28,3965.13,4065.64,4068.72,3816.92,4103.59,3875.38,4113.33,3990.77,0
12_0_14,61,3963.08,3933.85,4104.62,4084.62,3985.64,4041.54,4018.97,4060,4057.95,3818.46,4106.67,3875.9,4108.72,3991.79,0
12_0_14,62,3956.41,3927.69,4107.69,4077.44,3962.56,4042.05,4007.18,4056.41,4059.49,3813.85,4089.74,3868.72,4100,3989.23,0
12_0_14,63,3948.72,3925.13,4116.92,4071.28,3970.26,4037.44,4003.08,4055.38,4057.44,3807.18,4073.33,3861.03,4088.72,3980.51,0
12_0_14,64,3957.95,3927.18,4127.18,4076.41,3989.23,4042.05,3998.97,4060,4060,3809.23,4103.59,3873.33,4100.51,3992.82,0
12_0_14,65,3956.41,3923.59,4127.69,4077.44,3982.56,4047.18,3966.67,4067.69,4072.31,3816.41,4130.26,3883.08,4114.36,4011.28,0
12_0_14,66,3941.54,3927.69,4122.56,4078.46,3977.44,4040.51,3969.74,4064.1,4074.36,3808.72,4106.67,3868.21,4103.59,3997.95,0
12_0_14,67,3948.21,3941.54,4122.05,4087.69,3982.56,4041.54,4010.26,4042.56,4061.03,3796.92,4105.13,3855.38,4103.59,3983.59,0
12_0_14,68,3959.49,3943.08,4117.44,4086.15,3981.54,4057.44,4012.31,4023.59,4058.97,3801.54,4158.97,3854.36,4122.56,3994.87,0
12_0_14,69,3956.41,3935.38,4113.33,4078.97,3975.38,4053.33,3978.46,4023.59,4071.28,3810.77,4185.13,3850.26,4122.56,4002.05,0
12_0_14,70,3960.51,3939.49,4115.38,4082.56,3971.28,4037.95,3961.54,4030.26,4074.36,3796.41,4165.64,3846.15,4106.15,3993.33,0
12_0_14,71,3972.31,3948.72,4116.41,4090.26,3987.18,4038.46,3974.36,4033.33,4072.82,3776.41,4169.23,3853.33,4108.72,3993.85,0
12_0_14,72,3986.15,3963.08,4115.9,4097.44,4012.82,4050.26,4006.15,4046.15,4083.59,3782.56,4200.51,3864.1,4130.26,4014.87,0
12_0_14,73,4004.62,3982.05,4116.41,4100.51,4014.36,4057.95,4022.05,4052.82,4092.31,3807.69,4214.36,3864.62,4138.46,4031.79,0
12_0_14,74,4015.38,3988.21,4114.87,4098.97,4004.62,4059.49,4017.95,4054.36,4097.44,3836.92,4217.44,3866.15,4135.9,4026.15,0
12_0_14,75,4017.95,3987.18,4108.72,4100.51,4018.46,4066.15,4031.28,4079.49,4108.72,3830.77,4225.64,3873.33,4137.44,4021.54,0
12_0_14,76,4017.44,3989.74,4098.46,4102.56,4024.62,4071.28,4047.69,4084.1,4115.38,3789.23,4222.05,3870.77,4129.23,4023.59,0
12_0_14,77,4014.36,3989.74,4086.15,4096.41,4005.64,4069.74,4021.54,4054.36,4117.95,3781.03,4212.31,3860.51,4124.1,4015.9,0
12_0_14,78,4015.9,3987.69,4081.54,4094.36,4005.64,4069.74,3994.87,4052.31,4124.1,3804.62,4214.87,3858.97,4137.95,4012.31,0
12_0_14,79,4020.51,3990.26,4081.03,4097.44,4024.62,4074.36,4017.95,4068.72,4114.87,3788.72,4220.51,3862.05,4156.41,4015.9,0
12_0_14,80,4017.44,3989.23,4078.46,4093.33,4028.21,4084.62,4046.15,4055.9,4098.46,3754.36,4217.95,3859.49,4167.69,4009.23,0
12_0_14,81,4014.87,3981.54,4073.85,4090.26,4028.72,4083.59,4040.51,4045.64,4109.23,3746.15,4213.33,3855.9,4186.15,4001.54,0
12_0_14,82,4033.33,3991.79,4080.51,4100.51,4040,4079.49,4047.69,4066.67,4125.13,3735.9,4223.59,3865.64,4222.05,4016.41,0
12_0_14,83,4055.9,4011.28,4085.64,4114.36,4041.54,4088.21,4076.41,4079.49,4124.62,3716.41,4244.1,3883.08,4253.33,4032.31,0
12_0_14,84,4053.33,4007.69,4072.82,4113.85,4036.92,4101.54,4087.18,4069.74,4116.92,3694.36,4245.13,3881.03,4251.79,4024.1,0
12_0_14,85,4045.64,4002.05,4062.05,4107.69,4046.15,4094.87,4076.41,4065.64,4124.62,3689.74,4242.05,3874.36,4250.77,4015.9,0
12_0_14,86,4056.92,4008.72,4066.15,4107.69,4046.67,4087.69,4086.15,4070.26,4147.69,3716.41,4261.54,3887.18,4273.33,4025.13,0
12_0_14,87,4066.67,4008.21,4064.62,4106.15,4039.49,4109.74,4112.82,4074.87,4151.79,3712.82,4268.72,3896.92,4276.41,4023.08,0
12_0_14,88,4066.15,4010.77,4058.97,4107.18,4050.26,4127.69,4103.59,4086.15,4137.95,3668.21,4260,3897.95,4258.97,4014.87,0
12_0_14,89,4069.23,4022.05,4056.92,4109.23,4062.05,4119.49,4059.49,4086.67,4137.44,3661.03,4271.28,3909.23,4265.64,4025.64,0
12_0_14,90,4066.15,4019.49,4049.74,4107.18,4064.1,4097.95,4037.95,4073.85,4142.05,3665.64,4279.49,3920,4270.26,4027.69,0
12_0_14,91,4064.1,4017.95,4040.51,4112.31,4072.31,4096.92,4054.36,4086.67,4138.46,3632.82,4268.72,3921.54,4257.44,4016.41,0
12_0_14,92,4075.38,4031.28,4037.95,4123.08,4077.95,4112.82,4063.08,4100.51,4151.79,3636.41,4281.03,3930.77,4264.62,4027.69,0
12_0_14,93,4083.08,4035.38,4031.79,4125.13,4073.85,4108.21,4070.26,4083.08,4164.62,3677.44,4303.59,3943.08,4276.92,4038.46,0
12_0_14,94,4084.1,4028.72,4022.05,4120.51,4064.62,4104.1,4090.77,4086.67,4154.87,3675.38,4300,3944.1,4265.64,4027.18,0
12_0_14,95,4085.13,4025.13,4014.87,4116.41,4062.56,4124.62,4090.26,4108.72,4150.77,3654.87,4292.31,3940.51,4251.79,4017.44,0
12_0_14,96,4091.28,4033.85,4009.74,4118.46,4071.79,4133.33,4080,4105.64,4154.36,3662.05,4305.13,3950.77,4255.38,4025.13,0
12_0_14,97,4089.23,4040.51,4000,4117.44,4081.03,4116.92,4076.41,4091.79,4142.05,3664.62,4301.54,3960.51,4248.21,4023.08,0
12_0_14,98,4076.41,4035.9,3990.26,4113.33,4074.36,4125.13,4080,4088.72,4141.03,3667.69,4291.79,3953.85,4238.97,4009.74,0
12_0_14,99,4083.59,4037.95,3996.41,4118.46,4071.79,4142.05,4091.28,4093.33,4165.64,3697.95,4317.44,3961.54,4264.62,4014.87,0
12_0_14,100,4107.18,4051.28,4009.74,4127.69,4083.59,4127.18,4088.21,4108.72,4175.9,3725.13,4341.03,3981.54,4286.67,4032.82,0
12_0_14,101,4109.23,4051.28,4013.33,4126.15,4087.18,4116.41,4070.26,4122.56,4171.79,3733.33,4328.72,3982.05,4271.28,4037.44,0
12_0_14,102,4096.41,4041.03,4017.44,4122.56,4078.97,4133.85,4070.26,4115.9,4163.59,3727.18,4313.33,3973.33,4250.77,4025.13,0
12_0_14,103,4097.95,4038.97,4033.33,4125.13,4080,4143.08,4078.97,4108.21,4152.82,3706.15,4310.77,3975.9,4245.13,4013.33,0
12_0_14,104,4091.79,4030.26,4044.62,4120.51,4083.59,4135.38,4066.67,4101.54,4147.18,3683.59,4303.08,3976.92,4234.36,4005.13,0
12_0_14,105,4079.49,4020.51,4052.31,4115.9,4077.44,4134.87,4065.64,4088.72,4141.03,3679.49,4300,3972.82,4228.72,4003.59,0
12_0_14,106,4075.38,4019.49,4058.46,4113.33,4080,4134.87,4072.82,4078.97,4143.08,3689.74,4310.26,3972.82,4232.82,4003.59,0
12_0_14,107,4075.38,4018.97,4062.56,4111.79,4091.28,4124.62,4049.23,4078.46,4156.92,3702.05,4315.38,3978.97,4228.72,4000.51,0
12_0_14,108,4081.03,4023.59,4068.72,4118.46,4091.79,4118.46,4024.1,4089.23,4176.41,3729.74,4317.44,3995.38,4229.74,4008.72,0
12_0_14,109,4087.18,4024.62,4073.33,4121.54,4092.31,4126.67,4033.85,4097.95,4177.44,3744.1,4314.87,4002.05,4228.21,4009.74,0
12_0_14,110,4085.64,4020.51,4071.79,4113.33,4087.18,4138.97,4054.87,4097.44,4147.18,3711.28,4300.51,3990.77,4206.15,3991.79,0
12_0_14,111,4087.69,4025.13,4078.46,4109.74,4063.59,4141.03,4072.31,4090.26,4125.13,3692.31,4294.87,3987.69,4192.31,3984.1,0
12_0_14,112,4096.92,4029.23,4088.72,4116.41,4060.51,4138.97,4099.49,4089.23,4147.69,3726.15,4309.74,3999.49,4200,3990.77,0
12_0_14,113,4096.41,4020.51,4090.26,4115.38,4075.38,4139.49,4109.74,4082.56,4167.18,3733.85,4310.77,4004.62,4194.87,3983.08,0
12_0_14,114,4089.23,4012.82,4092.82,4107.69,4063.59,4136.41,4091.79,4069.74,4143.08,3701.54,4285.13,4002.05,4174.87,3964.62,0
12_0_14,115,4100,4021.54,4106.67,4119.49,4059.49,4134.36,4088.72,4077.95,4149.23,3722.05,4288.21,4016.92,4188.72,3976.92,0
12_0_14,116,4104.1,4024.1,4111.28,4136.92,4077.44,4143.59,4093.33,4087.69,4173.85,3754.87,4313.33,4031.28,4207.18,3993.85,0
12_0_14,117,4078.97,3999.49,4105.64,4113.85,4064.62,4144.1,4061.03,4067.18,4157.95,3723.08,4291.79,4017.44,4172.82,3972.82,0
12_0_14,118,4074.36,3983.08,4110.77,4091.79,4044.62,4131.79,4035.9,4058.46,4149.23,3706.15,4260,4012.31,4147.18,3949.74,0
12_0_14,119,4096.41,4000,4121.03,4123.08,4064.62,4139.49,4067.69,4080,4157.95,3724.62,4272.31,4027.69,4163.08,3956.92,0
12_0_14,120,4101.03,4024.1,4125.13,4147.69,4086.67,4155.38,4098.97,4090.77,4144.62,3702.05,4291.79,4034.87,4163.08,3968.72,0
12_0_14,121,4098.46,4032.31,4127.69,4128.21,4090.77,4156.92,4097.44,4092.82,4136.92,3671.79,4290.77,4036.92,4146.15,3969.74,0
12_0_14,122,4115.38,4031.79,4132.31,4126.67,4093.85,4151.79,4090.77,4086.67,4150.77,3692.82,4297.95,4044.1,4154.87,3963.08,0
12_0_14,123,4124.62,4027.69,4133.33,4135.38,4078.97,4152.82,4078.46,4067.18,4152.82,3716.41,4298.97,4051.28,4162.56,3957.44,0
12_0_14,124,4119.49,4016.92,4136.41,4119.49,4077.95,4162.56,4058.97,4068.72,4154.87,3721.54,4284.1,4062.56,4148.72,3964.1,0
12_0_14,125,4131.28,4019.49,4136.41,4125.64,4094.36,4170.26,4049.23,4090.77,4173.85,3743.59,4298.97,4079.49,4157.95,3976.41,0
12_0_14,126,4145.64,4034.36,4125.13,4149.74,4078.46,4169.23,4051.79,4089.74,4173.33,3734.36,4319.49,4082.56,4171.28,3976.92,0
12_0_14,127,4136.92,4043.59,4113.85,4140,4068.72,4169.23,4064.62,4087.18,4165.13,3689.23,4312.31,4077.44,4160,3975.9,0
12_0_14,128,4111.79,4035.38,4112.82,4115.38,4092.31,4173.85,4083.08,4102.56,4160,3671.28,4294.87,4077.95,4145.64,3970.26,0
12_0_14,0,4110.26,4020,4112.82,4121.03,4091.79,4169.74,4081.03,4103.08,4153.33,3689.74,4281.54,4093.85,4142.05,3952.82,0
12_0_14,1,4122.56,4017.95,4096.92,4126.67,4070.26,4164.62,4062.56,4093.85,4162.56,3713.33,4275.38,4101.03,4142.56,3947.69,0
12_0_14,2,4093.33,4004.1,4084.62,4101.03,4062.56,4170.26,4052.31,4091.28,4171.28,3720.51,4274.87,4091.28,4131.28,3940,0
12_0_14,3,4062.05,3984.62,4094.36,4092.82,4054.87,4168.21,4038.46,4085.64,4165.13,3740.51,4278.46,4095.9,4122.56,3920.51,0
12_0_15,4,4085.64,4007.69,4097.95,4111.79,4071.28,4158.46,4021.03,4072.82,4172.82,3781.54,4285.64,4103.59,4137.95,3935.9,0
12_0_15,5,4123.08,4049.23,4088.21,4122.56,4111.79,4161.54,4037.44,4078.97,4181.03,3782.05,4289.23,4111.28,4147.18,3973.85,0
12_0_15,6,4135.38,4054.36,4088.21,4136.41,4109.23,4180,4078.97,4103.08,4165.13,3732.31,4268.21,4141.03,4124.1,3961.03,0
12_0_15,7,4146.15,4052.82,4089.23,4164.1,4107.69,4190.26,4094.36,4114.36,4169.74,3749.23,4272.82,4151.28,4121.03,3937.44,0
12_0_15,8,4158.46,4078.97,4082.05,4169.23,4147.18,4189.74,4089.23,4106.67,4191.79,3815.9,4316.92,4116.92,4141.54,3953.33,0
12_0_15,9,4157.95,4080.51,4082.56,4145.64,4151.28,4189.74,4083.08,4103.59,4180.51,3803.08,4306.15,4108.21,4122.05,3942.05,0
12_0_15,10,4159.49,4054.36,4090.77,4132.82,4121.54,4184.62,4068.21,4108.21,4165.13,3762.05,4256.92,4136.92,4100.51,3913.85,0
12_0_15,11,4157.44,4045.64,4090.77,4143.08,4126.15,4181.54,4056.41,4102.05,4172.82,3786.15,4256.92,4143.59,4112.82,3938.46,0
12_0_15,12,4142.56,4038.97,4085.64,4152.31,4141.03,4185.64,4056.41,4094.36,4181.54,3830.77,4257.44,4133.85,4094.87,3935.9,0
12_0_15,13,4147.18,4042.56,4084.1,4163.08,4138.97,4189.74,4046.15,4087.69,4182.56,3846.67,4239.49,4141.03,4079.49,3891.79,0
12_0_15,14,4169.74,4066.15,4086.15,4177.95,4148.72,4192.31,4027.18,4082.05,4171.79,3842.56,4253.85,4149.23,4096.41,3901.54,0
12_0_15,15,4154.36,4059.49,4078.97,4174.87,4164.62,4201.54,4018.46,4088.72,4151.79,3826.67,4245.13,4118.97,4070.26,3917.44,0
12_0_15,16,4128.72,4029.74,4074.87,4161.54,4148.21,4206.15,4005.13,4088.21,4152.82,3829.23,4181.54,4089.74,4017.95,3882.05,0
12_0_15,17,4145.64,4035.9,4088.21,4142.05,4122.05,4200.51,3986.15,4071.79,4165.64,3849.74,4163.59,4116.41,4017.95,3870.77,0
12_0_15,18,4181.54,4066.15,4119.49,4140.51,4137.95,4196.92,3990.77,4068.72,4162.56,3869.23,4215.38,4152.82,4043.08,3903.59,0
12_0_15,19,4203.08,4084.62,4162.05,4182.05,4174.36,4200,4011.79,4086.67,4176.41,3923.59,4251.79,4157.95,4043.08,3925.64,0
12_0_15,20,4220.51,4096.41,4181.03,4218.46,4178.97,4205.13,4020.51,4091.28,4195.9,3986.15,4249.74,4157.44,4041.54,3931.79,0
12_0_15,21,4228.21,4090.26,4161.03,4190.77,4164.62,4217.95,4025.64,4086.15,4181.54,3979.49,4234.36,4156.41,4032.82,3922.56,0
12_0_15,22,4231.28,4074.36,4147.18,4163.59,4164.62,4230.26,4037.44,4091.28,4175.38,3957.44,4217.44,4149.74,4012.31,3908.72,0
12_0_15,23,4249.74,4078.97,4155.9,4181.03,4170.26,4214.87,4005.64,4090.77,4195.9,3991.79,4208.21,4153.33,3996.92,3918.46,0
12_0_15,24,4247.69,4077.44,4142.05,4177.44,4173.33,4199.49,3931.79,4081.03,4182.05,4021.54,4198.46,4154.36,3979.49,3925.64,0
12_0_15,25,4230.26,4065.64,4120.51,4166.67,4168.72,4209.23,3903.59,4076.92,4158.46,4028.21,4202.05,4144.1,3972.82,3922.05,0
12_0_15,26,4238.46,4070.77,4122.56,4178.46,4156.41,4219.49,3942.05,4078.46,4174.36,4052.82,4207.18,4148.72,3976.92,3936.41,0
12_0_15,27,4252.82,4081.54,4125.13,4185.64,4164.62,4215.38,3956.92,4082.56,4188.72,4085.13,4201.54,4166.15,3973.85,3950.77,0
12_0_15,28,4253.85,4085.13,4110.26,4190.77,4174.36,4211.28,3920,4081.54,4187.69,4111.79,4209.23,4172.31,3978.46,3951.28,0
12_0_15,29,4260.51,4094.87,4096.92,4198.46,4160,4216.92,3890.26,4082.05,4190.77,4140,4236.41,4169.74,3996.41,3967.69,0
12_0_15,30,4265.64,4101.54,4085.13,4194.87,4147.69,4215.38,3865.64,4092.82,4197.44,4153.85,4243.59,4166.15,3988.21,3984.62,0
12_0_15,31,4249.74,4090.26,4069.74,4182.05,4150.77,4205.13,3835.9,4094.36,4187.18,4132.82,4213.85,4157.95,3951.79,3968.72,0
12_0_15,32,4238.46,4085.13,4058.97,4181.54,4153.33,4202.05,3829.74,4073.33,4155.38,4110.26,4193.85,4149.23,3933.85,3956.41,0
12_0_15,33,4248.72,4096.41,4053.85,4185.64,4154.87,4209.74,3851.79,4072.82,4155.38,4114.87,4210.26,4152.31,3946.15,3975.38,0
12_0_15,34,4266.15,4109.74,4048.72,4186.15,4152.31,4208.72,3902.05,4092.31,4194.36,4132.31,4246.15,4165.64,3978.97,3991.79,0
12_0_15,35,4279.49,4115.38,4044.62,4187.69,4150.26,4206.67,3965.64,4090.26,4202.05,4145.64,4267.18,4171.28,4011.79,3991.28,0
12_0_15,36,4288.21,4116.92,4043.08,4186.15,4162.56,4211.79,4002.56,4080.51,4183.08,4164.1,4263.59,4168.21,4037.95,3993.85,0
12_0_15,37,4305.13,4125.13,4035.9,4183.08,4165.64,4213.33,4001.03,4090.77,4195.38,4177.95,4264.62,4165.13,4080.51,3998.97,0
12_0_15,38,4328.21,4140.51,4020.51,4185.13,4151.79,4212.82,3997.44,4100.51,4230.77,4192.82,4277.95,4171.79,4140.51,4007.18,0
12_0_15,39,4337.95,4147.69,3998.97,4186.67,4157.44,4220,3992.82,4098.46,4242.05,4223.59,4284.62,4179.49,4170.77,4012.82,0
12_0_15,40,4330.26,4140,3972.82,4178.46,4169.74,4228.72,3979.49,4098.97,4207.18,4206.67,4274.36,4167.69,4156.41,4006.15,0
12_0_15,41,4320.51,4137.44,3941.54,4173.33,4164.1,4227.69,3980.51,4106.15,4186.15,4147.18,4258.97,4151.79,4141.03,3998.97,0
12_0_15,42,4315.38,4149.23,3891.79,4179.49,4161.03,4222.56,3993.85,4123.59,4223.59,4152.82,4263.08,4159.49,4149.23,4004.62,0
12_0_15,43,4308.72,4162.05,3821.54,4182.05,4167.69,4227.69,3999.49,4136.92,4241.03,4205.13,4285.64,4168.72,4167.18,4016.92,0
12_0_15,44,4299.49,4166.67,3765.64,4176.41,4167.18,4241.54,3987.69,4135.38,4215.9,4206.15,4302.05,4160.51,4172.82,4028.72,0
12_0_15,45,4291.28,4170.77,3733.33,4184.1,4165.64,4246.67,3962.56,4140.51,4230.26,4194.36,4310.26,4161.03,4176.92,4042.05,0
12_0_15,46,4285.64,4178.46,3705.13,4198.46,4176.41,4246.67,3923.08,4160,4264.1,4230.26,4324.1,4168.21,4195.38,4053.33,0
12_0_15,47,4278.46,4182.05,3674.87,4191.79,4184.62,4249.74,3882.05,4171.79,4266.67,4260.51,4333.33,4161.54,4204.62,4055.9,0
12_0_15,48,4267.18,4182.56,3647.18,4181.03,4174.87,4251.28,3866.15,4167.18,4264.1,4248.21,4323.59,4152.82,4185.13,4051.79,0
12_0_15,49,4258.46,4186.15,3621.54,4182.05,4167.69,4252.82,3883.08,4168.72,4252.82,4222.56,4311.79,4152.31,4165.13,4046.15,0
12_0_15,50,4258.97,4190.77,3607.69,4174.36,4167.18,4245.64,3911.79,4171.28,4234.87,4215.38,4318.46,4156.92,4170.26,4049.23,0
12_0_15,51,4269.23,4194.87,3611.79,4163.08,4159.49,4241.54,3930.26,4163.08,4235.9,4224.1,4333.85,4164.62,4183.59,4066.15,0
12_0_15,52,4286.67,4206.15,3630.77,4170.26,4160.51,4247.18,3947.18,4161.03,4252.82,4229.74,4344.62,4172.82,4190.26,4080,0
12_0_15,53,4289.23,4205.13,3654.87,4172.31,4163.59,4251.79,3960.51,4155.38,4244.1,4214.87,4342.05,4175.38,4184.62,4074.36,0
12_0_15,54,4280.51,4185.64,3686.15,4150.77,4154.87,4247.69,3965.13,4147.69,4231.28,4215.9,4337.95,4177.95,4176.41,4064.62,0
12_0_15,55,4288.21,4183.59,3708.72,4142.56,4160.51,4243.08,3960.51,4157.95,4249.23,4245.64,4342.56,4187.18,4179.49,4072.31,0
12_0_15,56,4304.62,4208.21,3694.36,4163.59,4180.51,4244.62,3946.15,4169.23,4263.08,4257.95,4345.64,4204.62,4193.85,4085.64,0
12_0_15,57,4290.26,4215.9,3643.08,4170.77,4175.9,4251.28,3929.23,4157.95,4254.87,4255.9,4333.33,4206.67,4198.97,4082.56,0
12_0_15,58,4257.95,4198.46,3593.85,4150.26,4161.03,4254.87,3913.85,4150.26,4250.77,4262.56,4313.85,4183.59,4186.67,4066.67,0
12_0_15,59,4246.67,4192.31,3574.87,4142.56,4167.69,4252.31,3890.26,4165.64,4254.87,4258.97,4309.23,4169.74,4182.56,4061.54,0
12_0_15,60,4250.26,4202.05,3600.51,4154.87,4172.82,4248.21,3872.31,4164.62,4240.51,4235.9,4303.08,4178.97,4182.05,4067.18,0
12_0_15,61,4252.31,4203.08,3665.64,4156.92,4156.41,4247.69,3871.79,4140,4229.74,4225.64,4282.56,4193.33,4170.26,4068.72,0
12_0_15,62,4251.28,4207.18,3678.46,4151.79,4152.82,4253.33,3855.38,4132.82,4232.31,4233.85,4286.15,4199.49,4172.31,4071.79,0
12_0_15,63,4238.97,4220.51,3612.31,4154.87,4167.69,4255.38,3834.87,4152.82,4240,4245.13,4309.74,4199.49,4186.15,4073.33,0
12_0_15,64,4218.46,4215.9,3582.56,4150.26,4161.54,4245.13,3856.41,4166.67,4260,4260,4308.72,4201.54,4177.44,4070.26,0
12_0_15,65,4212.82,4202.56,3632.82,4141.54,4152.82,4237.95,3890.26,4153.85,4254.87,4264.1,4300,4208.72,4163.59,4072.31,0
12_0_15,66,4213.85,4207.69,3696.41,4144.1,4169.23,4247.69,3895.9,4145.13,4232.31,4253.85,4301.03,4207.69,4160.51,4071.79,0
12_0_15,67,4181.03,4205.13,3770.26,4140,4165.13,4251.28,3891.79,4137.95,4231.79,4232.82,4278.97,4198.97,4139.49,4054.87,0
12_0_15,68,4120.51,4174.87,3885.13,4116.92,4134.87,4238.46,3893.85,4111.28,4229.23,4200,4245.64,4203.08,4107.18,4035.9,0
12_0_15,69,4085.64,4156.41,3988.72,4107.69,4127.18,4228.21,3893.33,4090.77,4196.41,4166.15,4228.21,4220.51,4092.31,4025.64,0
12_0_15,70,4085.64,4158.97,4040.51,4125.13,4130.77,4223.08,3897.95,4088.21,4176.92,4170.77,4218.97,4225.64,4089.23,4019.49,0
12_0_15,71,4080,4149.74,4076.92,4128.21,4123.59,4211.79,3914.36,4076.41,4190.77,4184.1,4212.82,4216.92,4076.41,4013.85,0
12_0_15,72,4067.69,4142.56,4100.51,4116.92,4126.15,4206.67,3942.05,4070.77,4198.46,4166.67,4211.28,4221.03,4066.15,4016.41,0
12_0_15,73,4074.87,4155.38,4071.79,4128.21,4140.51,4226.15,3965.13,4091.28,4199.49,4166.15,4209.74,4235.9,4083.59,4032.31,0
12_0_15,74,4075.38,4159.49,4020,4139.49,4141.03,4233.85,3948.72,4091.79,4201.03,4191.28,4203.59,4236.41,4090.77,4038.46,0
12_0_15,75,4057.44,4147.18,4025.64,4128.21,4133.85,4211.79,3904.1,4064.1,4192.31,4192.31,4187.69,4226.15,4066.67,4028.72,0
12_0_15,76,4057.44,4151.28,4071.79,4129.23,4137.95,4204.1,3878.46,4063.59,4178.97,4178.97,4177.95,4231.79,4060.51,4033.33,0
12_0_15,77,4070.26,4168.72,4098.46,4145.13,4140.51,4219.49,3877.44,4077.95,4181.54,4190.77,4185.13,4246.67,4082.05,4053.85,0
12_0_15,78,4068.21,4170.26,4114.87,4146.15,4135.9,4218.46,3896.92,4061.54,4188.72,4210.77,4182.05,4248.72,4082.56,4057.95,0
12_0_15,79,4062.05,4166.15,4130.77,4140,4138.46,4202.05,3948.21,4046.15,4176.92,4213.85,4167.69,4244.62,4070.26,4047.18,0
12_0_15,80,4061.54,4166.67,4136.41,4139.49,4135.9,4205.13,4013.33,4055.38,4171.28,4212.82,4168.72,4244.62,4070.77,4041.03,0
12_0_15,81,4058.46,4164.62,4138.97,4131.79,4133.33,4211.28,4038.97,4059.49,4177.95,4214.87,4176.92,4240.51,4068.21,4037.95,0
12_0_15,82,4042.56,4155.38,4140.51,4122.56,4143.59,4195.38,4018.46,4046.15,4167.69,4211.79,4170.26,4230.26,4059.49,4029.74,0
12_0_15,83,4025.13,4154.36,4143.08,4127.18,4144.1,4177.44,4003.59,4042.05,4163.59,4213.33,4158.97,4235.38,4063.59,4026.67,0
12_0_15,84,4027.18,4166.15,4153.85,4136.41,4137.44,4188.72,4011.79,4053.85,4177.44,4227.69,4154.36,4249.74,4073.85,4041.54,0
12_0_15,85,4032.82,4169.23,4164.62,4135.9,4138.97,4205.13,4008.21,4065.13,4177.95,4233.85,4144.1,4250.77,4070.77,4049.74,0
12_0_15,86,4023.08,4156.41,4165.13,4134.36,4138.97,4189.74,3981.03,4055.9,4166.15,4230.77,4126.67,4244.62,4056.92,4041.54,0
12_0_15,87,4016.92,4150.26,4162.05,4137.44,4144.1,4176.92,3968.21,4039.49,4170.26,4229.74,4116.92,4244.62,4056.41,4035.9,0
12_0_15,88,4027.69,4163.08,4168.21,4138.46,4152.82,4196.41,3991.28,4050.26,4175.9,4231.28,4116.92,4246.15,4063.59,4035.38,0
12_0_15,89,4033.85,4173.85,4173.85,4137.44,4145.64,4207.69,4024.62,4062.05,4170.77,4251.28,4117.44,4245.64,4063.59,4039.49,0
12_0_15,90,4028.72,4171.28,4173.85,4132.31,4134.87,4189.74,4027.69,4055.9,4169.74,4253.85,4113.85,4245.13,4059.49,4044.1,0
12_0_15,91,4027.18,4166.67,4174.36,4127.69,4142.56,4180,4002.56,4061.54,4171.28,4221.03,4107.18,4242.05,4062.05,4041.54,0
12_0_15,92,4022.56,4160,4177.95,4124.62,4143.59,4188.21,3977.44,4061.03,4168.21,4222.05,4100,4236.41,4060.51,4032.31,0
12_0_15,93,4007.69,4145.13,4181.54,4114.36,4136.92,4191.28,3943.59,4041.03,4164.62,4243.59,4089.74,4228.21,4047.18,4023.59,0
12_0_15,94,4000,4138.97,4188.72,4107.69,4137.95,4193.33,3909.23,4043.08,4173.33,4221.54,4082.05,4226.15,4039.49,4021.03,0
12_0_15,95,4011.28,4146.67,4201.03,4113.85,4138.97,4198.46,3892.82,4056.92,4180.51,4212.31,4088.21,4233.85,4053.33,4030.26,0
12_0_15,96,4011.28,4145.64,4205.64,4121.54,4140,4202.05,3874.36,4043.59,4163.59,4234.87,4091.79,4234.87,4064.62,4037.95,0
12_0_15,97,3993.33,4139.49,4205.64,4116.92,4143.08,4201.03,3863.08,4042.05,4156.41,4225.64,4078.97,4227.69,4052.31,4028.21,0
12_0_15,98,3991.28,4140,4210.77,4106.15,4138.46,4189.23,3889.74,4058.46,4169.23,4215.9,4077.44,4228.72,4044.62,4029.23,0
12_0_15,99,4006.15,4143.08,4216.41,4109.74,4134.87,4181.54,3903.59,4054.87,4174.36,4244.1,4095.38,4243.08,4066.67,4046.15,0
12_0_15,100,4010.77,4144.1,4218.97,4125.64,4138.97,4189.23,3875.9,4046.15,4175.38,4256.41,4104.1,4253.85,4084.62,4050.77,0
12_0_15,101,4003.59,4141.03,4221.54,4124.1,4138.97,4190.77,3864.62,4044.62,4170.26,4230.77,4093.33,4246.15,4070.77,4041.03,0
12_0_15,102,4006.15,4144.1,4226.15,4111.79,4140.51,4182.56,3880,4041.54,4156.41,4221.54,4092.82,4241.54,4060,4036.41,0
12_0_15,103,4010.77,4148.72,4228.72,4108.72,4134.87,4186.15,3888.72,4042.05,4152.31,4234.87,4097.44,4247.18,4061.54,4036.92,0
12_0_15,104,3999.49,4136.92,4223.59,4101.03,4112.82,4191.28,3869.23,4037.44,4151.28,4231.28,4082.56,4241.54,4051.28,4034.87,0
12_0_15,105,3985.13,4124.62,4222.05,4093.85,4108.72,4182.56,3836.92,4016.41,4140.51,4225.13,4069.23,4225.13,4044.1,4034.36,0
12_0_15,106,3988.72,4133.85,4225.13,4095.9,4129.74,4182.05,3839.49,4018.97,4147.69,4226.67,4087.18,4228.21,4057.95,4044.62,0
12_0_15,107,4002.05,4148.72,4225.64,4104.62,4142.56,4194.36,3881.54,4047.69,4168.72,4221.54,4112.31,4241.03,4066.15,4056.41,0
12_0_15,108,4005.13,4154.36,4224.1,4117.95,4137.95,4196.92,3921.03,4051.79,4158.46,4224.1,4117.44,4239.49,4060,4055.38,0
12_0_15,109,4007.18,4155.9,4227.69,4123.59,4136.41,4196.41,3953.33,4041.03,4139.49,4226.15,4119.49,4237.44,4061.03,4052.31,0
12_0_15,110,4012.31,4151.28,4231.28,4105.13,4143.59,4198.97,3983.59,4046.67,4152.82,4209.23,4124.62,4246.67,4062.56,4049.23,0
12_0_15,111,4007.69,4141.03,4228.72,4092.31,4141.03,4191.28,3966.67,4053.85,4176.41,4222.05,4123.59,4249.23,4057.44,4044.1,0
12_0_15,112,3993.33,4129.23,4224.62,4100,4118.46,4183.59,3903.59,4042.56,4170.26,4253.85,4113.33,4233.85,4045.64,4040,0
12_0_15,113,3993.33,4118.97,4222.05,4099.49,4108.21,4189.23,3863.08,4035.9,4150.26,4234.87,4106.67,4221.54,4034.36,4037.95,0
12_0_15,114,4007.69,4128.72,4226.15,4100,4130.77,4201.03,3886.67,4044.62,4143.59,4202.05,4116.92,4229.23,4039.49,4040,0
12_0_15,115,4007.69,4143.59,4226.67,4111.79,4147.18,4207.18,3933.33,4048.72,4144.1,4208.21,4128.21,4238.46,4046.67,4049.74,0
12_0_15,116,3991.79,4134.87,4214.87,4109.23,4132.31,4197.95,3952.31,4044.1,4151.28,4218.46,4122.56,4227.69,4033.33,4043.59,0
12_0_15,117,3984.1,4118.97,4206.67,4093.33,4114.36,4188.72,3962.56,4037.95,4149.74,4209.74,4115.38,4211.79,4015.38,4024.62,0
12_0_15,118,3988.21,4122.05,4207.18,4091.79,4129.74,4199.49,3968.21,4034.36,4129.23,4187.18,4118.97,4216.92,4015.38,4026.67,0
12_0_15,119,3984.62,4129.23,4199.49,4097.44,4148.72,4204.1,3948.72,4040,4136.92,4179.49,4122.05,4231.28,4020,4034.87,0
12_0_15,120,3977.95,4125.13,4191.79,4096.41,4130.77,4194.87,3925.64,4049.23,4170.26,4207.18,4128.21,4233.33,4023.08,4031.28,0
12_0_15,0,4031.79,4158.97,4171.79,4121.03,4141.03,4206.67,4020.51,4066.67,4169.23,4189.23,4145.64,4254.36,4186.15,4075.9,0
12_0_15,1,4042.05,4165.13,4166.67,4122.05,4156.92,4198.46,4009.74,4071.79,4178.46,4204.62,4151.79,4260,4194.87,4082.05,0
12_0_15,2,4046.15,4173.33,4162.56,4122.05,4165.64,4200,4007.18,4065.64,4163.08,4196.41,4147.69,4261.03,4197.44,4083.59,0
12_0_15,3,4037.95,4173.85,4154.36,4121.03,4155.38,4203.59,3984.62,4051.79,4151.79,4185.64,4138.97,4253.33,4188.72,4080,0
12_0_15,4,4023.59,4169.74,4148.72,4113.85,4156.41,4197.44,3938.46,4041.03,4153.85,4184.1,4135.38,4242.56,4185.13,4076.41,0
12_0_15,5,4019.49,4169.74,4148.21,4112.82,4161.03,4198.46,3932.31,4045.64,4155.9,4169.23,4132.82,4244.1,4186.67,4076.41,0
12_0_15,6,4022.05,4169.74,4148.72,4113.85,4151.28,4204.1,3981.54,4057.44,4151.79,4150.77,4124.62,4248.72,4176.92,4075.38,0
12_0_16,7,4022.05,4170.26,4149.74,4112.82,4152.31,4202.56,4022.05,4062.56,4159.49,4161.54,4123.08,4244.62,4165.13,4069.74,0
12_0_16,8,4016.92,4167.18,4155.38,4111.28,4155.9,4197.95,4028.21,4052.82,4165.64,4169.74,4123.59,4238.46,4162.05,4061.54,0
12_0_16,9,4009.23,4164.62,4165.13,4105.13,4155.38,4200,4030.77,4046.67,4152.31,4148.21,4117.95,4240,4162.05,4056.92,0
12_0_16,10,4015.9,4178.97,4181.54,4111.79,4167.69,4205.64,4034.87,4062.56,4157.95,4159.49,4128.72,4253.85,4175.9,4068.21,0
12_0_16,11,4029.74,4188.72,4191.79,4125.64,4168.21,4199.49,4026.15,4070.26,4174.36,4194.36,4140.51,4260,4185.13,4080.51,0
12_0_16,12,4019.49,4163.59,4197.44,4113.33,4150.77,4188.21,4017.95,4060.51,4157.95,4174.87,4120,4249.74,4166.15,4072.82,0
12_0_16,13,4001.03,4140.51,4211.79,4096.41,4151.28,4192.31,4015.38,4056.92,4143.59,4140,4093.85,4241.03,4150.77,4058.97,0
12_0_16,14,4000.51,4147.18,4242.05,4105.64,4157.95,4197.44,4002.56,4055.38,4152.31,4142.56,4091.28,4237.44,4152.82,4052.82,0
12_0_16,15,3997.95,4146.15,4263.59,4111.79,4147.69,4185.64,3988.72,4045.64,4140.51,4135.9,4090.26,4231.28,4146.15,4044.62,0
12_0_16,16,3994.36,4135.9,4290.77,4107.69,4154.87,4181.03,3990.26,4038.97,4127.69,4120.51,4081.54,4231.79,4135.9,4036.41,0
12_0_16,17,4009.23,4136.92,4387.18,4111.28,4158.46,4183.59,3991.28,4032.31,4135.38,4130.26,4080.51,4245.13,4135.38,4038.46,0
12_0_16,18,4014.87,4129.74,4468.72,4102.05,4129.23,4173.85,3980.51,4022.05,4131.28,4130.26,4076.41,4250.26,4128.21,4037.44,0
12_0_16,19,4003.08,4121.54,4423.08,4087.18,4130.26,4175.38,3962.05,4023.59,4132.82,4125.64,4074.87,4245.64,4122.05,4032.82,0
12_0_16,20,3994.36,4124.1,4365.64,4090.26,4157.95,4187.69,3941.03,4025.13,4136.92,4124.62,4078.46,4242.56,4119.49,4030.26,0
12_0_16,21,3994.36,4121.54,4410.26,4094.87,4154.87,4174.87,3924.62,4015.9,4117.95,4108.21,4072.31,4244.62,4107.18,4028.21,0
12_0_16,21,3994.36,4121.54,4410.26,4094.87,4154.87,4174.87,3924.62,4015.9,4117.95,4108.21,4072.31,4244.62,4107.18,4028.21,0
12_0_16,22,3997.44,4122.05,4445.64,4091.28,4148.72,4161.03,3897.95,4023.59,4116.41,4105.13,4066.67,4247.18,4100,4029.23,0
12_0_16,23,3988.72,4123.08,4411.28,4084.1,4151.79,4172.31,3875.9,4047.69,4133.85,4121.03,4062.56,4244.1,4098.46,4026.15,0
12_0_16,24,3971.79,4116.41,4399.49,4077.95,4140.51,4181.03,3892.82,4050.77,4128.21,4128.21,4055.38,4244.1,4092.31,4021.54,0
12_0_16,25,3970.77,4114.87,4431.79,4079.49,4138.97,4169.74,3911.28,4033.85,4120,4135.9,4052.31,4247.69,4088.72,4023.08,0
12_0_16,26,3975.9,4118.46,4435.9,4083.59,4156.92,4166.15,3917.44,4030.77,4128.72,4144.62,4054.36,4242.56,4086.15,4025.64,0
12_0_16,27,3966.15,4116.41,4405.64,4077.95,4154.36,4181.03,3954.87,4040.51,4127.18,4131.28,4051.28,4231.28,4075.38,4017.95,0
12_0_16,28,3958.97,4111.79,4401.54,4072.82,4136.41,4177.95,3992.82,4030.26,4113.85,4120.51,4046.15,4231.28,4064.1,4011.79,0
12_0_16,29,3962.56,4113.85,4399.49,4073.85,4137.44,4163.59,3985.64,4008.72,4104.1,4122.56,4043.59,4230.26,4060,4011.79,0
12_0_16,30,3957.44,4129.23,4294.87,4074.87,4155.38,4176.92,3953.85,4025.13,4111.79,4132.31,4042.56,4220,4065.13,4016.41,0
12_0_16,31,3944.1,4150.77,4160.51,4081.54,4162.05,4201.54,3918.97,4057.44,4122.56,4160,4049.23,4212.82,4085.13,4027.18,0
12_0_16,32,3945.13,4165.64,4120,4089.23,4156.41,4204.62,3903.08,4066.15,4133.85,4194.87,4057.95,4214.87,4103.08,4042.56,0
12_0_16,33,3956.92,4177.44,4121.03,4097.95,4161.54,4198.46,3905.13,4071.28,4151.28,4224.1,4066.15,4226.15,4116.41,4064.62,0
12_0_16,34,3960.51,4184.62,4092.82,4109.23,4168.72,4200.51,3905.64,4076.41,4151.79,4235.38,4074.36,4233.85,4133.85,4087.18,0
12_0_16,35,3956.41,4185.13,4066.67,4107.69,4155.38,4203.59,3935.9,4078.97,4138.46,4234.87,4076.41,4224.62,4139.49,4090.77,0
12_0_16,36,3957.44,4185.64,4055.38,4092.31,4144.1,4199.49,4003.08,4083.59,4140.51,4246.67,4076.41,4212.82,4130.77,4086.15,0
12_0_16,37,3960,4185.64,4043.59,4087.69,4154.36,4188.21,4040.51,4065.13,4143.08,4255.9,4074.87,4209.74,4123.08,4085.64,0
12_0_16,38,3958.46,4189.74,4037.44,4092.31,4155.9,4182.05,4030.26,4043.59,4124.62,4242.56,4074.36,4207.18,4122.05,4089.23,0
12_0_16,39,3958.46,4200.51,4036.92,4096.92,4148.21,4188.21,4016.41,4065.13,4122.05,4237.44,4086.15,4208.72,4130.77,4095.9,0
12_0_16,40,3963.08,4203.08,4036.41,4102.56,4162.56,4193.33,4026.15,4091.79,4143.59,4253.33,4105.64,4215.38,4145.64,4104.62,0
12_0_16,41,3971.79,4204.1,4027.18,4108.21,4177.44,4187.18,4037.95,4086.67,4151.79,4261.03,4108.72,4216.92,4147.18,4114.87,0
12_0_16,42,3975.9,4208.21,4018.97,4111.28,4169.74,4181.03,4017.95,4081.54,4143.59,4257.95,4092.31,4215.9,4137.44,4121.54,0
12_0_16,43,3976.41,4206.67,4017.44,4111.28,4166.67,4183.59,3982.56,4094.36,4153.33,4268.21,4080,4217.44,4137.95,4128.21,0
12_0_16,44,3973.85,4204.1,4012.82,4114.36,4167.69,4186.67,3968.21,4094.36,4171.79,4293.33,4076.41,4216.92,4136.92,4136.41,0
12_0_16,45,3976.41,4210.77,4002.05,4123.08,4154.36,4186.67,3967.18,4079.49,4161.54,4313.85,4073.85,4218.97,4140,4148.72,0
12_0_16,46,3977.44,4206.15,4001.54,4123.08,4153.85,4188.72,3951.28,4080,4141.03,4310.26,4064.62,4222.56,4143.08,4156.41,0
12_0_16,47,3959.49,4188.21,4009.23,4111.28,4166.67,4188.21,3926.67,4097.95,4138.46,4289.74,4050.77,4213.33,4127.18,4152.82,0
12_0_16,48,3943.08,4188.21,4022.05,4107.69,4152.82,4184.1,3918.97,4098.46,4133.33,4274.87,4047.18,4198.97,4113.33,4148.21,0
12_0_16,49,3946.67,4198.46,4036.92,4112.31,4138.46,4184.1,3929.23,4079.49,4116.92,4273.85,4056.41,4197.44,4117.95,4152.82,0
12_0_16,50,3949.23,4189.74,4050.26,4110.26,4151.28,4172.31,3939.49,4066.67,4124.62,4282.05,4068.21,4202.56,4121.03,4163.08,0
12_0_16,51,3943.08,4178.97,4060,4104.62,4154.87,4154.87,3939.49,4059.49,4141.54,4279.49,4071.79,4201.54,4114.87,4164.1,0
12_0_16,52,3940.51,4182.05,4065.64,4097.95,4133.33,4156.41,3941.03,4057.44,4132.31,4275.9,4069.23,4197.44,4115.9,4160.51,0
12_0_16,53,3941.03,4185.13,4067.69,4093.85,4121.03,4165.64,3969.74,4065.64,4131.79,4292.82,4075.38,4196.41,4118.97,4163.59,0
12_0_16,54,3949.23,4185.13,4076.41,4095.9,4132.82,4166.67,4023.08,4074.87,4141.54,4295.38,4090.77,4201.54,4117.44,4171.28,0
12_0_16,55,3958.46,4187.69,4085.64,4096.41,4140.51,4168.72,4054.36,4076.41,4131.79,4271.79,4089.74,4203.59,4109.23,4168.21,0
12_0_16,56,3954.36,4181.03,4079.49,4091.79,4134.87,4171.79,4055.9,4074.36,4119.49,4252.82,4069.74,4193.85,4094.36,4161.03,0
12_0_16,57,3948.21,4172.31,4071.28,4089.74,4136.92,4164.62,4052.82,4066.15,4122.05,4252.82,4054.36,4184.1,4086.67,4161.54,0
12_0_16,58,3944.62,4168.21,4075.9,4089.74,4131.28,4152.82,4033.85,4054.36,4122.56,4257.44,4043.59,4178.46,4084.1,4157.44,0
12_0_16,59,3938.97,4165.13,4084.62,4090.26,4117.95,4148.21,4005.64,4051.28,4116.41,4256.92,4036.92,4176.41,4080,4152.82,0
12_0_16,60,3932.31,4165.13,4082.56,4088.21,4129.23,4149.74,3996.92,4055.38,4114.36,4251.28,4041.54,4178.97,4078.46,4161.03,0
12_0_16,61,3927.18,4165.13,4074.87,4082.56,4140,4160.51,4009.74,4056.41,4112.31,4242.56,4051.28,4176.41,4081.03,4168.72,0
12_0_16,62,3932.31,4168.21,4067.18,4083.59,4131.79,4170.26,4025.13,4060,4118.46,4250.77,4062.56,4172.31,4089.74,4168.21,0
12_0_16,63,3941.03,4171.28,4062.56,4092.82,4138.97,4167.18,4025.64,4071.28,4134.87,4267.18,4075.38,4174.87,4102.05,4173.85,0
12_0_16,64,3935.9,4173.33,4055.38,4092.82,4151.79,4162.05,4000.51,4076.92,4138.97,4257.95,4075.9,4174.36,4105.64,4176.92,0
12_0_16,65,3925.64,4168.72,4053.33,4084.62,4131.28,4160,3967.69,4070.26,4118.46,4221.54,4062.05,4167.69,4094.87,4168.72,0
12_0_16,66,3918.97,4157.95,4055.9,4079.49,4111.79,4151.28,3957.44,4064.1,4100.51,4198.46,4057.95,4163.08,4087.18,4164.62,0
12_0_16,67,3916.41,4157.95,4057.44,4078.46,4130.77,4146.15,3973.33,4061.03,4109.23,4201.54,4061.54,4162.05,4087.69,4167.18,0
12_0_16,68,3921.54,4167.69,4055.38,4078.97,4145.13,4155.9,3992.82,4057.95,4119.49,4203.08,4063.08,4163.59,4091.28,4169.74,0
12_0_16,69,3921.54,4162.56,4054.87,4075.9,4127.18,4158.46,3987.18,4062.56,4119.49,4203.08,4066.15,4160.51,4092.31,4169.23,0
12_0_16,70,3914.87,4151.28,4055.9,4072.31,4116.92,4152.82,3970.26,4069.74,4115.38,4204.1,4072.31,4153.33,4091.79,4167.18,0
12_0_16,71,3918.97,4157.95,4061.03,4074.87,4132.31,4160,3970.77,4060,4109.23,4201.03,4072.82,4153.85,4090.77,4165.13,0
12_0_16,72,3926.15,4161.54,4065.64,4074.36,4142.56,4166.67,3972.31,4051.28,4113.85,4194.87,4071.28,4158.97,4091.79,4171.28,0
12_0_16,73,3925.13,4153.33,4072.82,4068.72,4136.92,4158.97,3972.31,4066.15,4125.64,4195.38,4080,4163.59,4096.41,4188.72,0
12_0_16,74,3928.72,4154.36,4084.1,4066.15,4138.46,4154.87,3990.77,4083.08,4124.1,4197.44,4091.28,4172.31,4102.05,4185.64,0
12_0_16,75,3929.23,4156.41,4086.67,4062.56,4140.51,4154.36,4009.23,4070.77,4113.85,4192.31,4082.56,4171.28,4094.87,4204.62,0
12_0_16,76,3926.67,4148.72,4085.64,4057.44,4126.15,4150.77,4015.38,4064.62,4118.46,4191.28,4069.23,4164.62,4083.59,4332.31,0
12_0_16,77,3937.44,4155.38,4090.26,4062.05,4122.56,4150.26,4029.23,4089.23,4128.72,4205.13,4078.97,4173.85,4090.77,4483.08,0
12_0_16,78,3942.05,4166.15,4091.28,4064.62,4137.95,4153.85,4043.08,4091.28,4123.59,4209.74,4089.23,4178.46,4094.36,4513.33,0
12_0_16,79,3931.28,4163.59,4085.64,4060.51,4135.38,4150.26,4043.08,4065.13,4121.03,4200.51,4084.1,4172.31,4084.62,4488.72,0
12_0_16,80,3926.67,4161.54,4089.23,4060.51,4123.59,4149.23,4045.64,4067.69,4126.67,4194.36,4089.74,4177.44,4090.77,4507.69,0
12_0_16,81,3927.69,4160.51,4087.69,4060.51,4133.85,4155.38,4042.05,4081.03,4118.46,4191.28,4110.77,4190.26,4110.77,4522.05,0
12_0_16,82,3923.59,4157.95,4074.36,4055.9,4139.49,4154.36,4018.46,4071.79,4104.1,4190.26,4126.15,4195.9,4113.33,4510.26,0
12_0_16,83,3920.51,4166.67,4055.9,4058.97,4130.77,4149.74,3995.9,4075.9,4110.77,4188.21,4136.41,4201.54,4104.62,4510.77,0
12_0_16,84,3918.97,4175.38,4036.92,4067.18,4134.36,4152.82,3978.46,4094.36,4133.85,4194.87,4150.26,4209.23,4104.1,4513.85,0
12_0_16,85,3904.1,4167.69,4010.77,4062.56,4139.49,4155.38,3957.95,4094.36,4139.49,4199.49,4147.18,4200,4100.51,4500.51,0
12_0_16,86,3894.87,4163.59,3993.33,4056.41,4136.41,4151.28,3944.1,4095.38,4126.67,4188.72,4133.33,4189.23,4094.36,4486.67,0
12_0_16,87,3905.13,4169.23,3996.41,4066.15,4134.87,4152.31,3938.97,4107.18,4124.62,4182.56,4137.95,4196.41,4101.54,4491.79,0
12_0_16,88,3907.18,4162.05,4005.13,4070.77,4134.36,4155.9,3932.31,4105.64,4131.28,4187.69,4143.59,4204.1,4110.26,4492.31,0
12_0_16,89,3897.95,4152.82,4007.69,4058.97,4135.38,4152.31,3928.21,4091.79,4124.1,4184.1,4130.26,4201.03,4111.28,4472.82,0
12_0_16,90,3904.62,4159.49,4021.54,4061.54,4136.92,4154.36,3950.77,4087.18,4115.9,4165.13,4123.59,4207.18,4123.59,4464.1,0
12_0_16,91,3915.9,4166.15,4041.03,4076.92,4138.97,4161.03,3996.41,4093.33,4121.54,4155.9,4131.79,4218.97,4155.9,4468.21,0
12_0_16,92,3911.28,4161.03,4048.21,4073.33,4143.08,4156.41,4035.9,4088.72,4114.36,4155.9,4131.28,4221.03,4195.38,4457.44,0
12_0_16,93,3913.33,4155.38,4048.72,4060.51,4136.92,4147.69,4062.05,4077.44,4100.51,4152.31,4131.28,4223.59,4235.38,4442.56,0
12_0_16,94,3925.64,4158.97,4056.92,4058.97,4125.64,4152.31,4089.74,4077.95,4108.72,4152.82,4137.44,4232.31,4265.64,4443.08,0
12_0_16,95,3928.72,4163.08,4067.18,4060.51,4125.13,4155.38,4108.21,4089.74,4121.54,4166.15,4145.64,4238.97,4283.08,4445.64,0
12_0_16,96,3928.21,4158.97,4071.28,4057.95,4126.15,4144.62,4098.46,4094.36,4124.62,4176.92,4159.49,4241.54,4291.79,4439.49,0
12_0_16,97,3924.62,4151.28,4075.9,4046.15,4116.92,4136.92,4084.1,4081.03,4121.03,4154.87,4157.95,4235.38,4282.56,4426.67,0
12_0_16,98,3928.72,4152.82,4086.15,4035.38,4118.97,4140.51,4079.49,4075.38,4117.95,4126.67,4145.64,4232.82,4271.79,4415.38,0
12_0_16,99,3940.51,4155.9,4101.03,4036.41,4133.85,4143.59,4069.74,4084.62,4111.79,4121.03,4145.64,4243.59,4271.28,4412.82,0
12_0_16,100,3941.54,4142.56,4104.62,4030.77,4124.62,4138.97,4062.05,4075.38,4109.74,4120.51,4143.08,4243.59,4257.95,4401.54,0
12_0_16,101,3936.92,4127.18,4106.67,4013.85,4099.49,4132.31,4067.69,4060,4115.9,4114.87,4137.95,4230.26,4240.51,4382.05,0
12_0_16,102,3940,4125.13,4111.79,4013.33,4107.69,4132.82,4065.64,4067.69,4112.31,4108.21,4134.36,4230.77,4244.1,4372.82,0
12_0_16,103,3941.03,4128.21,4118.46,4026.67,4129.74,4137.44,4042.56,4072.31,4104.62,4106.67,4125.64,4239.49,4243.08,4365.13,0
12_0_16,104,3938.46,4133.85,4123.08,4032.31,4128.72,4140,4023.08,4067.69,4120.51,4125.13,4135.9,4244.62,4233.85,4361.54,0
12_0_16,105,3941.54,4140.51,4126.67,4032.82,4121.03,4144.62,4021.54,4080.51,4135.9,4145.64,4163.08,4250.77,4240.51,4368.72,0
12_0_16,106,3946.15,4145.64,4128.21,4040.51,4128.72,4146.15,4020,4094.36,4127.69,4134.36,4171.28,4260.51,4249.74,4371.28,0
12_0_16,107,3947.69,4147.18,4127.18,4045.64,4135.38,4139.49,4013.33,4091.79,4125.13,4123.59,4165.13,4262.56,4245.64,4362.56,0
12_0_16,108,3942.05,4138.46,4119.49,4039.49,4126.67,4137.95,3994.87,4084.62,4122.56,4121.03,4158.46,4253.33,4234.36,4352.31,0
12_0_16,109,3933.85,4125.13,4111.79,4024.1,4109.74,4138.97,3956.92,4078.46,4104.62,4093.85,4145.64,4245.64,4221.54,4341.03,0
12_0_16,110,3924.62,4113.85,4104.1,3995.9,4102.05,4134.87,3930.26,4076.41,4104.1,4091.79,4143.08,4244.62,4211.79,4328.72,0
12_0_16,111,3912.31,4108.72,4094.36,3989.23,4109.23,4133.85,3948.21,4075.38,4113.33,4112.31,4153.85,4246.67,4207.18,4315.9,0
12_0_16,112,3902.56,4121.03,4082.05,4026.15,4126.15,4140.51,3986.15,4077.44,4106.67,4091.79,4149.74,4242.56,4202.05,4298.46,0
12_0_16,113,3907.69,4144.1,4077.95,4054.36,4141.54,4143.59,4005.64,4085.64,4111.28,4076.41,4143.59,4235.38,4202.56,4292.82,0
12_0_16,114,3919.49,4154.87,4080.51,4042.05,4133.33,4139.49,4013.85,4090.26,4126.15,4106.67,4160,4239.49,4214.36,4300,0
12_0_16,115,3926.15,4153.85,4081.03,4027.69,4120.51,4138.46,4034.87,4089.23,4115.9,4116.41,4175.9,4249.74,4222.56,4301.54,0
12_0_16,116,3932.31,4147.69,4082.56,4026.67,4124.62,4146.15,4067.69,4090.77,4100.51,4098.46,4169.23,4249.23,4217.44,4292.31,0
12_0_16,117,3939.49,4141.03,4085.13,4021.03,4127.18,4150.26,4085.13,4091.28,4110.26,4105.13,4167.18,4250.26,4206.15,4284.62,0
12_0_16,118,3945.13,4145.64,4090.26,4019.49,4127.69,4143.08,4071.79,4087.18,4126.67,4115.9,4176.41,4263.59,4199.49,4281.54,0
12_0_16,119,3946.15,4156.92,4089.74,4026.67,4132.82,4135.38,4059.49,4085.13,4126.15,4108.72,4166.15,4261.54,4189.74,4274.36,0
12_0_16,120,3942.56,4153.33,4093.85,4029.74,4127.69,4137.44,4065.13,4083.59,4112.31,4090.26,4149.23,4246.67,4173.33,4262.05,0
12_0_16,121,3942.05,4142.56,4102.56,4025.13,4122.56,4143.59,4064.62,4080.51,4105.64,4077.95,4150.77,4245.64,4165.64,4253.33,0
12_0_16,122,3943.08,4140,4105.64,4016.92,4125.13,4143.59,4045.64,4076.92,4107.69,4077.95,4150.77,4251.79,4161.54,4249.23,0
12_0_16,123,3940.51,4140,4104.62,4018.46,4115.38,4136.92,4020,4074.36,4103.59,4068.21,4143.08,4249.23,4149.23,4240,0
12_0_16,124,3935.9,4135.9,4117.95,4026.15,4110.26,4134.87,4004.1,4075.9,4097.44,4055.38,4137.44,4249.23,4140.51,4228.72,0
12_0_16,125,3939.49,4136.92,4136.41,4027.18,4127.69,4142.05,3977.44,4081.03,4110.77,4074.36,4137.44,4261.03,4153.33,4230.77,0
12_0_16,126,3945.64,4139.49,4155.38,4023.59,4127.69,4141.03,3928.72,4080,4123.08,4096.41,4134.87,4266.67,4165.64,4234.87,0
12_0_16,127,3939.49,4130.77,4189.23,4022.56,4108.21,4126.15,3904.1,4069.74,4104.62,4069.23,4118.97,4260.51,4138.46,4219.49,0
12_0_16,128,3931.79,4118.97,4214.36,4020,4104.62,4119.49,3941.54,4064.1,4087.69,4035.9,4107.69,4258.97,4096.41,4196.92,0
12_0_16,0,3935.9,4120,4208.21,4020.51,4113.33,4126.67,3995.9,4067.69,4099.49,4047.69,4116.41,4269.23,4092.82,4198.97,0
12_0_17,1,3945.13,4125.13,4228.72,4030.26,4111.28,4129.23,4023.59,4067.18,4103.59,4056.92,4122.56,4278.46,4107.69,4207.18,0
12_0_17,2,3944.1,4117.44,4293.85,4025.64,4104.1,4122.05,4036.92,4054.87,4083.08,4025.13,4107.18,4274.87,4090.26,4190.77,0
12_0_17,3,3933.85,4102.05,4323.08,4008.72,4104.1,4120.51,4039.49,4046.67,4075.38,4005.13,4089.23,4265.64,4067.18,4166.67,0
12_0_17,4,3925.64,4104.62,4267.18,4008.72,4110.77,4124.1,4029.74,4053.85,4088.21,4022.56,4092.82,4258.97,4075.9,4163.08,0
12_0_17,5,3925.13,4121.54,4180.51,4017.44,4113.85,4128.72,4018.97,4068.72,4102.56,4039.49,4105.64,4251.79,4091.28,4168.21,0
12_0_17,6,3926.67,4125.64,4136.92,4014.36,4106.67,4136.41,4004.1,4072.31,4104.62,4035.38,4109.74,4243.08,4092.82,4168.21,0
12_0_17,7,3918.46,4117.95,4131.79,4007.69,4106.15,4138.46,3967.69,4076.41,4092.82,4022.05,4112.31,4240,4092.82,4167.18,0
12_0_17,8,3916.41,4121.03,4126.15,4013.85,4120.51,4134.87,3937.95,4093.33,4093.85,4022.56,4124.1,4245.64,4105.64,4174.87,0
12_0_17,9,3923.59,4128.21,4107.69,4026.15,4126.15,4142.56,3947.69,4102.56,4109.74,4035.38,4137.95,4248.72,4122.56,4185.13,0
12_0_17,10,3925.13,4123.59,4097.95,4032.82,4120,4153.85,3972.31,4097.95,4109.23,4030.77,4146.67,4246.67,4125.13,4186.15,0
12_0_17,11,3921.54,4116.92,4087.18,4032.82,4119.49,4153.33,3991.79,4102.05,4099.49,4010.77,4152.82,4246.15,4117.44,4182.56,0
12_0_17,12,3926.67,4124.62,4076.41,4034.87,4126.15,4151.28,4019.49,4110.26,4110.26,4010.77,4152.82,4244.62,4117.44,4184.1,0
12_0_17,13,3935.38,4137.95,4061.03,4038.97,4124.62,4154.36,4042.56,4107.18,4117.44,4022.56,4153.85,4241.03,4123.59,4186.67,0
12_0_17,14,3931.79,4135.9,4022.56,4035.38,4120.51,4151.79,4031.79,4105.64,4106.15,4013.85,4150.26,4229.23,4118.46,4180,0
12_0_17,15,3931.28,4135.9,3947.69,4034.36,4130.26,4152.82,4008.72,4122.56,4113.85,4011.79,4149.23,4220,4121.03,4178.97,0
12_0_17,16,3937.44,4151.79,3867.18,4043.08,4143.08,4162.05,3999.49,4142.05,4130.77,4027.69,4164.1,4222.05,4140.51,4193.33,0
12_0_17,17,3932.82,4169.23,3769.23,4049.23,4139.49,4167.69,3995.38,4155.38,4138.46,4047.18,4182.56,4223.08,4158.46,4207.69,0
12_0_17,18,3927.18,4192.82,3574.36,4054.36,4136.92,4181.03,3991.28,4182.05,4157.44,4071.79,4205.64,4218.46,4184.1,4225.13,0
12_0_17,19,3935.9,4227.69,3349.74,4066.15,4161.03,4198.97,3977.95,4216.41,4174.36,4098.97,4232.31,4208.21,4217.95,4251.79,0
12_0_17,20,3944.62,4250.26,3290.77,4076.41,4178.46,4206.67,3947.18,4225.13,4168.72,4104.1,4246.15,4200,4232.31,4269.74,0
12_0_17,21,3946.15,4246.67,3379.49,4079.49,4162.05,4206.67,3914.36,4216.41,4167.18,4081.03,4236.92,4204.62,4221.03,4265.64,0
12_0_17,22,3954.36,4240.51,3476.41,4083.08,4148.21,4208.72,3894.87,4219.49,4175.9,4063.59,4216.92,4216.41,4205.13,4256.41,0
12_0_17,23,3960.51,4232.31,3561.54,4087.18,4157.95,4204.62,3887.69,4217.95,4163.08,4056.41,4195.9,4223.59,4189.74,4253.85,0
12_0_17,24,3953.85,4217.44,3648.72,4086.15,4164.62,4193.85,3910.77,4204.1,4150.26,4044.1,4180.51,4228.72,4179.49,4250.77,0
12_0_17,25,3943.59,4201.03,3713.85,4077.95,4147.18,4191.28,3965.13,4197.44,4155.38,4027.18,4171.79,4232.31,4166.15,4235.38,0
12_0_17,26,3940,4183.08,3757.44,4064.1,4123.59,4186.67,4014.36,4186.67,4137.95,4004.1,4161.54,4222.05,4138.97,4205.13,0
12_0_17,27,3940,4171.79,3747.69,4050.26,4120.51,4172.31,4030.26,4164.1,4111.28,3982.05,4159.49,4212.31,4122.05,4185.13,0
12_0_17,28,3941.03,4184.62,3669.74,4048.72,4137.44,4166.67,4024.1,4160.51,4124.1,3984.1,4165.64,4215.9,4131.28,4189.74,0
12_0_17,29,3948.21,4212.82,3563.59,4060,4150.26,4184.1,4023.59,4180,4147.69,4008.72,4180.51,4217.95,4151.28,4201.03,0
12_0_17,30,3957.44,4243.08,3404.62,4071.28,4151.79,4208.21,4029.74,4201.54,4144.62,4017.44,4206.67,4208.72,4171.79,4212.31,0
12_0_17,31,3968.72,4274.87,3235.9,4078.46,4157.44,4215.9,4026.67,4230.26,4151.28,4026.15,4232.31,4203.08,4198.97,4230.26,0
12_0_17,32,3990.26,4303.08,3204.62,4089.23,4171.28,4216.92,4023.59,4258.97,4184.62,4062.05,4253.85,4215.38,4227.69,4251.79,0
12_0_17,33,4007.18,4303.08,3315.9,4095.38,4172.82,4220,4024.1,4258.46,4196.41,4076.92,4251.79,4222.56,4225.13,4254.36,0
12_0_17,34,4001.03,4278.97,3391.28,4088.21,4160,4216.41,3994.87,4247.18,4177.95,4038.46,4221.54,4213.33,4199.49,4241.03,0
12_0_17,35,3978.46,4251.79,3406.67,4076.41,4149.23,4207.18,3937.95,4234.36,4155.9,4000.51,4183.59,4200.51,4174.87,4223.59,0
12_0_17,36,3958.97,4230.26,3486.15,4071.28,4150.26,4198.46,3892.31,4208.72,4150.26,4002.56,4156.92,4196.41,4153.33,4203.59,0
12_0_17,37,3960.51,4217.44,3614.36,4078.97,4151.28,4191.79,3878.97,4197.95,4149.23,4006.67,4138.46,4206.15,4140.51,4195.38,0
12_0_17,38,3971.28,4214.36,3681.03,4084.1,4127.18,4185.64,3902.05,4195.9,4120.51,3977.44,4121.54,4212.82,4132.31,4190.77,0
12_0_17,39,3968.21,4214.36,3668.21,4073.33,4110.26,4184.1,3934.36,4190.26,4097.95,3952.82,4118.46,4209.23,4117.95,4176.92,0
12_0_17,40,3967.69,4213.33,3673.33,4070.77,4133.85,4185.64,3947.18,4192.82,4116.92,3956.92,4124.62,4208.21,4111.79,4169.74,0
12_0_17,41,3974.87,4204.62,3785.64,4079.49,4144.1,4185.13,3936.92,4181.54,4120.51,3947.18,4115.9,4210.26,4104.1,4165.64,0
12_0_17,42,3963.08,4185.13,3858.97,4068.21,4120,4181.54,3887.18,4151.28,4092.82,3923.59,4092.31,4198.97,4082.56,4146.15,0
12_0_17,43,3940.51,4173.85,3766.15,4050.77,4120.51,4177.44,3826.67,4149.23,4097.44,3928.72,4080.51,4176.92,4074.36,4130.26,0
12_0_17,44,3938.46,4174.36,3752.31,4055.9,4135.38,4172.31,3846.15,4161.54,4111.28,3929.23,4076.41,4166.15,4073.85,4131.28,0
12_0_17,45,3947.69,4155.9,3953.85,4060,4120,4165.13,3923.59,4135.9,4086.15,3893.85,4050.26,4173.33,4041.03,4116.92,0
12_0_17,46,3951.79,4124.62,4129.74,4046.67,4103.08,4154.36,3960,4101.54,4062.56,3868.72,4021.03,4183.08,4003.59,4088.72,0
12_0_17,47,3956.92,4110.77,4186.67,4041.03,4105.64,4143.59,3965.13,4094.87,4058.97,3865.13,4010.77,4184.62,3991.79,4080.51,0
12_0_17,48,3963.59,4103.59,4246.67,4046.15,4109.23,4137.44,3973.85,4088.21,4043.08,3845.64,3993.85,4183.08,3979.49,4075.9,0
12_0_17,49,3956.41,4083.08,4295.9,4036.41,4102.56,4133.85,3963.08,4072.31,4031.28,3822.56,3966.67,4171.79,3958.97,4053.33,0
12_0_17,50,3941.03,4062.56,4312.31,4020.51,4089.74,4126.15,3951.79,4057.44,4031.79,3811.79,3952.31,4155.9,3937.44,4030.26,0
12_0_17,51,3936.92,4054.87,4331.28,4019.49,4090.26,4122.56,3981.03,4047.18,4020.51,3802.56,3945.13,4149.74,3922.56,4019.49,0
12_0_17,52,3938.46,4048.72,4348.72,4017.95,4092.31,4121.54,4018.97,4046.15,4013.85,3804.1,3930.77,4142.05,3917.44,4013.85,0
12_0_17,53,3938.97,4044.62,4364.1,4010.77,4083.59,4114.36,4036.41,4050.77,4020.51,3807.18,3923.59,4135.38,3917.95,4009.74,0
12_0_17,54,3948.72,4049.74,4386.15,4016.92,4084.1,4107.18,4062.05,4050.26,4020.51,3799.49,3926.67,4141.03,3924.62,4007.18,0
12_0_17,55,3956.41,4052.82,4402.56,4021.54,4092.31,4108.72,4095.38,4045.13,4016.41,3797.44,3929.23,4146.67,3942.05,4003.59,0
12_0_17,56,3949.23,4047.69,4417.95,4011.28,4092.82,4108.21,4097.95,4046.67,4020.51,3806.15,3927.69,4142.05,3963.08,4004.1,0
12_0_17,57,3941.03,4039.49,4436.92,4007.18,4091.28,4098.46,4082.05,4044.1,4023.08,3813.85,3915.9,4135.38,3982.56,4001.54,0
12_0_17,58,3941.03,4025.64,4451.79,4008.21,4088.21,4091.79,4088.72,4031.79,4015.9,3799.49,3898.46,4131.79,4000.51,3990.26,0
12_0_17,59,3945.13,4017.44,4469.23,4006.15,4084.62,4093.33,4095.38,4028.21,4013.85,3781.03,3890.26,4131.28,4014.36,3985.13,0
12_0_17,60,3944.62,4012.82,4493.33,4005.64,4082.56,4088.21,4070.77,4030.77,4014.36,3784.1,3878.97,4130.77,4025.13,3981.54,0
12_0_17,61,3942.05,4004.1,4518.97,4003.08,4078.97,4078.97,4055.38,4020.51,4000,3780.51,3862.56,4118.46,4023.59,3970.26,0
12_0_17,62,3946.67,4002.05,4541.54,4001.03,4081.54,4084.62,4081.03,4008.21,3986.67,3762.56,3857.95,4107.18,4015.9,3964.62,0
12_0_17,63,3957.44,4004.62,4563.59,4009.23,4092.82,4091.79,4102.05,4008.72,3995.38,3768.21,3860.51,4109.23,4014.87,3971.28,0
12_0_17,64,3963.08,4003.08,4572.82,4014.36,4091.28,4086.15,4093.33,4015.38,4010.26,3785.13,3864.1,4115.38,4017.44,3978.46,0
12_0_17,65,3958.46,4002.05,4564.1,4007.69,4083.08,4080.51,4090.77,4013.85,4004.1,3775.9,3863.08,4111.79,4015.38,3975.9,0
12_0_17,66,3944.62,3998.97,4533.85,4000,4087.69,4078.46,4095.38,4008.72,3990.77,3759.49,3850.77,4095.38,4001.54,3963.59,0
12_0_17,67,3936.41,3994.36,4488.21,3998.46,4090.26,4080,4086.15,4002.05,3992.82,3762.05,3837.44,4078.97,3984.62,3956.92,0
12_0_17,68,3949.23,4014.36,4424.62,4006.67,4091.79,4090.26,4078.97,4008.21,4002.05,3773.33,3848.21,4078.97,3993.33,3974.36,0
12_0_17,69,3960.51,4040.51,4338.46,4020,4097.95,4099.49,4081.54,4037.44,4012.82,3791.79,3872.31,4082.56,4017.44,4003.59,0
12_0_17,70,3946.15,4043.08,4227.69,4021.03,4096.92,4110.26,4075.38,4059.49,4021.54,3804.62,3878.97,4065.64,4012.82,4010.26,0
12_0_17,71,3936.92,4049.74,4117.44,4016.41,4102.05,4122.05,4056.92,4066.15,4035.38,3815.9,3878.97,4046.15,4007.69,4007.18,0
12_0_17,72,3953.33,4082.56,4030.26,4029.74,4122.05,4124.62,4044.62,4090.26,4055.38,3849.74,3901.03,4053.33,4038.46,4033.85,0
12_0_17,73,3966.15,4106.67,3961.54,4044.62,4130.26,4129.74,4034.36,4122.05,4060.51,3873.33,3925.13,4057.44,4060,4063.59,0
12_0_17,74,3956.41,4107.18,3907.69,4044.62,4120.51,4140,4014.87,4127.69,4057.95,3868.21,3925.13,4040.51,4049.74,4064.62,0
12_0_17,75,3954.36,4112.82,3887.18,4046.67,4120.51,4142.05,3997.95,4129.23,4065.64,3876.41,3923.08,4031.79,4047.18,4064.1,0
12_0_17,76,3968.72,4126.67,3904.62,4056.92,4126.15,4140,3981.03,4140,4065.13,3899.49,3926.15,4040,4050.26,4077.44,0
12_0_17,77,3970.26,4126.15,3941.54,4055.9,4121.54,4131.79,3959.49,4128.72,4046.15,3889.74,3921.54,4040,4034.87,4080,0
12_0_17,78,3958.97,4115.9,3983.59,4046.67,4114.36,4121.54,3950.26,4104.62,4045.13,3876.92,3910.77,4032.31,4020,4070.77,0
12_0_17,79,3955.9,4106.15,4023.08,4047.69,4109.23,4121.54,3954.36,4100,4050.26,3888.72,3893.33,4030.26,4014.87,4064.62,0
12_0_17,80,3958.46,4096.92,4063.59,4048.21,4102.05,4126.67,3959.49,4100.51,4026.15,3877.95,3878.46,4030.77,4002.05,4061.03,0
12_0_17,81,3953.33,4084.62,4105.64,4035.38,4092.82,4123.08,3972.82,4084.1,4004.62,3855.38,3869.23,4026.15,3972.82,4049.74,0
12_0_17,82,3942.56,4067.69,4137.95,4023.59,4089.74,4112.31,3995.9,4066.67,4002.56,3851.79,3855.9,4016.41,3942.56,4032.31,0
12_0_17,83,3942.05,4059.49,4166.67,4025.13,4091.28,4106.67,4002.56,4067.18,4007.69,3851.28,3849.74,4017.95,3935.38,4029.23,0
12_0_17,84,3952.31,4062.05,4196.92,4032.82,4085.13,4108.21,3998.97,4076.92,4010.77,3844.62,3861.03,4030.77,3940.51,4040,0
12_0_17,85,3958.46,4062.56,4211.79,4034.87,4080,4104.62,4015.9,4070.26,4004.62,3844.1,3865.64,4032.31,3933.33,4037.95,0
12_0_17,86,3956.92,4063.59,4218.97,4035.9,4085.64,4094.36,4053.85,4053.85,3994.36,3852.31,3863.59,4026.15,3926.67,4031.79,0
12_0_17,87,3960,4072.82,4226.67,4035.38,4097.44,4093.33,4086.15,4058.46,3997.44,3863.59,3877.95,4027.18,3933.33,4037.44,0
12_0_17,88,3965.13,4072.31,4229.23,4032.31,4093.33,4097.95,4093.85,4066.15,4000,3865.13,3886.67,4025.64,3930.77,4039.49,0
12_0_17,89,3965.13,4062.56,4226.15,4028.72,4074.87,4095.9,4090.77,4059.49,3999.49,3860.51,3875.9,4021.03,3922.56,4032.82,0
12_0_17,90,3969.23,4061.03,4227.69,4024.62,4075.38,4090.77,4082.56,4061.54,4004.1,3862.56,3870.77,4024.1,3924.1,4033.85,0
12_0_17,91,3972.82,4059.49,4229.23,4021.54,4087.69,4089.23,4075.9,4075.9,3999.49,3859.49,3870.26,4028.72,3925.64,4036.92,0
12_0_17,99,3972.82,4042.05,4241.54,4018.46,4061.54,4090.26,3988.72,4063.08,3978.97,3863.08,3849.23,4027.18,3924.1,4027.18,0
12_0_17,100,3969.74,4043.08,4245.13,4025.64,4066.67,4085.64,4003.59,4045.13,3971.79,3862.05,3844.62,4020,3916.41,4021.03,0
12_0_17,101,3972.31,4051.28,4246.67,4032.31,4083.08,4088.21,4022.05,4055.38,3985.64,3868.72,3848.72,4025.13,3920.51,4023.08,0
12_0_17,102,3972.31,4052.31,4236.92,4027.69,4082.56,4094.36,4023.59,4067.18,3991.28,3874.36,3850.77,4028.72,3917.44,4020,0
12_0_17,103,3972.82,4055.38,4227.18,4030.26,4073.33,4091.79,4015.9,4060.51,3982.56,3878.97,3852.82,4022.56,3907.69,4013.85,0
12_0_17,104,3972.31,4058.97,4223.08,4033.33,4074.36,4086.67,3996.92,4050.26,3976.41,3873.85,3852.31,4014.36,3896.92,4010.26,0
12_0_17,105,3963.59,4053.33,4220,4022.05,4070.26,4086.67,3964.1,4055.9,3980.51,3864.62,3848.21,4011.28,3894.87,4004.1,0
12_0_17,106,3961.54,4049.74,4215.9,4017.95,4061.54,4088.72,3937.44,4069.74,3987.18,3880,3863.08,4019.49,3908.72,4009.74,0
12_0_17,107,3963.08,4048.72,4215.38,4019.49,4058.46,4084.1,3930.26,4067.18,3981.54,3893.85,3877.44,4025.64,3912.82,4018.46,0
12_0_17,108,3959.49,4045.13,4213.85,4014.87,4056.92,4081.03,3964.1,4054.36,3978.46,3885.13,3875.9,4021.03,3903.59,4013.85,0
12_0_17,109,3960.51,4045.64,4213.33,4016.41,4059.49,4085.13,4012.82,4057.44,3991.28,3880.51,3885.13,4020,3909.23,4016.41,0
12_0_17,110,3960.51,4048.21,4211.79,4015.38,4061.03,4087.18,4017.95,4065.64,3985.13,3881.03,3895.9,4019.49,3910.77,4020,0
12_0_17,111,3956.92,4045.64,4215.38,4010.26,4053.85,4083.59,4002.05,4064.1,3971.28,3884.1,3887.18,4016.92,3898.97,4010.26,0
12_0_17,112,3957.95,4044.62,4225.13,4012.31,4052.31,4082.05,4002.56,4059.49,3982.05,3890.77,3879.49,4018.97,3897.44,4003.08,0
12_0_17,113,3951.28,4038.46,4233.85,4009.23,4060.51,4086.15,4001.03,4059.49,3986.67,3883.08,3879.49,4008.72,3889.74,3997.95,0
12_0_17,114,3946.15,4033.33,4261.54,4004.1,4065.13,4090.77,4007.18,4062.56,3976.41,3873.33,3877.95,4001.03,3875.38,3991.79,0
12_0_17,115,3958.46,4040,4315.9,4013.33,4068.21,4086.15,4036.41,4048.72,3975.9,3883.08,3880.51,4015.38,3878.97,3995.9,0
12_0_17,116,3963.59,4036.41,4349.74,4018.46,4064.62,4077.95,4050.26,4035.38,3974.87,3881.03,3884.62,4023.08,3877.95,3997.95,0
12_0_17,117,3956.92,4012.82,4427.69,4007.69,4042.56,4074.36,4047.69,4032.31,3958.97,3854.87,3870.77,4018.46,3855.9,3981.03,0
12_0_17,118,3961.54,3989.23,4598.46,4004.1,4028.21,4065.64,4041.54,4010.26,3945.13,3840.51,3845.64,4023.59,3833.85,3961.03,0
12_0_17,119,3960.51,3980,4642.05,4005.64,4044.1,4056.92,4024.62,3996.41,3950.77,3841.54,3843.59,4028.21,3826.15,3954.87,0
12_0_17,120,3946.15,3991.28,4489.74,4005.13,4053.85,4065.64,4018.46,4020,3965.13,3852.31,3863.59,4021.54,3835.38,3958.46,0
12_0_17,121,3941.54,4008.21,4405.13,4006.15,4045.13,4073.85,4023.59,4033.33,3966.15,3863.08,3874.36,4012.31,3848.72,3964.1,0
12_0_17,122,3945.13,4006.67,4458.46,4005.64,4044.1,4065.13,4007.18,4015.38,3951.28,3854.36,3868.21,4006.15,3841.03,3956.92,0
12_0_17,123,3941.03,3995.38,4455.38,4005.64,4048.72,4064.1,3977.95,4006.67,3947.69,3842.56,3862.56,4005.13,3828.72,3944.62,0
12_0_17,124,3930.77,3996.41,4395.9,4005.13,4042.56,4070.77,3953.33,4013.33,3951.79,3845.64,3866.15,4005.64,3834.87,3946.67,0
12_0_17,125,3925.64,4002.56,4381.54,4003.59,4046.15,4068.72,3943.08,4021.54,3948.72,3843.08,3872.82,4003.08,3845.13,3956.92,0
12_0_17,126,3925.64,4005.64,4363.08,4004.62,4058.46,4069.74,3961.54,4029.23,3950.77,3843.08,3883.59,4004.1,3847.18,3958.46,0
12_0_17,127,3926.15,4008.72,4305.13,4003.08,4056.41,4078.46,3981.03,4031.79,3956.41,3857.44,3885.64,4003.08,3845.64,3953.85,0
12_0_17,128,3922.56,4014.36,4251.28,4001.03,4050.77,4083.59,3956.92,4038.46,3961.03,3865.13,3885.13,3999.49,3853.85,3960,0
12_0_17,0,3924.1,4027.18,4209.23,4010.26,4057.44,4091.28,3918.46,4058.46,3975.38,3880.51,3903.59,4006.15,3876.41,3981.03,0
12_0_17,1,3934.87,4048.21,4157.44,4023.08,4066.67,4103.59,3920.51,4074.36,3991.79,3908.21,3932.82,4018.46,3901.03,4003.08,0
12_0_17,2,3935.38,4061.54,4109.23,4025.13,4068.72,4107.18,3937.95,4081.03,3997.44,3916.41,3949.23,4024.62,3918.46,4014.36,0
12_0_18,3,3929.23,4062.05,4087.18,4025.64,4066.15,4104.1,3932.82,4086.15,4002.05,3915.9,3952.31,4023.59,3927.69,4020,0
12_0_18,4,3931.28,4063.59,4069.74,4033.33,4066.15,4105.64,3934.87,4093.85,4011.28,3926.15,3957.44,4021.03,3929.74,4024.62,0
12_0_18,5,3933.33,4064.62,4055.9,4038.97,4071.28,4108.72,3965.13,4093.85,4007.18,3929.23,3961.03,4021.03,3928.72,4023.59,0
12_0_18,6,3928.72,4060.51,4053.85,4036.41,4073.33,4106.67,3990.26,4081.54,3992.31,3930.26,3960.51,4020,3929.74,4021.03,0
12_0_18,7,3930.77,4060.51,4054.36,4033.33,4065.64,4107.69,3997.95,4077.95,3985.13,3941.03,3957.95,4017.44,3928.72,4020.51,0
12_0_18,8,3937.44,4064.62,4056.41,4037.95,4060.51,4109.74,4015.38,4085.64,3990.26,3943.59,3958.97,4019.49,3923.59,4017.95,0
12_0_18,9,3942.05,4068.72,4056.41,4044.62,4069.23,4100.51,4040,4094.36,4004.62,3954.36,3972.31,4032.31,3926.67,4022.56,0
12_0_18,10,3949.74,4073.85,4054.87,4045.64,4075.38,4093.85,4051.28,4097.44,4014.36,3975.9,3977.95,4038.46,3934.36,4028.21,0
12_0_18,11,3950.26,4078.46,4051.79,4044.1,4071.28,4103.59,4044.62,4092.31,4001.54,3969.74,3963.59,4027.18,3926.15,4021.03,0
12_0_18,12,3943.59,4076.41,4049.74,4036.41,4068.21,4107.69,4032.31,4084.1,3986.67,3944.1,3955.38,4018.46,3914.87,4012.82,0
12_0_18,13,3941.54,4071.79,4048.21,4027.18,4065.13,4097.44,4028.72,4081.54,3995.9,3938.97,3966.67,4026.15,3926.15,4015.9,0
12_0_18,14,3945.64,4071.28,4051.28,4032.82,4060.51,4092.82,4036.92,4083.59,4004.62,3953.33,3979.49,4033.33,3947.18,4020,0
12_0_18,15,3953.33,4074.87,4055.9,4042.56,4065.64,4095.9,4054.36,4086.67,4001.03,3972.31,3987.18,4035.38,3971.28,4025.13,0
12_0_18,16,3956.41,4077.44,4062.05,4040.51,4071.79,4097.44,4081.03,4092.82,4008.72,3988.21,3991.79,4041.54,4007.18,4032.31,0
12_0_18,17,3956.92,4074.87,4065.64,4034.36,4058.46,4095.38,4105.64,4099.49,4013.85,3983.08,3984.1,4042.56,4038.46,4029.74,0
12_0_18,18,3957.44,4072.31,4067.69,4031.28,4049.23,4090.26,4117.44,4094.87,4003.59,3965.64,3972.31,4036.41,4053.85,4024.1,0
12_0_18,19,3956.92,4074.87,4068.72,4030.77,4058.97,4087.18,4110.26,4077.44,3995.38,3964.1,3967.69,4032.82,4068.72,4021.54,0
12_0_18,20,3957.95,4078.46,4070.26,4035.38,4063.08,4088.21,4095.9,4067.69,3992.82,3975.38,3969.23,4032.82,4082.56,4018.46,0
12_0_18,21,3964.62,4079.49,4067.69,4038.97,4059.49,4087.69,4098.97,4082.56,4002.05,3988.21,3980.51,4038.46,4085.64,4022.05,0
12_0_18,22,3970.77,4077.95,4063.08,4032.31,4061.03,4090.77,4111.79,4095.38,4020.51,4000.51,3994.87,4047.69,4089.23,4028.72,0
12_0_18,23,3972.82,4077.44,4065.64,4032.82,4062.05,4096.92,4111.79,4090.77,4015.38,4004.1,4002.56,4056.41,4094.87,4030.26,0
12_0_18,24,3974.36,4076.92,4069.74,4042.56,4060.51,4094.36,4095.9,4088.21,4001.03,4003.59,4006.67,4063.59,4095.9,4032.31,0
12_0_18,25,3975.38,4077.95,4065.64,4044.1,4060,4089.74,4074.87,4100,4017.44,4008.72,4015.9,4071.79,4100,4037.95,0
12_0_18,26,3982.56,4082.56,4061.54,4036.92,4060.51,4095.9,4060.51,4113.85,4035.9,4018.46,4024.62,4082.05,4107.18,4046.15,0
12_0_18,27,3988.72,4087.18,4062.56,4034.36,4064.62,4101.54,4064.1,4110.26,4026.15,4018.46,4024.1,4086.15,4102.05,4053.33,0
12_0_18,28,3981.03,4082.05,4055.38,4036.92,4063.59,4094.87,4077.44,4091.79,4013.85,4008.21,4013.33,4077.95,4083.08,4046.67,0
12_0_18,29,3976.41,4079.49,4047.69,4035.9,4052.31,4087.69,4085.64,4088.72,4026.67,4012.82,4002.56,4068.21,4069.74,4034.87,0
12_0_18,30,3984.1,4087.69,4048.21,4034.36,4044.62,4090.26,4094.36,4097.44,4033.85,4030.77,4004.1,4067.18,4061.03,4034.87,0
12_0_18,31,3987.69,4091.79,4050.26,4037.44,4046.67,4092.31,4099.49,4097.95,4022.56,4035.38,4006.15,4070.26,4050.77,4035.38,0
12_0_18,32,3986.67,4089.74,4048.21,4037.95,4044.1,4089.23,4091.28,4104.1,4030.26,4032.82,4010.77,4073.33,4051.28,4035.38,0
12_0_18,33,3989.23,4091.79,4049.23,4034.87,4040,4086.67,4075.38,4111.79,4043.08,4039.49,4026.67,4082.56,4064.1,4048.21,0
12_0_18,34,3991.28,4093.85,4049.74,4033.85,4052.31,4088.21,4056.41,4102.56,4029.74,4048.21,4033.85,4091.79,4069.23,4059.49,0
12_0_18,35,3989.23,4089.74,4047.69,4036.92,4060.51,4086.67,4039.49,4090.77,4016.41,4046.67,4020.51,4086.15,4057.44,4053.33,0
12_0_18,36,3986.15,4087.69,4044.62,4036.92,4050.77,4081.03,4046.15,4090.77,4029.23,4037.95,4014.87,4076.92,4048.72,4045.13,0
12_0_18,37,3983.59,4091.28,4047.18,4038.46,4041.54,4078.97,4074.87,4094.36,4035.9,4030.26,4024.62,4079.49,4049.74,4047.18,0
12_0_18,38,3980.51,4089.23,4046.67,4036.41,4031.28,4076.92,4082.56,4090.26,4027.18,4035.38,4018.46,4084.1,4047.69,4046.15,0
12_0_18,39,3970.26,4077.95,4039.49,4025.64,4007.18,4067.18,4059.49,4077.44,4025.64,4045.13,3998.97,4074.36,4040,4033.33,0
12_0_18,40,3965.13,4073.33,4040,4021.54,3988.72,4063.08,4038.46,4075.9,4028.21,4037.44,3998.46,4069.74,4033.85,4027.69,0
12_0_18,41,3972.31,4081.54,4047.18,4027.18,3987.69,4067.18,4029.74,4091.28,4034.87,4033.33,4017.44,4083.08,4035.9,4036.41,0
