TIME, ED_COUNTER, AF3, F7, F3, FC5, T7, P7, O1, O2, P8, T8, FC6, F4, F8, AF4, LABEL
11_33_47,86,1549.23,1968.21,1539.49,1497.95,1478.97,1619.49,1894.87,1750.77,1995.9,1803.59,1796.92,1354.36,1752.82,1942.05,0
11_33_47,87,1574.36,1981.03,1565.13,1522.05,1502.05,1641.54,1906.67,1767.18,2000.51,1817.44,1811.28,1367.69,1771.79,1952.82,0
11_33_47,88,1577.95,1982.56,1566.67,1523.08,1503.59,1644.1,1905.64,1771.79,1998.97,1824.62,1807.69,1361.54,1772.82,1951.79,0
11_33_47,89,1576.41,1979.49,1564.1,1515.9,1505.13,1642.05,1909.74,1768.72,2006.15,1825.64,1804.62,1363.08,1767.69,1951.79,0
11_33_47,90,1583.59,1981.03,1571.28,1522.56,1516.92,1653.85,1919.49,1770.26,2012.31,1825.13,1811.28,1371.79,1771.79,1954.36,0
11_33_47,91,1588.21,1983.08,1573.33,1533.85,1520,1659.49,1917.44,1775.9,2009.74,1824.1,1814.36,1367.69,1777.44,1953.33,0
11_33_47,92,1590.26,1984.62,1575.38,1535.9,1516.92,1653.33,1914.36,1782.56,2010.77,1825.13,1814.87,1371.79,1778.46,1958.97,0
11_33_47,93,1591.79,1982.56,1579.49,1532.82,1519.49,1655.9,1917.95,1784.62,2014.36,1830.26,1818.97,1383.08,1779.49,1965.13,0
11_33_47,94,1592.31,1982.05,1585.13,1536.41,1527.69,1658.97,1919.49,1782.56,2013.33,1835.9,1823.59,1386.67,1784.62,1963.08,0
11_33_47,95,1596.41,1988.72,1590.77,1547.18,1532.31,1657.44,1919.49,1786.15,2012.31,1838.46,1822.56,1391.28,1787.18,1963.08,0
11_33_47,96,1598.46,1990.26,1593.33,1551.28,1534.36,1665.13,1917.95,1790.77,2014.36,1838.46,1824.1,1402.56,1787.69,1964.62,0
11_33_47,97,1601.03,1988.72,1594.87,1549.74,1536.92,1674.36,1916.41,1792.31,2015.38,1840.51,1831.28,1412.82,1795.9,1969.23,0
11_33_47,98,1607.18,1994.36,1597.95,1550.77,1537.95,1671.28,1923.59,1795.38,2013.85,1845.13,1833.85,1415.38,1801.54,1971.28,0
11_33_47,99,1611.28,1997.95,1601.03,1558.97,1541.54,1669.23,1932.82,1798.97,2017.95,1849.74,1837.44,1415.38,1798.97,1971.28,0
11_33_47,100,1614.87,1995.9,1605.64,1566.67,1548.72,1680.51,1934.87,1802.56,2026.15,1853.85,1842.05,1416.92,1799.49,1975.38,0
11_33_47,101,1616.41,1997.95,1611.79,1566.67,1552.31,1688.72,1933.33,1807.18,2026.67,1857.44,1838.46,1422.56,1805.13,1980.51,0
11_33_47,102,1620.51,1996.92,1612.82,1565.64,1552.82,1686.67,1934.36,1809.23,2023.59,1855.9,1839.49,1430.26,1807.18,1978.97,0
11_33_47,103,1627.69,1998.46,1615.38,1570.77,1560,1686.15,1935.9,1807.69,2027.69,1855.38,1846.67,1431.79,1810.26,1978.46,0
11_33_47,104,1630.77,2006.15,1624.62,1576.92,1566.15,1690.26,1937.44,1811.79,2031.28,1863.08,1849.23,1432.82,1815.9,1980.51,0
11_33_47,105,1628.21,2006.15,1626.67,1580.51,1565.64,1691.79,1937.95,1816.41,2031.79,1870.26,1851.28,1434.36,1817.44,1982.56,0
11_33_47,106,1631.28,2005.64,1622.56,1583.08,1568.72,1689.74,1934.87,1818.46,2029.74,1869.23,1856.92,1436.92,1818.46,1985.64,0
11_33_47,107,1641.54,2011.79,1627.18,1585.64,1574.87,1694.36,1934.36,1823.08,2029.74,1867.18,1857.95,1441.54,1824.62,1986.15,0
11_33_47,108,1644.62,2011.79,1638.46,1588.72,1580.51,1702.56,1939.49,1824.62,2037.44,1869.74,1855.38,1444.1,1825.64,1989.23,0
11_33_47,109,1642.56,2011.28,1642.56,1592.82,1586.15,1707.18,1947.18,1823.59,2043.59,1872.31,1857.44,1444.1,1823.08,1994.36,0
11_33_47,110,1647.18,2013.85,1640,1594.36,1590.26,1705.64,1951.79,1827.69,2041.54,1870.77,1863.59,1440.51,1829.74,1993.85,0
11_33_47,111,1656.41,2013.85,1640.51,1598.97,1594.87,1704.62,1949.74,1831.79,2041.54,1873.85,1869.23,1436.92,1837.95,1992.31,0
11_33_47,112,1658.97,2016.41,1644.62,1606.15,1598.46,1711.28,1949.74,1831.28,2044.62,1881.54,1872.31,1440.51,1838.46,1995.9,0
11_33_47,113,1655.9,2023.08,1651.28,1607.69,1596.92,1720.51,1956.41,1837.44,2045.64,1884.62,1872.31,1449.74,1838.46,1999.49,0
11_33_47,114,1659.49,2025.13,1657.44,1613.85,1601.03,1723.08,1962.56,1841.54,2046.15,1883.59,1871.28,1458.46,1843.08,1998.46,0
11_33_47,115,1671.28,2024.62,1658.97,1625.64,1608.21,1719.49,1962.05,1838.97,2045.64,1887.18,1874.87,1463.59,1846.67,1997.44,0
11_33_47,116,1674.87,2025.13,1666.15,1626.15,1611.28,1725.64,1961.03,1842.05,2046.67,1890.26,1878.46,1464.1,1847.69,2001.03,0
11_33_47,117,1670.26,2029.74,1675.38,1623.08,1616.92,1737.44,1965.64,1847.69,2052.31,1887.18,1877.44,1464.1,1851.28,2009.23,0
11_33_47,118,1677.44,2032.82,1673.33,1632.82,1625.64,1740.51,1967.69,1850.26,2054.87,1891.28,1878.97,1471.79,1854.87,2010.77,0
11_33_47,119,1687.18,2029.23,1674.36,1642.05,1628.72,1735.38,1965.64,1851.79,2054.87,1900,1885.64,1478.46,1854.36,2009.23,0
11_33_47,120,1684.1,2031.79,1685.64,1640,1629.74,1737.95,1970.26,1855.38,2058.46,1901.54,1887.18,1479.49,1857.44,2013.33,0
11_33_47,121,1682.05,2040,1691.79,1643.08,1634.36,1749.23,1978.46,1860,2061.54,1901.03,1883.59,1487.18,1866.15,2012.82,0
11_33_47,122,1691.79,2042.05,1689.23,1652.31,1638.97,1754.87,1982.56,1865.13,2062.56,1902.56,1889.23,1491.28,1868.21,2014.36,0
11_33_47,123,1702.05,2040.51,1688.72,1657.44,1642.05,1753.33,1981.54,1867.69,2061.54,1905.64,1899.49,1491.79,1867.69,2020.51,0
11_33_47,124,1706.67,2043.08,1695.38,1656.41,1640,1751.79,1981.54,1870.77,2061.03,1907.69,1902.56,1501.03,1870.77,2023.08,0
11_33_47,125,1704.1,2046.15,1705.13,1655.38,1644.1,1758.97,1981.03,1874.87,2063.59,1908.72,1901.03,1503.08,1870.77,2023.59,0
11_33_47,126,1704.1,2050.26,1708.21,1662.56,1656.41,1767.18,1982.56,1870.26,2069.74,1912.31,1901.54,1494.36,1870.26,2027.18,0
11_33_47,127,1713.85,2048.72,1703.59,1671.79,1658.97,1768.72,1990.77,1871.28,2071.79,1916.92,1902.05,1495.9,1879.49,2027.69,0
11_33_47,128,1720.51,2047.18,1706.15,1674.36,1655.9,1768.21,1996.92,1882.56,2071.28,1919.49,1905.13,1504.62,1886.15,2027.18,0
11_33_47,0,1717.95,2052.82,1715.9,1670.26,1663.08,1769.74,1996.41,1886.15,2072.82,1918.46,1911.79,1504.62,1884.1,2029.74,0
11_33_47,1,1720,2055.38,1720,1673.85,1673.85,1770.77,1995.9,1884.62,2074.87,1917.95,1914.36,1507.18,1886.67,2030.77,0
11_33_47,2,1728.21,2053.85,1721.03,1685.13,1674.36,1771.79,1998.97,1888.21,2078.46,1922.56,1913.85,1512.82,1889.23,2033.85,0
11_33_47,3,1730.26,2057.44,1722.05,1690.26,1670.77,1778.97,1998.97,1889.74,2083.59,1930.77,1915.9,1510.77,1886.15,2034.87,0
11_33_47,4,1729.23,2058.46,1721.54,1687.18,1675.9,1786.67,1998.46,1888.72,2086.67,1933.33,1916.92,1512.82,1890.26,2034.87,0
11_33_47,5,1734.36,2057.44,1722.05,1688.72,1686.67,1788.21,1998.97,1895.38,2086.67,1932.31,1917.95,1521.03,1899.49,2038.97,0
11_33_47,6,1738.46,2060.51,1730.26,1691.28,1691.79,1786.67,1997.44,1901.54,2086.15,1934.36,1918.97,1523.08,1901.03,2042.56,0
11_33_47,7,1736.41,2063.08,1737.95,1690.26,1687.69,1786.15,2001.54,1900,2085.64,1934.36,1922.05,1525.13,1901.54,2041.54,0
11_33_47,8,1738.97,2062.56,1737.95,1696.41,1688.21,1792.82,2008.72,1901.03,2086.15,1937.44,1928.72,1530.77,1904.1,2041.54,0
11_33_47,9,1747.18,2063.08,1735.9,1707.18,1698.46,1801.03,2010.26,1901.54,2088.21,1945.64,1933.85,1535.38,1903.08,2043.08,0
11_33_47,10,1750.77,2066.15,1740,1706.67,1704.1,1800.51,2009.23,1904.1,2088.72,1949.74,1933.85,1540,1908.21,2048.21,0
11_33_47,11,1751.28,2071.28,1749.23,1702.05,1703.59,1798.97,2012.31,1912.82,2090.77,1947.69,1931.79,1544.62,1916.92,2055.38,0
11_33_47,12,1753.85,2071.79,1753.85,1708.72,1705.64,1806.15,2013.85,1917.95,2096.41,1946.15,1935.38,1546.67,1916.92,2055.9,0
11_33_47,13,1756.41,2070.26,1754.36,1720,1705.64,1808.72,2013.85,1916.41,2100,1952.82,1943.59,1551.28,1914.87,2054.87,0
11_33_47,14,1758.97,2072.82,1754.36,1723.59,1706.67,1806.67,2015.38,1917.95,2098.97,1961.03,1947.18,1555.38,1919.49,2057.44,0
11_33_47,15,1763.59,2072.82,1755.9,1720,1714.87,1811.79,2013.85,1920,2100,1963.08,1946.15,1556.41,1925.64,2057.44,0
11_33_47,16,1770.26,2072.31,1762.56,1721.54,1723.59,1816.92,2013.85,1918.97,2103.59,1961.54,1947.18,1561.03,1930.26,2055.9,0
11_33_47,17,1770.26,2076.92,1771.79,1732.31,1721.03,1818.97,2021.03,1924.1,2104.62,1965.13,1949.74,1567.18,1931.28,2061.03,0
11_33_47,18,1767.69,2081.54,1771.28,1737.44,1720,1823.08,2026.67,1931.28,2103.59,1967.18,1950.26,1567.69,1932.31,2067.18,0
11_33_47,19,1774.36,2084.1,1766.15,1736.92,1728.21,1825.13,2026.15,1933.33,2105.13,1964.1,1949.23,1570.77,1935.38,2062.56,0
11_33_47,20,1783.08,2088.21,1772.31,1737.95,1735.9,1822.56,2027.18,1934.87,2105.13,1967.69,1951.79,1578.46,1934.36,2059.49,0
11_33_47,21,1783.59,2089.23,1782.56,1739.49,1736.92,1830.26,2028.72,1934.36,2105.64,1977.44,1957.95,1582.05,1933.33,2068.21,0
11_33_47,22,1784.1,2087.69,1784.62,1744.1,1735.9,1837.95,2029.23,1936.41,2111.79,1979.49,1963.08,1582.05,1940.51,2074.87,0
11_33_47,23,1787.69,2087.69,1784.1,1751.79,1739.49,1833.33,2030.77,1944.1,2116.41,1977.44,1963.59,1582.05,1947.69,2072.31,0
11_33_47,24,1788.72,2088.21,1787.69,1753.85,1747.69,1833.33,2029.74,1947.18,2115.38,1981.54,1964.62,1580,1947.69,2072.82,0
11_33_47,25,1793.33,2092.31,1790.77,1752.31,1752.82,1841.03,2032.82,1945.64,2116.41,1984.62,1966.67,1579.49,1948.72,2076.92,0
11_33_47,26,1799.49,2093.85,1791.79,1753.33,1754.36,1840.51,2038.97,1946.15,2118.46,1979.49,1965.64,1580,1949.74,2075.38,0
11_33_47,27,1801.03,2093.33,1796.41,1752.82,1753.85,1840,2040.51,1947.69,2117.95,1981.03,1966.67,1579.49,1949.74,2075.9,0
11_33_47,28,1800,2097.95,1800,1760,1753.85,1850.26,2040.51,1953.85,2118.46,1990.26,1973.85,1584.62,1954.87,2080.51,0
11_33_47,29,1802.56,2104.1,1802.05,1769.74,1760,1856.92,2045.13,1958.46,2113.85,1989.74,1977.95,1591.28,1962.05,2084.1,0
11_33_47,30,1811.79,2104.62,1807.69,1771.28,1770.26,1856.41,2051.28,1966.15,2124.62,1999.49,1986.67,1596.41,1968.21,2093.33,0
11_33_47,31,1816.41,2104.62,1811.79,1775.9,1770.26,1861.03,2054.36,1965.64,2133.33,2002.05,1985.13,1599.49,1963.59,2089.23,0
11_33_47,32,1818.46,2107.69,1817.95,1785.13,1770.26,1866.67,2057.44,1975.9,2146.15,2015.9,1992.31,1609.74,1971.79,2093.85,0
11_33_47,33,1823.59,2110.26,1826.15,1785.64,1782.05,1870.77,2061.03,1991.28,2163.59,2043.08,2009.74,1621.03,1990.26,2115.38,0
11_33_47,34,1825.13,2112.82,1828.72,1784.1,1789.23,1873.33,2061.03,1986.15,2158.97,2041.03,2006.67,1620.51,1988.72,2113.33,0
11_33_47,35,1825.13,2113.85,1829.74,1792.31,1785.13,1871.79,2061.54,1976.92,2142.56,2021.03,1990.77,1618.97,1975.38,2094.36,0
11_33_47,36,1829.23,2116.41,1833.85,1800,1785.64,1871.79,2066.67,1976.92,2137.44,2012.31,1985.13,1625.64,1971.79,2092.82,0
11_33_47,37,1834.87,2121.54,1836.41,1802.56,1790.77,1879.49,2072.82,1984.1,2148.21,2023.59,1995.38,1632.31,1980.51,2104.1,0
11_33_47,38,1836.41,2120.51,1837.44,1803.08,1791.79,1884.62,2072.31,1977.44,2138.97,2013.85,1991.79,1629.23,1978.97,2098.97,0
11_33_47,39,1839.49,2119.49,1842.56,1804.62,1796.92,1886.67,2072.82,1978.97,2135.38,2011.28,1995.38,1636.41,1982.56,2100.51,0
11_33_47,40,1843.59,2124.1,1844.62,1805.13,1804.1,1887.69,2074.36,1983.08,2135.9,2012.31,1995.38,1643.08,1983.08,2102.05,0
11_33_47,41,1851.28,2128.72,1846.15,1811.28,1805.13,1889.23,2074.87,1984.62,2136.92,2014.36,1994.36,1635.9,1983.59,2102.56,0
11_33_47,42,1855.38,2127.69,1851.79,1819.49,1805.13,1893.33,2078.97,1993.33,2147.69,2025.64,2007.69,1634.87,1994.36,2111.79,0
11_33_47,43,1852.31,2132.31,1856.92,1819.49,1808.72,1898.97,2082.56,1999.49,2159.49,2036.92,2018.46,1647.18,2002.56,2120.51,0
11_33_47,44,1858.97,2137.95,1860.51,1818.97,1814.36,1902.56,2083.59,2005.64,2168.21,2048.21,2021.03,1654.87,2006.67,2123.59,0
11_33_47,45,1867.69,2136.41,1862.56,1825.13,1820.51,1902.05,2082.56,2020,2179.49,2064.62,2028.21,1657.95,2016.92,2132.31,0
11_33_47,46,1868.72,2134.87,1868.21,1829.23,1823.59,1902.56,2084.62,2030.26,2188.21,2075.9,2037.44,1667.69,2023.59,2141.54,0
11_33_47,47,1868.21,2135.9,1872.31,1828.21,1823.59,1908.72,2089.74,2025.13,2185.64,2074.36,2036.92,1675.9,2021.54,2138.46,0
11_33_47,48,1871.28,2135.9,1868.21,1832.82,1829.23,1916.92,2091.79,2027.69,2190.26,2081.54,2043.59,1679.49,2029.74,2138.46,0
11_33_48,49,1878.46,2135.38,1871.28,1841.54,1836.41,1918.46,2090.26,2045.13,2207.69,2104.1,2058.97,1690.77,2043.08,2148.72,0
11_33_48,50,1884.62,2139.49,1883.59,1839.49,1837.44,1917.95,2093.33,2050.26,2212.31,2109.23,2059.49,1704.1,2042.05,2153.33,0
11_33_48,51,1886.15,2144.1,1888.21,1838.97,1840.51,1918.46,2099.49,2057.95,2223.59,2122.05,2065.64,1720,2051.79,2163.08,0
11_33_48,52,1886.67,2144.1,1889.74,1848.21,1845.64,1920,2102.56,2073.85,2243.59,2150.77,2084.1,1739.49,2069.23,2176.41,0
11_33_48,53,1886.67,2146.67,1897.44,1853.33,1847.69,1926.15,2102.56,2076.41,2244.1,2157.95,2086.67,1753.33,2070.26,2175.38,0
11_33_48,54,1889.23,2153.33,1901.54,1851.28,1851.79,1933.85,2103.59,2085.64,2251.28,2164.62,2088.72,1773.33,2074.87,2181.03,0
11_33_48,55,1897.44,2153.85,1901.54,1853.85,1854.87,1933.85,2105.13,2099.49,2268.21,2186.67,2101.03,1813.33,2086.15,2193.85,0
11_33_48,56,1901.54,2150.26,1902.05,1856.92,1857.44,1933.33,2105.13,2087.69,2252.82,2173.33,2092.31,1851.28,2078.97,2182.05,0
11_33_48,57,1897.95,2152.82,1900.51,1858.97,1862.56,1934.87,2103.59,2067.69,2226.67,2140,2071.28,1869.74,2065.13,2163.08,0
11_33_48,58,1899.49,2152.82,1900,1861.54,1862.05,1932.31,2103.59,2050.26,2200,2108.72,2055.9,1875.38,2050.26,2152.31,0
11_33_48,59,1901.54,2152.31,1902.05,1865.13,1859.49,1934.87,2106.67,2043.59,2187.18,2097.44,2056.41,1884.1,2043.59,2151.28,0
11_33_48,60,1901.03,2154.36,1903.59,1869.74,1867.69,1944.62,2105.13,2040.51,2183.08,2087.18,2056.92,1893.33,2041.03,2146.67,0
11_33_48,61,1906.15,2156.41,1906.67,1871.79,1874.87,1948.72,2104.1,2046.15,2193.85,2089.74,2061.03,1902.05,2051.79,2149.74,0
11_33_48,62,1907.69,2158.46,1909.23,1870.77,1869.23,1945.64,2110.26,2043.08,2188.72,2085.13,2057.44,1907.69,2052.82,2151.28,0
11_33_48,63,1906.67,2160,1913.33,1877.95,1871.79,1947.69,2115.38,2042.56,2188.21,2085.64,2058.97,1913.85,2050.77,2151.79,0
11_33_48,64,1914.87,2162.56,1918.46,1883.08,1883.08,1952.31,2113.85,2049.23,2197.95,2088.21,2065.13,1922.56,2054.36,2152.31,0
11_33_48,65,1919.49,2166.15,1917.44,1880.51,1885.64,1951.79,2114.87,2055.9,2195.9,2085.13,2068.72,1930.77,2057.95,2155.9,0
11_33_48,66,1916.92,2167.18,1919.49,1883.59,1885.64,1952.82,2118.46,2060,2192.82,2087.18,2073.33,1936.41,2058.46,2159.49,0
11_33_48,67,1918.97,2166.67,1926.67,1887.69,1890.26,1959.49,2120,2057.44,2197.44,2088.72,2072.31,1940,2056.41,2157.44,0
11_33_48,68,1921.54,2167.18,1930.26,1888.21,1889.23,1963.59,2121.03,2058.46,2202.56,2089.74,2073.33,1949.23,2060.51,2160.51,0
11_33_48,69,1923.08,2170.26,1931.28,1894.36,1886.67,1964.62,2123.08,2060,2201.03,2090.77,2078.46,1962.05,2064.62,2166.15,0
11_33_48,70,1929.74,2172.82,1932.82,1902.56,1895.38,1967.18,2127.18,2062.05,2203.08,2095.9,2083.59,1973.33,2068.72,2166.67,0
11_33_48,71,1934.87,2175.38,1933.85,1902.05,1903.08,1966.67,2130.26,2065.64,2206.67,2101.03,2083.59,1983.08,2072.31,2167.18,0
11_33_48,72,1932.82,2178.46,1938.46,1903.59,1902.05,1969.23,2132.82,2068.21,2205.64,2100,2082.05,1990.26,2073.85,2168.21,0
11_33_48,73,1933.85,2178.97,1947.18,1912.31,1905.13,1980,2136.92,2069.74,2207.18,2099.49,2083.59,1997.44,2073.85,2168.72,0
11_33_48,74,1941.03,2178.46,1949.74,1918.46,1913.33,1985.13,2136.41,2073.85,2209.74,2101.54,2086.67,2008.72,2074.36,2170.26,0
11_33_48,75,1949.23,2185.13,1948.72,1917.95,1916.41,1978.97,2133.33,2075.38,2208.21,2102.56,2089.23,2022.56,2080,2172.31,0
11_33_48,76,1952.31,2187.69,1956.92,1920.51,1916.41,1982.05,2140,2075.9,2211.79,2101.54,2090.26,2035.38,2083.59,2174.87,0
11_33_48,77,1949.74,2183.08,1962.56,1928.72,1916.92,1993.85,2149.74,2081.03,2219.49,2099.49,2092.31,2042.05,2084.1,2176.41,0
11_33_48,78,1954.36,2187.69,1962.05,1932.82,1918.97,1994.87,2150.26,2084.62,2220,2104.62,2097.44,2045.64,2086.15,2178.97,0
11_33_48,79,1963.59,2193.85,1964.62,1932.31,1926.15,1992.31,2150.26,2084.62,2218.97,2114.87,2100.51,2055.9,2088.21,2182.05,0
11_33_48,80,1963.59,2191.28,1966.67,1933.33,1932.82,1996.41,2152.31,2087.18,2220.51,2117.44,2100.51,2068.72,2089.74,2184.62,0
11_33_48,81,1962.05,2191.28,1965.13,1934.36,1932.82,2001.03,2151.79,2090.26,2221.54,2113.85,2103.08,2072.82,2089.23,2183.08,0
11_33_48,82,1966.15,2195.38,1968.21,1934.36,1933.33,1998.46,2153.33,2088.21,2221.54,2114.87,2105.64,2073.33,2092.82,2185.13,0
11_33_48,83,1967.69,2195.38,1976.92,1938.46,1938.97,1994.87,2152.82,2087.69,2221.03,2118.97,2106.15,2081.54,2098.97,2189.74,0
11_33_48,84,1970.26,2195.38,1980,1945.64,1943.08,2002.56,2152.31,2092.82,2221.03,2120,2110.77,2094.36,2101.03,2191.79,0
11_33_48,85,1977.95,2197.44,1979.49,1949.23,1944.1,2014.36,2160.51,2098.97,2227.18,2119.49,2115.9,2102.56,2102.05,2193.33,0
11_33_48,86,1980.51,2196.92,1981.54,1949.74,1948.72,2013.85,2167.18,2102.05,2229.23,2121.03,2115.9,2108.21,2103.59,2193.33,0
11_33_48,87,1980.51,2198.97,1984.1,1949.74,1950.77,2008.72,2166.67,2103.59,2225.64,2127.69,2115.9,2116.41,2105.13,2195.38,0
11_33_48,88,1983.59,2205.64,1982.56,1953.33,1949.23,2015.38,2167.18,2104.1,2231.79,2132.31,2117.44,2125.13,2105.13,2199.49,0
11_33_48,89,1982.56,2208.72,1984.62,1961.03,1953.85,2017.44,2168.21,2105.13,2238.97,2133.85,2119.49,2133.85,2105.64,2200,0
11_33_48,90,1983.08,2208.21,1992.31,1963.59,1962.56,2012.31,2165.64,2106.15,2236.41,2135.38,2120.51,2142.05,2110.26,2200,0
11_33_48,91,1990.77,2207.69,1997.44,1963.08,1964.1,2018.46,2163.08,2107.69,2234.87,2135.38,2121.54,2149.23,2116.92,2203.08,0
11_33_48,92,1996.41,2208.72,1997.95,1966.15,1964.62,2027.69,2164.62,2112.82,2238.46,2134.87,2126.15,2157.44,2121.03,2205.64,0
11_33_48,93,1994.36,2213.33,1996.92,1967.18,1965.64,2027.69,2168.21,2115.38,2237.44,2137.44,2132.82,2163.59,2118.97,2204.62,0
11_33_48,94,1995.9,2216.92,1997.95,1968.21,1965.64,2029.23,2169.74,2114.36,2237.44,2137.95,2131.79,2170.77,2120.51,2206.67,0
11_33_48,95,2005.13,2216.92,2001.54,1975.9,1970.26,2032.82,2169.74,2117.44,2240,2136.41,2128.72,2181.03,2127.18,2211.79,0
11_33_48,96,2007.69,2217.95,2006.15,1978.97,1977.44,2030.77,2171.28,2120.51,2239.49,2143.08,2134.36,2191.79,2126.67,2212.82,0
11_33_48,97,2001.03,2221.03,2008.21,1977.44,1981.03,2032.82,2175.38,2117.95,2241.03,2150.77,2137.95,2200.51,2125.64,2211.28,0
11_33_48,98,2004.1,2222.05,2010.26,1982.05,1982.05,2041.54,2182.05,2123.08,2249.74,2152.31,2136.41,2205.13,2130.77,2217.44,0
11_33_48,99,2012.82,2222.56,2012.82,1983.59,1981.03,2043.59,2186.15,2132.31,2254.87,2150.77,2142.05,2210.26,2133.33,2224.1,0
11_33_48,100,2013.85,2222.05,2014.36,1980.51,1983.59,2043.08,2185.13,2131.79,2252.82,2150.77,2150.26,2220.51,2132.82,2221.54,0
11_33_48,101,2015.9,2224.62,2013.85,1987.18,1991.28,2047.18,2184.1,2130.77,2252.82,2152.82,2147.18,2226.67,2135.9,2218.97,0
11_33_48,102,2020,2227.18,2015.38,1995.9,1996.41,2046.67,2186.15,2136.92,2254.36,2152.82,2145.13,2227.18,2135.9,2221.54,0
11_33_48,103,2020,2223.59,2021.03,1995.9,1996.41,2046.67,2185.13,2137.44,2254.87,2152.31,2150.77,2229.74,2136.41,2223.08,0
11_33_48,104,2023.59,2227.69,2026.15,1996.41,1999.49,2053.85,2189.74,2135.38,2253.33,2156.41,2152.82,2238.97,2144.62,2222.56,0
11_33_48,105,2028.21,2238.97,2028.72,1998.97,2002.56,2056.92,2198.97,2138.46,2255.38,2164.62,2153.33,2246.67,2147.18,2225.64,0
11_33_48,106,2027.69,2239.49,2028.21,1998.97,1998.97,2055.9,2202.56,2138.46,2261.03,2169.23,2158.97,2257.95,2146.67,2231.28,0
11_33_48,107,2031.79,2236.92,2031.79,2003.59,2001.03,2062.05,2200,2139.49,2260,2168.21,2162.56,2268.21,2152.31,2234.36,0
11_33_48,108,2038.97,2241.03,2039.49,2013.33,2010.77,2067.69,2200.51,2148.21,2258.97,2166.67,2158.97,2273.33,2152.82,2234.36,0
11_33_48,109,2042.05,2243.59,2043.59,2016.41,2016.41,2067.18,2204.62,2153.85,2268.21,2168.21,2158.46,2278.97,2151.79,2237.95,0
11_33_48,110,2042.05,2245.13,2044.62,2013.33,2013.85,2070.26,2207.18,2153.33,2273.33,2170.26,2165.64,2287.69,2157.44,2239.49,0
11_33_48,111,2041.54,2249.74,2046.67,2018.46,2013.85,2074.87,2205.64,2151.79,2270.26,2168.72,2170.26,2301.54,2161.54,2238.46,0
11_33_48,112,2047.18,2251.28,2046.67,2029.23,2020.51,2076.92,2209.74,2151.79,2268.72,2172.31,2169.23,2316.92,2162.05,2239.49,0
11_33_48,113,2054.87,2251.28,2049.23,2032.82,2025.13,2081.54,2217.44,2157.44,2270.77,2182.56,2167.18,2320.51,2166.67,2239.49,0
11_33_48,114,2056.41,2253.33,2057.44,2030.77,2025.64,2086.15,2221.54,2161.03,2273.33,2186.67,2169.23,2314.87,2168.72,2243.59,0
11_33_48,115,2057.44,2254.36,2062.05,2030.77,2028.72,2086.67,2221.03,2159.49,2272.31,2183.59,2176.92,2326.15,2167.69,2252.31,0
11_33_48,116,2058.97,2254.36,2060.51,2030.77,2030.77,2088.72,2221.54,2164.1,2268.72,2182.56,2185.13,2346.15,2167.69,2253.85,0
11_33_48,117,2058.46,2253.85,2061.03,2035.38,2030.26,2088.72,2222.56,2170.26,2275.38,2185.13,2185.13,2345.64,2167.18,2251.79,0
11_33_48,118,2062.56,2257.44,2068.21,2042.56,2035.38,2087.18,2222.56,2169.23,2286.15,2189.23,2183.08,2341.54,2171.79,2253.33,0
11_33_48,119,2068.72,2261.03,2073.85,2043.59,2042.05,2093.33,2222.05,2168.21,2286.15,2190.77,2186.15,2354.87,2177.44,2254.36,0
11_33_48,120,2068.72,2262.05,2072.31,2045.13,2043.59,2100,2223.08,2171.28,2282.56,2189.23,2186.67,2365.13,2175.9,2254.87,0
11_33_48,121,2069.74,2261.54,2072.82,2047.69,2045.64,2098.46,2223.08,2173.33,2285.64,2193.85,2184.62,2368.21,2178.97,2252.31,0
11_33_48,122,2074.36,2262.56,2076.92,2045.64,2046.15,2098.97,2221.03,2174.36,2288.21,2200.51,2191.28,2375.9,2187.18,2254.36,0
11_33_48,123,2076.41,2266.15,2078.46,2049.74,2046.15,2103.08,2226.67,2177.44,2287.18,2200,2202.56,2383.08,2184.62,2261.54,0
11_33_48,124,2078.97,2268.72,2079.49,2058.97,2053.33,2104.1,2237.44,2182.56,2287.69,2200.51,2202.05,2387.69,2181.54,2260.51,0
11_33_48,125,2080.51,2269.23,2082.56,2058.46,2060.51,2107.18,2238.46,2184.62,2288.72,2205.13,2197.95,2393.33,2186.67,2259.49,0
11_33_48,126,2082.05,2270.77,2086.67,2057.44,2061.03,2114.36,2235.38,2184.1,2286.67,2207.18,2201.54,2398.97,2191.79,2266.67,0
11_33_48,127,2086.15,2271.28,2088.72,2062.56,2064.1,2115.38,2236.92,2184.62,2288.21,2206.67,2206.15,2405.64,2195.38,2269.74,0
11_33_48,128,2087.69,2271.28,2087.69,2064.1,2067.69,2114.36,2238.46,2185.64,2298.97,2205.13,2207.18,2414.87,2195.9,2268.21,0
11_33_48,0,2087.18,2276.41,2091.79,2064.62,2069.23,2118.46,2237.95,2187.69,2304.1,2208.72,2206.67,2422.56,2196.92,2270.77,0
11_33_48,1,2088.72,2277.95,2098.97,2070.26,2070.26,2121.54,2237.44,2196.41,2300.51,2216.41,2204.62,2428.72,2204.1,2272.31,0
11_33_48,2,2092.31,2275.9,2099.49,2072.31,2073.85,2122.05,2241.03,2200.51,2301.03,2218.97,2210.77,2436.92,2207.69,2270.26,0
11_33_48,3,2094.87,2282.56,2097.95,2072.31,2079.49,2121.03,2244.62,2197.95,2304.62,2218.46,2222.56,2443.59,2203.08,2271.28,0
11_33_48,4,2097.44,2286.67,2102.05,2074.87,2078.97,2123.08,2246.15,2198.97,2303.08,2221.03,2223.59,2448.21,2201.54,2274.87,0
11_33_48,5,2103.08,2284.62,2106.15,2078.46,2077.44,2128.21,2248.72,2201.03,2302.05,2223.08,2219.49,2451.79,2204.62,2275.9,0
11_33_48,6,2106.15,2285.64,2107.18,2081.03,2083.59,2131.28,2253.33,2201.54,2304.62,2221.03,2221.03,2455.9,2209.74,2274.87,0
11_33_48,7,2104.62,2285.64,2107.18,2082.05,2088.21,2131.79,2252.31,2204.62,2302.05,2224.62,2223.59,2459.49,2212.31,2281.03,0
11_33_48,8,2107.69,2288.72,2108.72,2084.1,2086.67,2135.9,2252.31,2206.67,2303.08,2232.82,2223.08,2464.1,2212.31,2288.21,0
11_33_48,9,2112.82,2293.33,2115.38,2086.15,2093.85,2137.44,2253.85,2207.18,2313.85,2237.95,2220.51,2473.33,2217.44,2285.64,0
11_33_48,10,2108.72,2291.79,2120.51,2088.21,2101.03,2135.9,2252.82,2214.36,2321.54,2237.95,2223.08,2485.13,2223.08,2285.64,0
11_33_48,11,2109.23,2293.85,2120,2093.85,2098.46,2140,2260.51,2218.46,2318.46,2235.9,2233.85,2494.36,2221.54,2286.15,0
11_33_48,12,2118.46,2298.46,2120,2101.54,2098.97,2148.21,2270.77,2215.9,2316.92,2235.9,2238.97,2499.49,2220.51,2286.15,0
11_33_48,13,2121.54,2299.49,2127.18,2100.51,2103.08,2151.28,2270.26,2217.44,2318.46,2237.95,2235.9,2504.62,2221.54,2294.36,0
11_33_48,14,2120.51,2302.05,2134.36,2100.51,2104.1,2153.33,2267.69,2221.03,2319.49,2239.49,2235.9,2510.77,2223.08,2300.51,0
11_33_48,15,2125.64,2302.05,2135.9,2110.26,2109.23,2152.82,2269.23,2222.05,2318.97,2238.46,2240.51,2520,2228.21,2298.46,0
11_33_48,16,2129.23,2301.03,2135.38,2116.41,2115.9,2151.28,2271.28,2223.08,2317.44,2243.08,2239.49,2528.72,2231.79,2298.46,0
11_33_48,17,2131.79,2306.15,2135.9,2115.38,2113.85,2155.38,2271.28,2224.1,2323.59,2252.82,2235.9,2531.79,2233.33,2300,0
11_33_48,18,2136.92,2308.72,2137.95,2115.9,2113.33,2161.03,2272.31,2229.23,2333.33,2254.87,2242.56,2534.87,2237.44,2302.56,0
11_33_48,19,2140,2307.18,2144.1,2118.46,2119.49,2162.56,2271.79,2236.41,2333.85,2251.79,2254.36,2545.13,2237.44,2303.59,0
11_33_48,20,2140,2311.28,2150.26,2120.51,2121.54,2167.18,2271.79,2238.46,2332.31,2253.33,2255.9,2554.36,2237.95,2301.03,0
11_33_48,21,2141.03,2314.36,2151.28,2120,2119.49,2169.74,2278.97,2236.92,2334.36,2254.36,2252.31,2554.36,2238.97,2305.13,0
11_33_48,22,2143.08,2314.87,2151.79,2120,2121.03,2167.69,2285.64,2235.9,2334.87,2252.82,2253.85,2560,2237.95,2314.87,0
11_33_48,23,2146.67,2315.9,2153.33,2126.67,2126.67,2170.26,2286.15,2237.44,2335.38,2255.38,2256.41,2570.77,2244.1,2316.41,0
11_33_48,24,2147.69,2317.95,2152.82,2135.9,2133.33,2172.82,2285.64,2238.46,2336.92,2254.87,2256.92,2576.41,2253.33,2313.33,0
11_33_48,25,2149.74,2316.92,2157.44,2137.44,2135.9,2170.26,2287.69,2238.46,2334.87,2253.33,2255.38,2581.03,2251.79,2315.38,0
11_33_48,26,2155.38,2318.46,2166.15,2134.87,2136.41,2176.41,2287.18,2243.59,2335.38,2262.05,2257.44,2588.72,2250.77,2318.97,0
11_33_48,27,2156.41,2321.03,2169.23,2134.87,2136.92,2184.62,2287.18,2252.82,2337.44,2271.28,2267.69,2592.31,2254.87,2318.97,0
11_33_48,28,2153.33,2319.49,2166.67,2136.92,2137.44,2184.1,2285.64,2253.85,2335.38,2270.26,2275.38,2593.85,2255.38,2318.46,0
11_33_48,29,2155.9,2322.05,2166.67,2136.92,2140.51,2183.59,2286.67,2252.31,2337.44,2266.67,2267.69,2598.97,2254.87,2319.49,0
11_33_48,30,2161.03,2329.23,2170.26,2139.49,2146.15,2184.1,2294.87,2254.36,2347.18,2268.72,2263.08,2605.64,2253.85,2316.41,0
11_33_48,31,2163.59,2329.74,2168.21,2147.18,2150.26,2186.15,2299.49,2255.38,2351.79,2271.79,2275.38,2615.9,2253.85,2319.49,0
11_33_48,32,2165.64,2328.72,2167.18,2152.82,2151.28,2193.85,2298.97,2254.87,2348.72,2271.79,2282.05,2623.59,2263.08,2327.18,0
11_33_48,33,2168.72,2332.82,2174.36,2152.31,2152.82,2193.85,2301.03,2254.36,2350.26,2270.26,2271.28,2623.08,2269.23,2326.67,0
11_33_48,34,2170.26,2333.85,2182.56,2152.31,2152.82,2191.28,2302.56,2258.97,2351.79,2274.36,2268.21,2630.77,2267.69,2326.15,0
11_33_48,35,2170.77,2333.33,2185.13,2152.82,2152.31,2199.49,2302.56,2267.18,2349.23,2285.13,2282.56,2640.51,2270.77,2331.28,0
11_33_48,36,2172.31,2333.33,2184.1,2151.79,2159.49,2202.56,2302.05,2269.74,2349.74,2287.18,2289.23,2636.41,2270.26,2332.82,0
11_33_48,37,2176.41,2333.33,2184.1,2155.38,2168.21,2200,2303.08,2268.21,2352.82,2284.1,2285.13,2637.95,2267.69,2332.82,0
11_33_48,38,2179.49,2340,2186.67,2161.54,2168.72,2205.13,2303.59,2270.26,2353.33,2285.13,2283.59,2651.28,2277.44,2335.38,0
11_33_48,39,2180,2344.1,2191.79,2166.15,2165.64,2207.69,2305.13,2270.26,2351.79,2286.15,2289.74,2660,2281.03,2336.41,0
11_33_48,40,2181.54,2341.54,2192.31,2167.69,2168.72,2205.13,2310.77,2270.26,2354.87,2286.67,2296.92,2665.13,2275.9,2335.9,0
11_33_48,41,2187.18,2345.13,2193.33,2169.23,2172.31,2212.82,2318.97,2272.31,2363.59,2286.67,2291.28,2669.74,2282.05,2334.87,0
11_33_48,42,2193.33,2350.26,2200.51,2172.31,2174.87,2219.49,2320.51,2270.77,2368.21,2287.18,2286.67,2671.28,2290.26,2336.92,0
11_33_48,43,2192.82,2349.74,2205.64,2178.97,2181.03,2215.38,2317.95,2275.38,2366.67,2294.87,2296.92,2677.95,2286.67,2344.1,0
11_33_48,44,2191.79,2349.23,2204.62,2185.13,2184.1,2214.87,2318.97,2284.62,2366.67,2302.05,2304.1,2692.31,2284.62,2346.67,0
11_33_48,45,2202.05,2351.79,2206.67,2185.13,2183.08,2218.97,2320,2286.67,2368.72,2301.54,2303.08,2702.56,2288.21,2348.21,0
11_33_48,46,2210.77,2353.85,2209.74,2183.08,2183.59,2222.56,2321.03,2285.13,2368.72,2302.05,2303.08,2702.56,2287.18,2351.79,0
11_33_48,47,2206.15,2352.31,2207.18,2185.64,2184.62,2221.54,2320,2286.67,2367.18,2305.13,2303.59,2704.1,2288.21,2351.79,0
11_33_49,48,2206.67,2352.31,2209.74,2191.28,2189.74,2222.05,2321.54,2288.21,2368.72,2306.15,2309.74,2712.82,2294.87,2350.77,0
11_33_49,49,2212.31,2358.46,2219.49,2190.77,2195.38,2231.28,2330.77,2286.15,2374.87,2304.1,2318.97,2721.54,2302.05,2352.82,0
11_33_49,50,2211.28,2364.1,2222.05,2188.21,2197.95,2240,2336.92,2286.67,2378.97,2303.08,2317.95,2717.44,2302.56,2354.36,0
11_33_49,51,2212.82,2362.56,2219.49,2194.87,2199.49,2236.41,2334.36,2293.85,2380.51,2309.23,2315.9,2716.92,2300,2351.28,0
11_33_49,52,2218.46,2362.05,2221.54,2201.54,2201.03,2235.38,2334.36,2301.54,2381.54,2318.46,2318.97,2730.26,2304.1,2353.33,0
11_33_49,53,2218.97,2364.1,2222.05,2201.03,2200,2242.05,2335.38,2302.05,2382.05,2318.46,2317.95,2738.97,2303.59,2363.08,0
11_33_49,54,2220,2365.64,2224.1,2202.56,2203.08,2240.51,2334.36,2302.05,2382.56,2316.92,2316.92,2738.46,2301.03,2366.15,0
11_33_49,55,2221.03,2366.67,2235.38,2207.18,2207.18,2238.97,2334.87,2303.59,2383.08,2318.97,2320.51,2744.62,2307.69,2363.08,0
11_33_49,56,2220.51,2367.18,2235.9,2206.15,2205.13,2248.21,2337.95,2303.59,2385.13,2319.49,2320.51,2754.36,2310.26,2364.62,0
11_33_49,57,2226.15,2368.21,2227.69,2206.15,2209.23,2253.85,2336.92,2302.56,2388.72,2320,2319.49,2755.9,2309.74,2366.67,0
11_33_49,58,2227.69,2369.74,2231.28,2214.87,2220,2252.31,2334.87,2302.05,2389.74,2319.49,2326.15,2758.46,2315.38,2366.67,0
11_33_49,59,2226.67,2368.21,2237.44,2216.92,2222.05,2251.28,2340,2305.13,2388.72,2319.49,2334.36,2765.64,2318.97,2367.18,0
11_33_49,60,2233.85,2368.72,2235.9,2214.87,2221.03,2250.26,2349.23,2313.85,2392.31,2328.21,2335.9,2767.69,2316.92,2368.72,0
11_33_49,61,2238.46,2373.33,2237.44,2217.95,2224.1,2250.26,2351.28,2316.41,2394.87,2335.9,2333.33,2768.72,2318.46,2368.21,0
11_33_49,62,2234.87,2378.97,2238.46,2223.08,2223.59,2253.33,2347.18,2315.38,2394.87,2333.85,2333.85,2775.38,2321.54,2367.69,0
11_33_49,63,2239.49,2381.54,2240.51,2222.56,2220.51,2256.41,2348.72,2318.46,2395.9,2332.82,2335.9,2783.59,2318.46,2372.82,0
11_33_49,64,2242.56,2381.54,2248.72,2219.49,2226.15,2254.87,2351.28,2318.97,2397.44,2335.38,2337.44,2788.21,2320,2380.51,0
11_33_49,65,2240,2382.05,2253.85,2226.15,2235.38,2256.41,2349.23,2318.46,2398.46,2335.9,2336.41,2793.85,2326.67,2380.51,0
11_33_49,66,2245.64,2383.08,2252.31,2236.41,2237.95,2265.64,2352.82,2320.51,2401.03,2336.41,2337.44,2803.08,2333.33,2378.97,0
11_33_49,67,2251.28,2382.56,2252.82,2237.95,2237.44,2271.28,2362.05,2319.49,2405.13,2336.41,2345.64,2806.67,2334.87,2383.08,0
11_33_49,68,2251.28,2384.1,2254.36,2236.92,2238.46,2269.74,2366.67,2323.08,2407.18,2339.49,2351.28,2808.21,2334.36,2384.62,0
11_33_49,69,2255.9,2389.74,2261.03,2239.49,2240.51,2270.26,2365.13,2333.33,2408.72,2347.69,2351.28,2813.85,2334.87,2384.62,0
11_33_49,70,2257.44,2395.9,2270.26,2238.46,2240.51,2273.33,2365.64,2335.9,2409.74,2351.79,2352.82,2820.51,2334.87,2387.69,0
11_33_49,71,2256.41,2395.38,2270.77,2241.03,2238.97,2269.74,2369.23,2333.85,2411.28,2350.26,2353.85,2827.69,2335.9,2390.26,0
11_33_49,72,2262.05,2394.87,2267.69,2251.28,2245.13,2274.36,2367.69,2334.87,2411.79,2350.26,2353.85,2834.36,2335.38,2391.79,0
11_33_49,73,2265.64,2398.97,2269.23,2254.36,2254.36,2286.15,2367.18,2335.38,2411.79,2351.79,2360.51,2837.44,2336.41,2393.33,0
11_33_49,74,2263.59,2399.49,2270.77,2251.28,2254.87,2287.18,2372.31,2334.36,2413.85,2352.31,2367.18,2841.03,2345.13,2395.38,0
11_33_49,75,2269.74,2396.41,2271.28,2252.82,2252.31,2284.62,2373.85,2337.44,2418.46,2352.82,2366.67,2847.18,2351.28,2397.44,0
11_33_49,76,2273.33,2398.46,2269.74,2253.85,2255.9,2286.15,2372.82,2338.46,2421.54,2351.79,2365.64,2849.74,2349.74,2398.46,0
11_33_49,77,2268.72,2403.59,2269.74,2254.36,2254.87,2287.69,2377.44,2335.38,2421.03,2351.79,2368.21,2854.36,2350.77,2398.46,0
11_33_49,78,2272.31,2406.67,2279.49,2254.36,2252.82,2287.69,2381.54,2338.46,2420,2361.03,2368.21,2865.13,2353.33,2401.03,0
11_33_49,79,2279.49,2409.74,2288.21,2254.36,2263.59,2287.18,2378.46,2348.21,2421.03,2368.21,2366.15,2869.23,2349.74,2404.1,0
11_33_49,80,2279.49,2412.31,2286.15,2261.03,2272.31,2289.74,2377.95,2353.33,2422.56,2366.15,2369.23,2864.1,2349.23,2405.13,0
11_33_49,81,2276.92,2410.77,2285.64,2269.74,2269.23,2297.44,2382.56,2350.26,2424.62,2364.62,2374.87,2867.69,2356.41,2408.21,0
11_33_49,82,2276.92,2408.72,2288.21,2269.23,2269.23,2302.56,2383.08,2349.74,2426.15,2368.21,2373.33,2880,2360.51,2412.31,0
11_33_49,83,2282.56,2410.77,2289.74,2268.21,2272.31,2301.54,2382.05,2351.28,2425.64,2368.21,2373.85,2881.03,2357.44,2409.23,0
11_33_49,84,2287.69,2414.36,2287.69,2271.79,2271.28,2301.03,2384.1,2351.79,2428.21,2367.69,2381.03,2880,2357.44,2406.15,0
11_33_49,85,2285.64,2413.85,2286.15,2270.77,2276.41,2303.59,2387.18,2353.33,2433.33,2371.79,2384.1,2892.82,2365.64,2414.36,0
11_33_49,86,2287.18,2415.9,2292.82,2269.23,2284.1,2305.13,2388.21,2357.44,2433.85,2374.87,2383.59,2900,2369.74,2421.03,0
11_33_49,87,2294.87,2422.56,2303.08,2277.95,2284.62,2303.08,2390.77,2364.62,2432.82,2373.33,2388.72,2897.95,2366.67,2418.97,0
11_33_49,88,2294.36,2423.59,2303.59,2286.67,2285.13,2303.59,2394.87,2367.69,2435.38,2373.85,2390.77,2904.62,2366.15,2418.97,0
11_33_49,89,2294.36,2421.03,2301.54,2287.69,2286.15,2313.33,2397.95,2364.62,2438.46,2378.97,2388.21,2914.36,2368.21,2421.03,0
11_33_49,90,2302.05,2423.59,2305.64,2284.62,2284.62,2320.51,2402.05,2365.64,2440,2383.59,2393.85,2912.31,2369.74,2420,0
11_33_49,91,2304.1,2428.72,2304.62,2286.15,2287.18,2317.95,2404.62,2368.72,2441.54,2384.1,2398.46,2914.87,2373.33,2423.59,0
11_33_49,92,2302.56,2428.72,2304.62,2287.69,2288.72,2317.44,2405.13,2368.21,2441.03,2383.08,2396.92,2927.69,2377.44,2428.21,0
11_33_49,93,2304.1,2430.26,2314.87,2286.67,2286.15,2320,2407.18,2372.31,2441.03,2384.62,2402.05,2933.33,2381.03,2427.69,0
11_33_49,94,2305.13,2434.87,2321.03,2292.31,2293.33,2320.51,2408.72,2380.51,2446.67,2388.21,2407.18,2933.33,2382.56,2425.64,0
11_33_49,95,2308.21,2435.38,2318.46,2301.03,2302.56,2320.51,2407.69,2378.97,2451.28,2393.85,2403.59,2938.97,2382.56,2429.23,0
11_33_49,96,2316.92,2434.36,2317.44,2303.08,2302.05,2319.49,2408.72,2375.38,2450.26,2397.95,2404.62,2945.64,2385.64,2432.82,0
11_33_49,97,2317.95,2436.41,2318.46,2300.51,2300,2324.1,2411.28,2378.97,2449.23,2398.46,2408.72,2945.64,2391.28,2433.85,0
11_33_49,98,2315.9,2436.41,2318.97,2301.03,2304.1,2333.85,2412.82,2383.59,2454.87,2397.44,2406.15,2948.21,2390.26,2434.87,0
11_33_49,99,2318.46,2436.92,2318.97,2303.08,2304.62,2336.92,2413.33,2384.62,2460,2397.44,2407.18,2956.41,2389.23,2435.9,0
11_33_49,100,2318.46,2441.03,2320.51,2303.59,2302.56,2332.31,2415.9,2383.08,2458.97,2401.03,2414.87,2960.51,2391.79,2439.49,0
11_33_49,101,2321.03,2444.1,2329.23,2302.05,2310.26,2333.85,2419.49,2383.08,2457.95,2404.62,2413.85,2958.97,2394.87,2442.05,0
11_33_49,102,2323.59,2444.62,2336.41,2303.08,2319.49,2336.92,2420.51,2386.67,2458.46,2405.64,2409.74,2962.05,2398.97,2441.54,0
11_33_49,103,2323.59,2444.1,2334.87,2313.33,2319.49,2335.38,2417.95,2389.74,2457.95,2404.62,2416.92,2969.23,2401.03,2442.05,0
11_33_49,104,2326.67,2446.15,2333.33,2319.49,2316.92,2340.51,2420,2389.74,2457.44,2404.1,2423.08,2974.87,2397.44,2444.62,0
11_33_49,105,2331.79,2449.74,2336.41,2317.44,2318.97,2348.72,2426.67,2392.82,2460.51,2406.67,2421.54,2980,2396.92,2444.62,0
11_33_49,106,2332.82,2450.77,2336.92,2318.46,2320.51,2350.26,2427.69,2397.44,2464.62,2410.77,2423.59,2987.18,2402.05,2446.67,0
11_33_49,107,2335.38,2450.26,2336.41,2321.54,2321.03,2349.23,2426.67,2400,2466.15,2411.79,2426.67,2991.79,2405.64,2452.82,0
11_33_49,108,2335.38,2452.82,2341.03,2320,2320.51,2350.77,2431.79,2402.05,2466.67,2412.82,2427.18,2991.79,2407.69,2451.79,0
11_33_49,109,2333.85,2456.41,2348.21,2317.95,2321.03,2353.85,2434.36,2402.56,2466.67,2419.49,2431.79,2995.9,2410.77,2450.77,0
11_33_49,110,2342.05,2457.44,2351.79,2321.03,2328.72,2353.33,2431.79,2402.05,2469.23,2425.13,2436.92,3004.62,2411.79,2456.41,0
11_33_49,111,2346.15,2458.46,2350.77,2329.74,2335.9,2351.79,2433.85,2404.1,2473.85,2424.62,2436.92,3011.79,2412.82,2457.95,0
11_33_49,112,2343.08,2462.05,2351.28,2336.41,2334.36,2355.38,2438.97,2407.18,2475.9,2423.08,2435.38,3012.82,2415.9,2453.85,0
11_33_49,113,2348.21,2468.72,2352.31,2335.38,2333.85,2361.54,2440.51,2408.72,2472.82,2424.62,2436.41,3013.33,2418.97,2455.9,0
11_33_49,114,2352.31,2469.23,2351.28,2332.82,2336.92,2364.1,2441.54,2411.28,2473.85,2424.1,2440,3014.87,2418.46,2462.56,0
11_33_49,115,2351.28,2466.15,2351.79,2335.9,2334.36,2364.1,2441.54,2413.33,2481.03,2423.08,2443.08,3020,2420,2461.54,0
11_33_49,116,2350.77,2466.67,2354.36,2337.44,2337.95,2365.13,2440.51,2413.33,2484.62,2427.69,2441.54,3027.18,2426.15,2460.51,0
11_33_49,117,2349.74,2468.72,2360,2334.87,2348.72,2366.67,2444.62,2416.41,2483.08,2435.38,2442.56,3029.74,2428.21,2465.13,0
11_33_49,118,2354.36,2468.21,2366.15,2338.46,2350.77,2368.21,2449.74,2420,2481.54,2438.46,2448.21,3031.28,2426.67,2470.26,0
11_33_49,119,2361.03,2467.69,2368.21,2349.74,2349.23,2367.69,2450.77,2420,2486.67,2436.41,2450.26,3039.49,2426.67,2470.26,0
11_33_49,120,2360,2470.77,2366.67,2353.85,2351.28,2369.74,2451.79,2421.03,2490.77,2435.9,2452.31,3047.18,2429.23,2468.72,0
11_33_49,121,2361.54,2472.82,2367.18,2349.74,2352.82,2378.46,2454.36,2425.13,2488.72,2438.97,2456.92,3044.62,2431.79,2471.79,0
11_33_49,122,2368.72,2474.36,2370.77,2350.26,2352.82,2381.54,2454.36,2426.67,2487.18,2442.05,2457.44,3045.64,2433.85,2474.87,0
11_33_49,123,2366.67,2478.97,2374.87,2353.85,2352.82,2379.49,2454.87,2426.15,2489.74,2441.54,2455.9,3054.87,2434.87,2472.31,0
11_33_49,124,2365.13,2483.59,2378.97,2351.79,2354.36,2382.56,2458.46,2428.72,2491.79,2440.51,2458.97,3061.03,2435.38,2472.31,0
11_33_49,125,2366.67,2482.56,2382.05,2351.79,2362.56,2383.59,2458.46,2431.79,2489.74,2445.64,2459.49,3066.15,2438.46,2480.51,0
11_33_49,126,2365.13,2481.54,2382.56,2356.92,2369.74,2383.08,2456.41,2435.38,2490.77,2452.31,2459.49,3070.77,2443.59,2485.13,0
11_33_49,127,2371.79,2483.59,2383.59,2362.05,2368.21,2386.67,2460.51,2436.92,2496.41,2454.36,2465.13,3070.26,2444.1,2482.05,0
11_33_49,128,2378.97,2486.67,2383.59,2364.62,2366.67,2386.67,2466.15,2435.9,2499.49,2453.85,2468.21,3070.77,2442.56,2483.59,0
11_33_49,0,2377.95,2487.18,2382.56,2367.18,2368.21,2386.15,2467.18,2439.49,2500.51,2453.33,2467.69,3078.97,2446.67,2484.62,0
11_33_49,1,2379.49,2486.67,2384.1,2368.72,2368.21,2392.31,2465.64,2442.05,2505.13,2454.87,2471.79,3082.05,2450.26,2483.08,0
11_33_49,2,2383.59,2489.23,2386.67,2368.72,2368.72,2397.44,2466.15,2443.59,2506.67,2458.46,2474.36,3082.05,2450.77,2485.64,0
11_33_49,3,2383.08,2492.31,2392.31,2372.31,2371.28,2397.44,2468.21,2447.69,2504.1,2460,2472.82,3090.26,2451.28,2488.21,0
11_33_49,4,2383.08,2493.85,2395.38,2377.44,2378.97,2397.95,2469.23,2447.69,2505.64,2460,2476.92,3095.38,2451.79,2487.69,0
11_33_49,5,2383.59,2496.41,2394.36,2377.95,2383.59,2402.05,2471.79,2445.13,2507.18,2464.1,2483.59,3094.87,2455.38,2487.18,0
11_33_49,6,2386.67,2496.41,2398.46,2378.46,2382.05,2405.64,2474.87,2449.23,2506.15,2466.67,2484.1,3100.51,2459.49,2492.31,0
11_33_49,7,2393.85,2496.92,2403.59,2383.08,2385.13,2405.13,2473.33,2453.33,2511.79,2465.64,2483.59,3110.26,2458.97,2498.97,0
11_33_49,8,2396.41,2499.49,2403.59,2386.15,2391.28,2403.59,2473.33,2452.31,2517.44,2465.13,2483.59,3112.82,2460.51,2500.51,0
11_33_49,9,2395.9,2500.51,2403.08,2383.59,2389.74,2407.69,2478.46,2453.85,2516.41,2467.69,2484.1,3112.82,2464.1,2498.46,0
11_33_49,10,2398.46,2501.03,2404.62,2384.62,2387.69,2412.31,2483.08,2458.46,2516.92,2470.77,2486.15,3115.9,2462.56,2498.46,0
11_33_49,11,2397.95,2503.08,2405.64,2388.72,2392.31,2412.31,2484.62,2457.95,2516.92,2473.33,2489.23,3122.56,2462.05,2504.1,0
11_33_49,12,2398.46,2504.1,2407.18,2389.23,2395.9,2412.82,2483.08,2457.44,2515.38,2472.82,2489.23,3129.23,2467.18,2507.69,0
11_33_49,13,2403.08,2506.67,2407.18,2389.74,2396.92,2417.95,2483.08,2461.54,2518.97,2471.79,2490.26,3130.77,2470.26,2504.62,0
11_33_49,14,2408.21,2510.26,2408.72,2395.38,2396.92,2421.03,2488.21,2467.18,2524.62,2475.9,2495.38,3130.77,2468.72,2505.64,0
11_33_49,15,2411.28,2511.28,2417.44,2398.97,2398.46,2419.49,2490.77,2467.18,2523.08,2481.03,2499.49,3136.41,2468.72,2511.79,0
11_33_49,16,2411.28,2510.26,2421.54,2396.92,2404.1,2422.56,2489.23,2468.21,2520.51,2481.54,2499.49,3142.05,2472.82,2509.74,0
11_33_49,17,2413.33,2511.28,2418.97,2396.92,2405.64,2427.69,2488.21,2470.77,2526.67,2482.56,2498.97,3141.54,2475.9,2506.67,0
11_33_49,18,2417.44,2513.85,2420.51,2402.05,2403.08,2426.15,2490.77,2469.74,2529.23,2484.62,2501.03,3143.59,2473.85,2511.79,0
11_33_49,19,2415.38,2515.38,2425.64,2405.13,2407.69,2425.13,2494.36,2471.79,2527.69,2486.67,2504.1,3152.31,2476.92,2516.41,0
11_33_49,20,2412.82,2513.85,2427.18,2406.15,2413.33,2427.18,2498.46,2474.36,2530.26,2488.72,2506.67,3158.46,2483.08,2516.92,0
11_33_49,21,2416.92,2517.95,2424.62,2410.26,2412.31,2429.23,2499.49,2474.87,2531.79,2490.26,2505.64,3157.95,2483.08,2519.49,0
11_33_49,22,2420,2523.08,2426.67,2413.85,2411.79,2433.85,2498.46,2477.44,2528.72,2489.74,2507.69,3157.95,2481.54,2521.03,0
11_33_49,23,2422.56,2524.1,2432.31,2412.31,2414.36,2436.41,2498.97,2481.54,2533.33,2489.23,2513.33,3166.67,2485.13,2521.03,0
11_33_49,24,2424.62,2525.13,2435.9,2415.38,2418.46,2435.38,2502.05,2482.56,2540,2487.69,2514.87,3175.38,2488.72,2524.62,0
11_33_49,25,2426.15,2523.59,2438.46,2421.54,2421.03,2438.97,2505.64,2481.54,2538.97,2489.74,2513.85,3171.79,2487.69,2528.72,0
11_33_49,26,2429.74,2523.59,2441.03,2420.51,2421.03,2444.1,2506.67,2482.56,2539.49,2496.92,2516.41,3170.77,2486.67,2529.74,0
11_33_49,27,2433.33,2529.23,2441.03,2420.51,2423.08,2441.03,2505.64,2487.69,2543.59,2498.46,2520,3182.56,2491.28,2526.67,0
11_33_49,28,2432.82,2530.77,2442.05,2425.13,2425.64,2440,2506.15,2490.26,2545.13,2500,2521.54,3190.77,2497.44,2524.62,0
11_33_49,29,2435.9,2530.77,2443.59,2426.67,2426.67,2447.18,2507.69,2489.74,2544.62,2506.15,2524.1,3185.64,2498.46,2529.23,0
11_33_49,30,2437.95,2532.82,2444.62,2425.13,2429.74,2453.85,2511.28,2492.31,2544.62,2506.67,2527.18,3186.15,2497.95,2533.33,0
11_33_49,31,2437.95,2533.33,2448.21,2426.15,2430.77,2453.33,2514.87,2492.82,2546.67,2504.1,2528.72,3196.92,2499.49,2534.36,0
11_33_49,32,2441.54,2534.36,2451.79,2428.21,2430.77,2450.77,2514.36,2491.28,2550.26,2504.1,2530.77,3205.13,2499.49,2535.9,0
11_33_49,33,2444.62,2538.97,2453.33,2431.79,2435.38,2453.33,2512.31,2495.9,2549.23,2504.62,2530.26,3205.13,2499.49,2536.41,0
11_33_49,34,2444.62,2539.49,2455.9,2436.41,2438.97,2456.92,2517.95,2501.54,2550.26,2508.72,2529.74,3203.08,2503.08,2536.92,0
11_33_49,35,2446.67,2536.92,2458.46,2437.95,2440,2457.95,2525.13,2500,2557.44,2514.36,2531.79,3208.21,2506.15,2539.49,0
11_33_49,36,2448.72,2537.44,2456.92,2438.46,2442.05,2457.95,2524.1,2497.95,2558.97,2514.36,2532.31,3217.95,2506.67,2543.08,0
11_33_49,37,2450.77,2543.08,2456.92,2441.54,2441.54,2458.46,2524.1,2502.56,2557.44,2517.95,2531.79,3221.54,2509.23,2543.08,0
11_33_49,38,2453.85,2547.18,2462.56,2442.56,2442.56,2462.05,2528.72,2506.15,2558.97,2524.1,2536.92,3217.95,2511.79,2542.56,0
11_33_49,39,2454.36,2546.15,2467.18,2440,2449.74,2467.69,2528.21,2505.64,2558.46,2525.13,2544.1,3220,2513.33,2545.13,0
11_33_49,40,2452.31,2546.15,2466.15,2443.59,2453.33,2468.72,2526.15,2506.67,2558.46,2523.08,2545.13,3227.18,2514.87,2548.21,0
11_33_49,41,2454.87,2549.74,2465.13,2451.79,2451.28,2466.67,2530.26,2510.77,2561.03,2523.59,2544.62,3229.23,2514.36,2548.72,0
11_33_49,42,2461.54,2550.77,2467.18,2452.31,2453.33,2469.23,2532.31,2513.33,2561.03,2525.13,2544.62,3231.79,2515.38,2551.79,0
11_33_49,43,2465.64,2550.77,2467.18,2449.23,2458.46,2474.36,2528.72,2513.85,2561.54,2526.67,2547.69,3237.44,2520,2553.85,0
11_33_49,44,2464.62,2554.36,2469.23,2452.82,2459.49,2474.87,2530.26,2514.87,2564.1,2528.21,2550.77,3237.44,2520.51,2552.31,0
11_33_49,45,2464.62,2554.87,2472.31,2459.49,2457.44,2472.82,2533.33,2514.36,2562.56,2529.23,2549.74,3236.41,2523.08,2552.82,0
11_33_49,46,2467.69,2551.79,2473.85,2458.97,2459.49,2475.38,2533.33,2515.38,2563.59,2531.28,2552.31,3245.13,2528.21,2555.9,0
11_33_50,47,2467.18,2554.36,2476.41,2456.41,2464.62,2481.03,2536.92,2518.97,2570.26,2532.82,2558.97,3253.33,2527.69,2557.44,0
11_33_50,48,2470.26,2560.51,2481.03,2461.03,2468.21,2483.59,2545.13,2520.51,2574.36,2530.77,2560.51,3252.82,2527.69,2559.49,0
11_33_50,49,2475.38,2560.51,2483.59,2468.21,2467.69,2483.08,2545.13,2522.56,2574.87,2532.31,2557.95,3250.77,2531.79,2561.03,0
11_33_50,50,2476.41,2561.54,2484.1,2468.72,2466.67,2483.08,2541.54,2526.67,2575.38,2536.41,2558.46,3255.38,2533.85,2563.08,0
11_33_50,51,2477.44,2566.67,2484.1,2465.13,2470.77,2485.13,2545.13,2528.72,2573.85,2538.97,2563.08,3265.64,2530.77,2567.69,0
11_33_50,52,2479.49,2569.23,2485.13,2467.18,2475.38,2489.74,2548.21,2529.74,2573.33,2541.03,2563.59,3269.74,2530.26,2566.67,0
11_33_50,53,2479.49,2571.28,2488.72,2472.82,2472.82,2492.31,2547.18,2532.82,2578.46,2543.08,2563.08,3267.18,2536.41,2565.13,0
11_33_50,54,2482.56,2571.28,2491.28,2475.9,2470.77,2488.21,2546.15,2533.85,2579.49,2543.08,2568.21,3269.74,2543.59,2572.82,0
11_33_50,55,2485.13,2569.23,2490.26,2474.36,2477.95,2489.23,2550.26,2533.33,2578.46,2543.08,2575.9,3274.36,2543.59,2576.92,0
11_33_50,56,2481.54,2572.82,2491.28,2472.82,2484.1,2497.44,2555.9,2534.36,2585.64,2546.15,2575.9,3277.95,2541.03,2572.82,0
11_33_50,57,2483.59,2574.87,2496.41,2477.95,2482.56,2500.51,2555.9,2535.9,2592.31,2548.72,2573.85,3281.03,2542.56,2571.79,0
11_33_50,58,2489.23,2573.33,2500.51,2483.59,2483.08,2500,2556.41,2538.46,2589.74,2550.77,2576.92,3285.64,2544.62,2573.33,0
11_33_50,59,2489.74,2576.92,2500,2483.08,2487.18,2502.56,2558.97,2542.56,2588.72,2552.31,2576.92,3290.26,2545.64,2574.87,0
11_33_50,60,2494.36,2577.95,2497.44,2484.1,2489.74,2504.62,2558.46,2543.08,2590.77,2555.38,2575.38,3292.82,2546.67,2576.92,0
11_33_50,61,2498.97,2577.44,2501.03,2489.23,2489.74,2504.62,2558.46,2541.03,2590.26,2559.49,2578.46,3294.87,2548.21,2577.44,0
11_33_50,62,2498.46,2583.59,2506.67,2489.74,2487.69,2504.1,2562.56,2543.08,2590.26,2558.46,2577.95,3299.49,2548.21,2578.97,0
11_33_50,63,2500,2585.64,2505.64,2488.21,2488.21,2506.15,2563.59,2547.69,2591.79,2556.41,2580.51,3300,2551.28,2582.56,0
11_33_50,64,2502.56,2585.64,2505.13,2490.26,2494.87,2510.26,2565.13,2547.18,2593.33,2559.49,2588.72,3299.49,2556.92,2582.05,0
11_33_50,65,2503.59,2590.26,2507.18,2489.23,2499.49,2512.82,2569.74,2546.15,2596.41,2563.59,2592.31,3306.67,2560,2581.54,0
11_33_50,66,2503.59,2590.26,2507.69,2489.74,2498.97,2512.82,2571.79,2551.28,2595.38,2561.54,2589.74,3311.79,2558.46,2586.67,0
11_33_50,67,2504.1,2588.72,2511.28,2497.44,2500,2512.82,2573.33,2552.82,2593.85,2561.03,2590.26,3309.74,2559.49,2591.28,0
11_33_50,68,2506.67,2590.77,2515.9,2501.54,2502.56,2517.44,2574.36,2551.28,2600.51,2569.74,2593.33,3314.87,2561.03,2590.26,0
11_33_50,69,2510.26,2592.31,2514.87,2498.97,2506.15,2522.05,2574.36,2556.92,2606.15,2575.38,2593.85,3320,2561.54,2591.28,0
11_33_50,70,2512.31,2591.79,2514.87,2501.54,2507.18,2522.05,2573.33,2560,2605.13,2573.33,2596.41,3321.54,2562.05,2593.85,0
11_33_50,71,2513.85,2593.33,2519.49,2506.67,2506.15,2521.54,2573.33,2557.44,2605.64,2572.82,2595.38,3326.67,2562.05,2594.87,0
11_33_50,72,2515.38,2596.92,2521.03,2506.15,2509.23,2522.05,2576.92,2558.46,2608.72,2575.38,2594.36,3332.82,2566.67,2594.36,0
11_33_50,73,2517.44,2599.49,2520.51,2506.15,2513.85,2522.56,2578.46,2562.56,2604.62,2574.36,2601.54,3332.82,2572.82,2594.36,0
11_33_50,74,2521.03,2600.51,2524.62,2511.79,2513.85,2524.1,2578.97,2563.59,2605.64,2575.38,2607.69,3333.33,2573.33,2598.97,0
11_33_50,75,2521.54,2599.49,2530.77,2515.9,2513.85,2529.74,2585.64,2562.56,2614.36,2578.46,2605.13,3340.51,2571.79,2604.62,0
11_33_50,76,2520,2602.05,2529.74,2514.87,2517.44,2532.31,2591.28,2563.08,2615.9,2579.49,2605.64,3344.62,2572.82,2605.13,0
11_33_50,77,2521.03,2601.54,2529.74,2513.33,2520.51,2529.74,2589.23,2569.23,2610.26,2580.51,2608.72,3343.08,2573.85,2605.13,0
11_33_50,78,2524.1,2598.97,2535.38,2517.95,2521.54,2531.79,2587.69,2575.9,2610.26,2578.97,2607.18,3343.59,2575.38,2607.69,0
11_33_50,79,2526.67,2604.62,2533.33,2523.08,2521.03,2535.38,2591.28,2575.38,2618.97,2580,2608.21,3348.21,2577.95,2607.18,0
11_33_50,80,2528.72,2610.26,2532.82,2521.54,2522.56,2533.85,2591.79,2575.38,2624.62,2586.67,2611.79,3349.74,2578.97,2605.64,0
11_33_50,81,2528.21,2608.72,2541.54,2519.49,2525.64,2535.38,2590.77,2576.92,2622.05,2591.79,2613.33,3352.31,2578.46,2608.72,0
11_33_50,82,2531.28,2606.67,2544.62,2523.08,2529.23,2542.05,2591.28,2575.9,2620.51,2591.79,2617.44,3358.97,2580,2610.77,0
11_33_50,83,2539.49,2609.23,2541.03,2529.23,2531.28,2544.1,2593.33,2575.9,2623.59,2591.28,2623.08,3363.08,2586.15,2608.72,0
11_33_50,84,2540,2612.82,2542.05,2529.74,2530.77,2544.1,2595.9,2580,2624.1,2590.77,2624.1,3365.13,2590.26,2612.31,0
11_33_50,85,2536.41,2614.87,2545.13,2529.74,2534.87,2545.64,2596.92,2578.97,2622.56,2591.28,2621.54,3368.72,2589.23,2617.95,0
11_33_50,86,2540,2615.9,2546.15,2530.77,2543.59,2546.15,2595.9,2576.92,2627.18,2594.87,2620.51,3372.31,2589.74,2618.97,0
11_33_50,87,2544.62,2616.92,2546.15,2530.26,2544.1,2552.31,2597.95,2583.08,2626.67,2597.44,2624.62,3373.33,2592.31,2619.49,0
11_33_50,88,2544.1,2619.49,2548.72,2532.82,2541.03,2555.38,2603.08,2591.79,2623.08,2595.9,2628.21,3374.36,2590.77,2622.56,0
11_33_50,89,2543.59,2620.51,2553.85,2541.03,2542.56,2551.79,2605.64,2591.79,2629.23,2594.36,2625.64,3380,2592.31,2622.56,0
11_33_50,90,2547.69,2621.54,2554.87,2543.59,2542.56,2555.9,2607.69,2589.23,2638.46,2598.97,2628.21,3384.62,2598.46,2622.05,0
11_33_50,91,2549.23,2623.08,2555.38,2537.95,2541.54,2561.03,2608.72,2591.28,2636.92,2606.15,2635.9,3383.59,2596.92,2622.56,0
11_33_50,92,2547.69,2622.56,2558.97,2539.49,2545.64,2560,2607.18,2592.31,2634.36,2607.18,2637.95,3386.15,2593.33,2622.56,0
11_33_50,93,2550.26,2623.08,2560,2546.15,2548.21,2560,2608.21,2592.31,2638.97,2606.15,2635.38,3392.31,2601.03,2623.59,0
11_33_50,94,2553.33,2624.62,2560.51,2547.69,2544.1,2561.54,2612.82,2594.36,2640.51,2606.15,2637.44,3391.28,2608.72,2623.59,0
11_33_50,95,2553.85,2628.72,2561.54,2546.67,2546.67,2560,2613.33,2595.9,2638.97,2608.21,2638.97,3394.87,2605.64,2627.18,0
11_33_50,96,2554.36,2629.74,2563.59,2547.18,2557.44,2560.51,2610.77,2595.9,2638.46,2611.28,2641.03,3403.59,2604.1,2632.82,0
11_33_50,97,2557.95,2628.21,2568.72,2548.72,2561.54,2566.15,2615.38,2594.87,2641.03,2611.28,2642.56,3401.54,2607.69,2633.33,0
11_33_50,98,2559.49,2633.85,2571.79,2551.79,2558.46,2571.79,2622.05,2598.46,2642.05,2611.79,2640.51,3400.51,2607.69,2634.36,0
11_33_50,99,2560,2637.44,2571.28,2554.87,2558.46,2571.79,2622.56,2604.62,2641.54,2618.46,2644.62,3408.72,2609.23,2638.97,0
11_33_50,100,2563.59,2635.38,2575.38,2556.92,2560.51,2571.79,2621.03,2606.15,2641.54,2622.56,2653.33,3410.77,2610.77,2639.49,0
11_33_50,101,2567.18,2636.41,2576.92,2558.97,2563.08,2575.9,2622.05,2607.18,2643.08,2620,2653.33,3409.23,2610.26,2637.44,0
11_33_50,102,2567.69,2638.46,2574.87,2559.49,2563.08,2576.92,2622.56,2608.72,2648.21,2620.51,2651.28,3416.92,2616.41,2638.97,0
11_33_50,103,2568.21,2638.97,2576.41,2560.51,2562.05,2574.36,2621.54,2608.72,2653.85,2622.05,2653.85,3421.54,2622.56,2641.03,0
11_33_50,104,2572.31,2640.51,2580.51,2564.62,2565.13,2575.9,2623.59,2609.74,2653.33,2622.56,2653.85,3417.95,2621.03,2638.97,0
11_33_50,105,2573.85,2641.03,2578.46,2565.13,2568.72,2580,2628.21,2611.79,2652.31,2623.59,2652.31,3421.54,2619.49,2641.03,0
11_33_50,106,2573.85,2642.56,2577.95,2563.08,2570.77,2582.05,2627.18,2614.87,2655.38,2624.1,2654.87,3428.21,2621.54,2646.15,0
11_33_50,107,2575.38,2651.28,2583.59,2566.67,2574.87,2580,2626.15,2619.49,2656.92,2624.62,2658.97,3427.69,2621.54,2645.64,0
11_33_50,108,2576.41,2653.33,2589.74,2573.85,2575.9,2581.03,2632.82,2621.03,2654.87,2626.67,2665.64,3428.72,2622.56,2646.15,0
11_33_50,109,2578.46,2648.72,2589.23,2575.38,2574.36,2588.72,2637.44,2619.49,2654.36,2630.26,2669.23,3436.41,2626.15,2653.85,0
11_33_50,110,2577.95,2648.72,2588.72,2573.33,2575.9,2591.79,2637.44,2621.03,2660,2635.38,2667.69,3437.44,2626.15,2655.38,0
11_33_50,111,2576.92,2652.31,2591.79,2574.87,2578.97,2589.23,2637.44,2624.1,2668.72,2639.49,2666.15,3434.36,2624.62,2651.79,0
11_33_50,112,2583.59,2653.33,2591.28,2577.44,2577.95,2590.77,2637.95,2622.56,2670.26,2640,2667.69,3443.08,2628.72,2654.36,0
11_33_50,113,2590.77,2653.85,2590.77,2578.46,2576.92,2593.85,2638.46,2623.59,2667.69,2638.97,2668.72,3449.74,2633.33,2654.87,0
11_33_50,114,2588.21,2653.85,2594.36,2580.51,2582.56,2592.82,2640,2628.21,2668.21,2640,2670.77,3447.69,2633.85,2654.36,0
11_33_50,115,2587.18,2653.85,2594.87,2580,2590.77,2594.36,2641.03,2628.72,2669.74,2638.97,2672.82,3448.21,2634.36,2655.9,0
11_33_50,116,2591.79,2656.41,2593.33,2578.97,2591.79,2596.41,2641.03,2626.67,2668.72,2638.46,2670.77,3451.79,2637.44,2654.36,0
11_33_50,117,2591.79,2657.44,2598.46,2583.59,2589.23,2594.87,2641.54,2631.28,2669.23,2643.08,2672.31,3454.87,2639.49,2661.03,0
11_33_50,118,2593.33,2657.95,2605.64,2590.77,2591.28,2598.46,2647.18,2638.46,2670.77,2645.13,2681.54,3458.97,2637.95,2670.26,0
11_33_50,119,2598.97,2665.13,2606.15,2591.79,2591.79,2605.13,2652.31,2637.95,2670.26,2643.59,2685.64,3463.08,2637.95,2669.23,0
11_33_50,120,2600.51,2670.26,2604.1,2590.26,2591.79,2607.18,2649.74,2636.41,2671.79,2647.18,2681.54,3462.56,2641.03,2666.67,0
11_33_50,121,2600,2667.69,2606.15,2591.79,2595.9,2605.64,2649.23,2638.46,2671.28,2652.82,2682.56,3465.13,2641.54,2669.23,0
11_33_50,122,2603.08,2667.18,2606.15,2592.31,2596.92,2608.21,2654.36,2638.46,2671.28,2652.31,2687.18,3466.67,2640.51,2670.26,0
11_33_50,123,2605.64,2670.77,2606.15,2594.36,2593.33,2610.26,2655.38,2637.95,2677.95,2650.26,2686.67,3466.67,2646.15,2669.74,0
11_33_50,124,2605.13,2670.77,2607.69,2596.41,2596.41,2608.72,2653.85,2636.92,2686.15,2651.79,2684.62,3471.79,2653.33,2671.79,0
11_33_50,125,2605.64,2669.23,2610.26,2594.87,2603.08,2607.69,2654.87,2638.97,2684.62,2653.85,2686.15,3477.95,2653.33,2670.26,0
11_33_50,126,2607.69,2672.31,2616.92,2596.41,2605.13,2608.72,2654.87,2642.56,2681.03,2656.92,2686.15,3479.49,2651.79,2669.23,0
11_33_50,127,2608.21,2671.28,2623.08,2603.59,2604.62,2611.79,2657.44,2645.13,2683.59,2658.46,2685.13,3481.03,2653.85,2672.31,0
11_33_50,128,2607.69,2669.74,2621.03,2606.15,2606.15,2613.85,2658.46,2649.74,2686.15,2654.87,2691.79,3484.1,2654.36,2672.31,0
11_33_50,0,2611.79,2678.46,2617.95,2605.64,2608.72,2618.46,2658.46,2653.33,2685.64,2657.95,2696.92,3487.18,2654.36,2674.87,0
11_33_50,1,2616.92,2680.51,2622.05,2607.69,2611.79,2621.54,2665.64,2652.82,2686.15,2667.18,2695.9,3491.79,2656.92,2683.08,0
11_33_50,2,2616.41,2673.85,2624.62,2609.74,2611.79,2621.03,2670.77,2652.82,2687.18,2670.77,2697.95,3495.9,2658.46,2686.67,0
11_33_50,3,2619.49,2679.49,2622.56,2608.21,2609.74,2621.54,2668.72,2654.36,2686.67,2667.69,2701.54,3494.87,2656.92,2684.62,0
11_33_50,4,2623.59,2688.72,2624.62,2607.69,2615.38,2623.08,2667.69,2654.87,2688.72,2667.18,2700.51,3494.36,2659.49,2684.62,0
11_33_50,5,2622.05,2685.64,2629.74,2613.33,2622.56,2625.64,2669.23,2655.38,2691.28,2669.23,2702.05,3500.51,2667.18,2686.15,0
11_33_50,6,2622.05,2683.08,2627.69,2620,2622.56,2627.69,2668.72,2657.95,2691.28,2669.74,2704.1,3503.08,2669.23,2686.15,0
11_33_50,7,2624.1,2686.67,2625.64,2621.54,2620.51,2627.69,2669.74,2662.05,2695.9,2671.28,2701.54,3501.54,2667.69,2686.15,0
11_33_50,8,2623.59,2688.72,2633.33,2621.03,2621.54,2627.69,2672.31,2664.1,2701.54,2673.33,2705.64,3505.13,2670.26,2686.15,0
11_33_50,9,2623.59,2686.67,2637.95,2622.05,2623.08,2633.85,2672.31,2664.62,2700.51,2670.77,2711.28,3507.69,2671.79,2685.64,0
11_33_50,10,2626.67,2689.23,2636.41,2622.05,2622.56,2637.44,2670.26,2667.69,2698.97,2671.79,2712.31,3510.26,2670.26,2689.23,0
11_33_50,11,2629.23,2693.33,2637.95,2623.59,2624.62,2636.41,2673.85,2669.23,2701.03,2681.03,2715.38,3520.51,2669.74,2693.33,0
11_33_50,12,2629.23,2695.38,2642.05,2624.62,2628.21,2637.44,2683.08,2667.69,2701.54,2686.15,2717.44,3521.54,2671.28,2692.31,0
11_33_50,13,2631.79,2695.38,2640,2622.56,2627.69,2638.97,2685.13,2670.77,2700.51,2682.56,2716.92,3514.87,2672.31,2693.85,0
11_33_50,14,2637.44,2695.38,2641.03,2625.64,2627.18,2638.97,2682.05,2673.33,2703.59,2682.56,2715.9,3520.51,2670.77,2701.03,0
11_33_50,15,2636.41,2696.92,2648.72,2631.28,2632.31,2640,2683.08,2668.72,2703.59,2685.64,2716.92,3527.18,2673.33,2702.05,0
11_33_50,16,2635.38,2700,2653.33,2632.31,2637.44,2642.05,2686.15,2669.23,2703.08,2685.64,2717.44,3524.62,2683.08,2698.97,0
11_33_50,17,2638.97,2703.59,2652.82,2633.85,2636.41,2642.56,2684.62,2674.87,2709.23,2684.62,2718.97,3526.67,2686.15,2701.03,0
11_33_50,18,2641.54,2703.08,2651.79,2636.92,2637.44,2642.56,2683.08,2674.36,2717.44,2685.13,2720,3526.67,2683.59,2701.54,0
11_33_50,19,2639.49,2701.54,2651.28,2637.44,2638.97,2647.69,2686.15,2672.82,2717.95,2685.64,2718.97,3525.13,2684.1,2701.03,0
11_33_50,20,2641.54,2703.08,2652.82,2636.41,2640,2653.33,2687.18,2680.51,2715.38,2689.74,2722.05,3533.85,2686.15,2704.1,0
11_33_50,21,2645.64,2704.1,2653.85,2637.95,2642.56,2653.33,2685.64,2686.15,2716.41,2689.23,2729.74,3539.49,2686.67,2704.1,0
11_33_50,22,2647.69,2704.62,2653.33,2640,2642.56,2652.31,2691.28,2684.62,2717.95,2687.69,2734.36,3540.51,2687.69,2702.05,0
11_33_50,23,2649.23,2706.67,2652.31,2642.56,2644.62,2654.87,2701.03,2684.62,2717.95,2694.87,2732.31,3542.05,2687.69,2706.15,0
11_33_50,24,2652.31,2708.21,2654.36,2645.13,2651.79,2656.41,2702.05,2684.62,2717.95,2702.05,2733.33,3542.56,2686.15,2710.77,0
11_33_50,25,2654.87,2709.23,2661.03,2644.1,2653.85,2655.9,2698.97,2683.08,2717.44,2700.51,2732.31,3545.13,2689.74,2711.79,0
11_33_50,26,2654.36,2715.38,2664.1,2644.1,2651.79,2656.41,2700.51,2684.1,2718.97,2697.44,2731.79,3550.77,2694.36,2715.38,0
11_33_50,27,2653.85,2719.49,2665.64,2648.72,2652.82,2655.38,2701.03,2687.69,2721.03,2699.49,2737.44,3553.33,2694.36,2719.49,0
11_33_50,28,2654.87,2715.9,2668.21,2652.82,2654.36,2660.51,2700,2689.23,2723.08,2702.56,2737.44,3554.87,2696.92,2717.44,0
11_33_50,29,2656.41,2715.9,2669.23,2652.82,2656.41,2669.23,2701.03,2687.69,2726.67,2704.62,2735.9,3557.95,2701.54,2715.9,0
11_33_50,30,2657.44,2721.03,2667.69,2652.82,2657.44,2670.26,2701.54,2690.26,2732.31,2704.62,2745.13,3557.95,2701.03,2718.97,0
11_33_50,31,2658.46,2719.49,2669.23,2655.38,2655.9,2667.69,2702.05,2698.46,2733.33,2703.59,2750.77,3557.95,2700,2719.49,0
11_33_50,32,2661.03,2716.41,2671.79,2654.87,2661.54,2667.69,2703.59,2701.54,2729.74,2709.74,2747.18,3559.49,2702.56,2716.92,0
11_33_50,33,2663.59,2720.51,2670.26,2655.9,2668.21,2669.74,2703.59,2698.97,2730.77,2716.41,2747.18,3561.03,2703.08,2719.49,0
11_33_50,34,2666.67,2721.03,2669.74,2661.54,2668.21,2670.77,2706.67,2699.49,2733.85,2715.9,2750.26,3568.72,2701.54,2724.62,0
11_33_50,35,2669.74,2722.05,2670.26,2662.05,2667.69,2670.77,2714.87,2701.54,2733.85,2713.85,2748.72,3573.33,2702.05,2725.64,0
11_33_50,36,2669.74,2725.64,2675.38,2657.44,2669.23,2673.33,2718.46,2701.03,2733.85,2716.41,2749.23,3571.28,2707.69,2726.15,0
11_33_50,37,2671.28,2724.62,2683.59,2661.03,2670.26,2682.56,2715.9,2701.03,2734.36,2718.46,2751.28,3571.79,2716.41,2726.67,0
11_33_50,38,2671.79,2724.62,2685.64,2669.23,2669.23,2686.15,2716.92,2702.56,2736.41,2716.92,2747.69,3572.82,2715.9,2728.21,0
11_33_50,39,2669.74,2728.72,2684.62,2670.26,2670.26,2683.08,2720.51,2701.54,2736.92,2716.92,2749.74,3574.87,2713.33,2732.82,0
11_33_50,40,2672.31,2730.77,2684.62,2667.69,2671.79,2682.56,2718.97,2703.08,2737.44,2716.41,2756.92,3583.08,2716.41,2733.85,0
11_33_50,41,2675.9,2730.77,2685.13,2670.26,2672.31,2684.1,2717.95,2711.79,2740.51,2716.92,2757.44,3587.18,2717.95,2732.82,0
11_33_51,42,2674.87,2733.33,2685.13,2671.79,2675.9,2683.59,2720,2715.9,2745.64,2717.44,2757.95,3584.1,2717.44,2733.33,0
11_33_51,43,2680.51,2733.85,2686.67,2671.28,2682.56,2684.1,2717.95,2713.33,2748.21,2716.41,2764.62,3587.18,2718.46,2734.87,0
11_33_51,44,2687.69,2733.85,2686.15,2676.41,2685.64,2686.67,2717.44,2714.87,2748.72,2719.49,2767.18,3588.72,2717.44,2735.38,0
11_33_51,45,2686.67,2735.38,2687.18,2684.62,2684.62,2687.69,2724.1,2717.95,2749.23,2728.72,2764.1,3588.72,2716.92,2735.9,0
11_33_51,46,2684.1,2736.92,2687.18,2685.64,2684.62,2687.69,2726.15,2716.92,2748.72,2732.82,2766.15,3595.9,2720.51,2738.97,0
11_33_51,47,2686.15,2741.54,2686.67,2683.59,2684.1,2685.13,2722.56,2715.38,2750.26,2731.28,2768.21,3597.95,2722.56,2741.54,0
11_33_51,48,2687.69,2746.67,2693.33,2685.13,2684.62,2689.23,2727.18,2716.92,2750.26,2732.31,2766.67,3594.87,2726.67,2741.03,0
11_33_51,49,2686.15,2747.18,2702.05,2686.15,2687.18,2695.38,2734.36,2716.92,2749.23,2734.87,2765.64,3601.54,2730.26,2743.08,0
11_33_51,50,2685.64,2744.62,2701.54,2685.64,2688.21,2695.38,2732.82,2718.97,2750.26,2734.36,2767.69,3605.13,2726.15,2750.26,0
11_33_51,51,2690.26,2745.64,2697.95,2684.62,2687.18,2695.9,2731.28,2722.56,2748.72,2732.82,2772.31,3600.51,2725.13,2749.23,0
11_33_51,52,2691.79,2749.74,2700,2685.13,2686.15,2700.51,2735.38,2722.56,2749.23,2733.85,2773.33,3607.69,2733.85,2745.64,0
11_33_51,53,2691.28,2749.23,2703.08,2689.74,2691.28,2702.05,2734.87,2720.51,2755.9,2733.85,2772.31,3613.85,2736.92,2749.74,0
11_33_51,54,2695.38,2747.18,2703.08,2689.74,2700,2700.51,2732.82,2721.54,2758.46,2735.9,2777.95,3609.23,2732.82,2750.77,0
11_33_51,55,2699.49,2752.31,2703.08,2689.74,2701.54,2700.51,2732.82,2727.18,2757.44,2739.49,2783.08,3613.85,2733.33,2750.26,0
11_33_51,56,2700,2754.87,2703.59,2697.44,2698.46,2702.05,2731.79,2730.77,2762.56,2736.92,2782.05,3621.03,2734.87,2752.31,0
11_33_51,57,2702.05,2751.79,2702.56,2702.56,2700,2703.59,2735.38,2732.31,2767.69,2736.92,2782.56,3618.46,2732.82,2751.79,0
11_33_51,58,2704.1,2752.82,2705.13,2700,2702.05,2704.1,2746.15,2733.33,2765.64,2746.67,2784.1,3618.97,2732.82,2751.79,0
11_33_51,59,2703.08,2755.38,2714.87,2698.46,2701.54,2701.03,2751.79,2734.87,2765.64,2750.77,2781.54,3622.56,2736.41,2756.41,0
11_33_51,60,2702.56,2753.85,2718.46,2700.51,2703.08,2705.64,2748.72,2732.82,2765.13,2746.67,2781.03,3622.56,2743.08,2761.03,0
11_33_51,61,2704.62,2756.41,2715.38,2701.03,2704.62,2712.82,2747.69,2731.79,2765.13,2747.69,2787.69,3622.56,2746.15,2761.03,0
11_33_51,62,2707.18,2759.49,2718.46,2702.05,2705.64,2715.38,2749.23,2737.95,2767.69,2751.28,2791.79,3626.15,2747.18,2764.1,0
11_33_51,63,2706.67,2759.49,2722.56,2704.1,2705.13,2716.41,2749.23,2738.97,2769.74,2750.26,2789.23,3631.79,2749.74,2766.67,0
11_33_51,64,2704.1,2761.54,2721.03,2703.08,2704.1,2717.44,2749.23,2738.97,2769.23,2749.74,2785.64,3635.38,2749.23,2764.62,0
11_33_51,65,2706.67,2766.67,2720,2705.13,2708.72,2716.92,2749.74,2747.18,2771.79,2750.77,2790.77,3632.82,2748.21,2764.62,0
11_33_51,66,2714.87,2766.67,2721.03,2713.33,2715.9,2717.44,2748.72,2751.28,2774.36,2750.77,2798.97,3635.38,2749.23,2765.64,0
11_33_51,67,2720.51,2764.62,2721.03,2718.97,2716.92,2718.97,2751.28,2747.69,2773.33,2750.26,2798.97,3638.97,2750.26,2766.15,0
11_33_51,68,2718.46,2768.72,2720,2717.44,2715.9,2718.97,2754.36,2748.72,2774.87,2750.77,2794.87,3635.9,2748.72,2769.74,0
11_33_51,69,2715.9,2771.79,2720.51,2715.9,2718.46,2720,2754.36,2752.31,2780.51,2756.41,2799.49,3640,2751.28,2771.79,0
11_33_51,70,2718.46,2768.72,2724.1,2717.44,2715.38,2718.97,2757.95,2751.28,2783.08,2764.62,2804.1,3646.67,2754.87,2769.23,0
11_33_51,71,2722.56,2769.23,2728.21,2717.44,2711.79,2719.49,2765.64,2749.74,2780.51,2766.15,2802.05,3644.1,2754.87,2770.77,0
11_33_51,72,2719.49,2771.28,2731.79,2716.92,2717.44,2727.69,2766.15,2751.28,2781.03,2764.1,2802.05,3646.67,2757.44,2776.41,0
11_33_51,73,2717.44,2772.82,2734.36,2718.46,2720.51,2734.87,2764.1,2754.87,2784.62,2764.62,2805.64,3653.85,2762.56,2776.41,0
11_33_51,74,2723.59,2775.9,2733.85,2720,2720.51,2732.31,2765.13,2758.46,2785.64,2765.13,2804.1,3651.79,2763.08,2775.9,0
11_33_51,75,2727.18,2777.95,2733.33,2718.97,2727.18,2730.26,2765.13,2758.46,2786.67,2764.62,2805.13,3653.33,2763.59,2781.03,0
11_33_51,76,2725.13,2777.95,2734.36,2718.97,2734.36,2734.36,2763.59,2758.97,2787.69,2765.13,2813.33,3660,2765.64,2782.56,0
11_33_51,77,2726.15,2777.95,2735.38,2725.13,2731.79,2734.36,2765.64,2762.56,2786.67,2766.67,2818.46,3661.03,2764.62,2780,0
11_33_51,78,2730.77,2777.95,2733.85,2732.82,2727.69,2732.31,2766.15,2764.62,2788.72,2767.18,2813.33,3662.56,2765.13,2781.54,0
11_33_51,79,2733.85,2780,2734.36,2734.36,2728.72,2733.85,2765.64,2763.59,2787.69,2767.18,2811.28,3665.64,2767.18,2784.62,0
11_33_51,80,2735.9,2785.13,2738.46,2732.31,2731.79,2735.9,2769.74,2762.56,2787.18,2768.72,2817.44,3665.64,2766.15,2782.56,0
11_33_51,81,2735.38,2786.67,2742.56,2732.31,2733.85,2737.44,2773.33,2763.59,2796.41,2774.87,2820,3665.13,2769.74,2784.1,0
11_33_51,82,2733.33,2785.13,2746.15,2733.33,2734.36,2744.62,2772.31,2766.15,2802.05,2782.05,2818.46,3666.15,2773.33,2788.72,0
11_33_51,83,2735.38,2786.15,2750.26,2734.36,2735.9,2750.26,2775.38,2766.15,2796.41,2782.56,2820.51,3668.72,2771.28,2787.69,0
11_33_51,84,2735.9,2787.69,2749.74,2734.36,2737.95,2746.15,2781.03,2766.15,2794.36,2780.51,2820.51,3669.23,2771.79,2787.69,0
11_33_51,85,2735.9,2785.64,2747.69,2732.82,2741.54,2745.13,2781.54,2769.74,2797.44,2781.03,2819.49,3668.21,2777.44,2791.28,0
11_33_51,86,2742.56,2788.72,2748.72,2735.38,2747.69,2750.26,2780.51,2773.33,2795.38,2782.05,2820.51,3674.87,2778.46,2793.33,0
11_33_51,87,2747.18,2793.33,2749.74,2739.49,2749.23,2749.74,2781.03,2773.33,2797.44,2781.03,2820.51,3682.56,2777.95,2793.85,0
11_33_51,88,2743.59,2793.85,2749.23,2743.08,2746.15,2748.72,2780.51,2771.79,2804.1,2781.03,2824.1,3679.49,2780.51,2793.33,0
11_33_51,89,2741.03,2792.31,2749.23,2747.18,2747.69,2750.77,2781.03,2774.87,2802.56,2783.59,2833.33,3678.46,2782.05,2795.38,0
11_33_51,90,2745.64,2791.28,2750.26,2749.23,2749.23,2751.79,2783.08,2780.51,2801.54,2788.21,2836.41,3682.56,2782.56,2799.49,0
11_33_51,91,2750.77,2795.38,2749.74,2748.21,2747.69,2754.36,2782.05,2782.56,2805.13,2788.72,2833.85,3684.1,2782.56,2801.54,0
11_33_51,92,2751.28,2800,2753.33,2749.23,2748.72,2755.38,2782.05,2780.51,2804.62,2786.15,2833.85,3685.13,2782.56,2801.54,0
11_33_51,93,2751.79,2800.51,2763.08,2749.74,2749.74,2753.33,2786.15,2780.51,2807.18,2789.23,2834.36,3687.18,2785.13,2803.59,0
11_33_51,94,2753.85,2800.51,2767.18,2747.69,2749.74,2759.49,2789.74,2783.08,2816.41,2796.41,2835.38,3690.26,2789.23,2806.15,0
11_33_51,95,2756.92,2803.59,2764.1,2750.26,2750.77,2767.18,2789.74,2782.56,2820.51,2798.46,2835.38,3696.41,2789.74,2803.59,0
11_33_51,96,2755.9,2806.15,2763.59,2752.82,2751.79,2765.64,2787.69,2781.03,2818.46,2795.9,2833.85,3696.92,2787.18,2802.05,0
11_33_51,97,2754.87,2804.1,2766.15,2751.28,2755.9,2763.08,2791.79,2782.05,2818.46,2797.44,2840,3695.9,2789.74,2805.13,0
11_33_51,98,2758.46,2804.62,2767.18,2751.79,2760.51,2764.62,2797.95,2785.13,2820,2802.56,2846.15,3698.97,2797.44,2808.72,0
11_33_51,99,2760,2808.21,2764.62,2757.95,2760,2765.13,2798.46,2788.72,2818.46,2804.1,2844.62,3698.97,2802.05,2807.18,0
11_33_51,100,2762.05,2809.74,2765.13,2764.62,2762.56,2764.62,2797.95,2788.21,2817.44,2802.56,2844.1,3699.49,2797.95,2810.77,0
11_33_51,101,2766.67,2809.23,2769.23,2765.13,2767.18,2765.64,2802.56,2788.21,2818.46,2801.54,2847.69,3703.08,2796.92,2821.54,0
11_33_51,102,2768.21,2809.74,2770.77,2765.13,2767.18,2770.26,2804.1,2794.87,2818.97,2803.08,2849.23,3705.64,2802.05,2818.97,0
11_33_51,103,2768.21,2812.82,2769.74,2765.64,2765.64,2773.85,2802.05,2800,2820,2804.1,2850.26,3709.23,2803.59,2809.74,0
11_33_51,104,2767.69,2813.33,2770.26,2764.1,2766.15,2772.82,2802.05,2800.51,2818.97,2803.59,2851.79,3713.33,2802.05,2813.85,0
11_33_51,105,2767.69,2813.33,2775.9,2766.15,2766.67,2771.28,2804.1,2801.54,2820,2804.1,2850.26,3712.82,2803.08,2821.54,0
11_33_51,106,2769.23,2815.38,2781.54,2768.72,2765.13,2773.33,2804.62,2802.05,2824.1,2804.62,2851.28,3712.82,2803.08,2819.49,0
11_33_51,107,2770.77,2815.9,2782.05,2768.72,2766.15,2778.46,2804.62,2800.51,2824.1,2807.18,2851.79,3717.44,2803.59,2817.95,0
11_33_51,108,2771.79,2815.38,2781.54,2770.26,2770.26,2782.05,2807.69,2800.51,2825.64,2813.33,2851.79,3718.97,2806.67,2818.46,0
11_33_51,109,2774.36,2819.49,2782.56,2771.79,2773.33,2780.51,2810.26,2803.08,2833.33,2815.9,2852.82,3717.95,2807.18,2820,0
11_33_51,110,2776.92,2821.03,2781.03,2772.82,2775.38,2778.46,2808.72,2803.59,2835.9,2812.31,2852.82,3719.49,2805.64,2823.59,0
11_33_51,111,2778.46,2818.46,2780.51,2777.95,2780.51,2780.51,2809.23,2802.05,2833.85,2813.33,2853.33,3724.62,2806.15,2823.59,0
11_33_51,112,2778.46,2820.51,2786.15,2782.05,2782.05,2782.56,2815.38,2801.54,2834.87,2818.97,2858.97,3726.67,2810.26,2821.03,0
11_33_51,113,2778.97,2826.67,2789.23,2780.51,2778.97,2783.59,2818.97,2809.23,2834.36,2820,2865.64,3725.64,2817.44,2825.13,0
11_33_51,114,2782.05,2827.18,2787.18,2780.51,2780,2784.62,2818.46,2815.9,2830.26,2818.97,2865.64,3730.77,2820,2830.77,0
11_33_51,115,2784.1,2826.15,2789.23,2781.54,2781.54,2786.67,2818.97,2813.33,2831.28,2819.49,2866.15,3733.85,2817.44,2833.85,0
11_33_51,116,2782.56,2831.28,2793.85,2781.54,2781.54,2789.23,2818.97,2811.28,2831.28,2820,2868.21,3728.72,2816.92,2835.38,0
11_33_51,117,2783.08,2833.85,2797.44,2782.05,2784.62,2788.21,2818.97,2815.38,2829.74,2819.49,2867.18,3729.74,2821.03,2834.36,0
11_33_51,118,2788.72,2829.23,2796.92,2781.54,2787.69,2787.69,2819.49,2818.97,2833.33,2823.59,2867.18,3735.9,2821.03,2834.36,0
11_33_51,119,2791.28,2829.74,2796.92,2782.56,2788.72,2792.82,2818.97,2818.97,2834.87,2830.77,2868.72,3735.38,2818.46,2836.41,0
11_33_51,120,2791.28,2834.36,2800,2788.21,2788.21,2797.95,2820,2819.49,2837.44,2833.85,2868.21,3731.79,2822.56,2837.44,0
11_33_51,121,2791.79,2836.92,2800,2789.23,2790.26,2796.92,2820,2819.49,2846.15,2832.31,2868.72,3736.92,2823.59,2833.85,0
11_33_51,122,2793.33,2836.41,2798.97,2788.72,2796.41,2795.9,2820.51,2818.97,2847.18,2832.82,2869.23,3744.62,2822.05,2835.38,0
11_33_51,123,2795.38,2835.38,2802.56,2795.9,2799.49,2799.49,2823.59,2818.97,2841.54,2833.33,2867.18,3744.1,2826.67,2842.05,0
11_33_51,124,2794.36,2837.95,2804.62,2800,2798.46,2803.59,2824.1,2820,2843.08,2833.85,2869.74,3744.1,2827.69,2844.1,0
11_33_51,125,2794.36,2840,2802.05,2793.85,2797.44,2803.59,2826.67,2821.54,2848.72,2834.87,2880,3748.21,2825.13,2841.54,0
11_33_51,126,2802.05,2839.49,2804.62,2794.36,2798.46,2801.54,2834.36,2820.51,2849.74,2834.87,2885.13,3749.23,2830.26,2841.03,0
11_33_51,127,2806.15,2840.51,2807.69,2803.59,2801.03,2801.54,2836.92,2823.08,2849.74,2834.36,2883.08,3750.26,2836.41,2844.62,0
11_33_51,128,2803.59,2844.62,2806.67,2804.62,2803.59,2804.62,2833.33,2831.28,2850.26,2835.38,2883.59,3753.33,2835.38,2848.72,0
11_33_51,0,2802.56,2845.64,2810.26,2801.54,2802.56,2806.15,2833.85,2834.87,2850.26,2836.92,2885.13,3754.36,2834.36,2850.77,0
11_33_51,1,2805.13,2843.59,2814.36,2803.59,2801.03,2803.08,2836.41,2833.85,2851.79,2835.9,2883.08,3754.36,2833.85,2850.26,0
11_33_51,2,2806.67,2846.67,2813.33,2803.59,2805.13,2805.64,2835.38,2834.36,2851.28,2834.87,2882.56,3756.92,2831.79,2850.77,0
11_33_51,3,2809.74,2849.23,2815.9,2801.03,2805.13,2812.31,2835.38,2834.87,2851.28,2842.56,2886.15,3755.38,2834.36,2852.31,0
11_33_51,4,2810.26,2846.67,2820.51,2802.56,2803.08,2814.36,2835.9,2833.85,2852.82,2852.31,2885.64,3760,2836.92,2851.28,0
11_33_51,5,2809.23,2847.69,2820,2802.56,2809.23,2815.38,2835.9,2832.82,2852.31,2852.31,2885.13,3770.77,2840,2851.79,0
11_33_51,6,2811.28,2851.79,2818.46,2805.64,2816.41,2818.46,2836.92,2833.85,2854.36,2849.74,2893.33,3770.77,2839.49,2852.82,0
11_33_51,7,2813.85,2852.31,2820.51,2814.36,2816.41,2818.46,2836.92,2835.38,2861.54,2850.77,2897.95,3765.64,2834.36,2853.85,0
11_33_51,8,2814.36,2852.31,2819.49,2818.46,2816.41,2816.92,2836.92,2836.41,2867.69,2851.28,2895.38,3766.67,2836.92,2854.36,0
11_33_51,9,2813.33,2853.33,2820.51,2817.95,2818.46,2818.97,2838.46,2836.92,2866.15,2850.77,2897.44,3770.26,2847.69,2852.82,0
11_33_51,10,2814.87,2855.38,2821.54,2817.95,2818.46,2820,2843.08,2838.97,2864.62,2851.28,2901.03,3769.74,2852.31,2858.46,0
11_33_51,11,2817.95,2858.46,2819.49,2816.41,2817.95,2817.95,2848.21,2844.1,2867.69,2850.26,2899.49,3769.23,2850.77,2864.1,0
11_33_51,12,2818.97,2858.46,2825.13,2816.41,2817.95,2817.95,2850.77,2846.15,2868.21,2851.28,2898.97,3773.85,2850.26,2864.1,0
11_33_51,13,2820,2858.97,2834.87,2820.51,2818.46,2820.51,2851.28,2845.64,2866.67,2851.28,2901.03,3778.97,2851.79,2864.1,0
11_33_51,14,2822.56,2864.1,2835.9,2820.51,2821.03,2820.51,2851.28,2849.23,2866.15,2850.26,2901.54,3780.51,2851.79,2863.59,0
11_33_51,15,2818.97,2865.13,2833.33,2816.92,2819.49,2820,2851.28,2851.79,2867.18,2857.44,2901.03,3782.56,2850.26,2863.59,0
11_33_51,16,2819.49,2863.08,2834.87,2819.49,2818.97,2829.74,2852.31,2850.26,2870.26,2867.18,2901.54,3783.59,2852.31,2866.15,0
11_33_51,17,2829.23,2865.13,2835.9,2821.54,2821.03,2836.41,2852.31,2849.74,2870.77,2867.69,2907.69,3784.1,2853.33,2867.69,0
11_33_51,18,2833.85,2867.69,2834.87,2818.97,2819.49,2833.33,2853.85,2852.82,2866.67,2865.13,2912.31,3787.69,2851.28,2869.23,0
11_33_51,19,2829.23,2865.64,2835.38,2823.59,2824.62,2832.82,2853.33,2852.31,2872.82,2866.15,2908.72,3784.1,2856.41,2869.23,0
11_33_51,20,2828.72,2867.18,2835.9,2833.85,2835.38,2836.41,2850.26,2851.79,2880.51,2866.15,2908.72,3782.05,2862.56,2867.18,0
11_33_51,21,2834.36,2868.72,2834.87,2835.9,2837.44,2834.87,2857.95,2852.82,2876.92,2865.13,2915.38,3792.82,2862.05,2870.26,0
11_33_51,22,2834.87,2869.74,2836.41,2832.82,2832.82,2834.36,2864.62,2851.79,2876.41,2867.18,2917.95,3798.97,2862.05,2874.36,0
11_33_51,23,2832.82,2872.82,2839.49,2833.85,2833.33,2835.9,2856.92,2853.33,2883.59,2867.69,2915.38,3795.9,2865.13,2872.82,0
11_33_51,24,2834.36,2874.36,2838.97,2835.38,2834.36,2834.87,2857.44,2853.33,2884.1,2867.18,2914.87,3798.46,2865.64,2874.36,0
11_33_51,25,2836.92,2874.87,2842.05,2834.87,2833.85,2836.92,2868.72,2851.28,2881.54,2867.18,2916.41,3800.51,2866.67,2878.97,0
11_33_51,26,2836.41,2873.33,2850.26,2835.38,2835.38,2836.41,2869.23,2857.44,2883.59,2867.18,2917.44,3798.46,2868.72,2881.03,0
11_33_51,27,2836.41,2875.9,2851.79,2835.38,2837.44,2837.95,2865.13,2867.69,2883.59,2868.72,2916.92,3800.51,2867.69,2882.56,0
11_33_51,28,2837.44,2879.49,2849.23,2836.41,2835.9,2844.1,2869.23,2868.72,2883.59,2868.72,2915.38,3803.08,2869.23,2883.59,0
11_33_51,29,2838.97,2880.51,2850.77,2838.46,2837.95,2844.1,2869.23,2865.13,2884.62,2869.74,2922.56,3799.49,2869.23,2882.56,0
11_33_51,38,2851.79,2888.21,2857.95,2850.77,2851.79,2852.31,2883.08,2868.21,2898.97,2882.05,2934.36,3816.92,2887.69,2894.36,0
11_33_51,39,2851.79,2893.85,2865.13,2851.79,2853.85,2852.82,2882.56,2873.33,2902.05,2883.08,2932.82,3817.44,2884.1,2895.9,0
11_33_51,40,2854.87,2888.21,2865.13,2851.28,2851.28,2853.85,2882.05,2883.59,2900.51,2886.15,2935.9,3817.44,2883.08,2897.95,0
11_33_51,41,2859.49,2889.23,2863.59,2852.82,2848.72,2851.79,2883.59,2884.1,2900,2885.13,2942.05,3819.49,2887.69,2898.46,0
11_33_51,42,2859.49,2898.46,2863.08,2852.82,2859.49,2854.87,2884.1,2880.51,2898.97,2886.15,2941.03,3826.15,2886.15,2897.44,0
11_33_51,43,2857.95,2897.95,2863.59,2851.79,2867.69,2865.13,2883.08,2882.05,2898.97,2893.33,2940.51,3831.28,2884.62,2899.49,0
11_33_51,44,2860.51,2895.38,2866.67,2856.41,2861.03,2869.74,2884.1,2883.59,2900,2895.9,2943.08,3830.26,2887.18,2900.51,0
11_33_52,45,2864.62,2898.46,2869.23,2863.59,2861.03,2866.67,2883.59,2884.1,2900.51,2893.85,2941.54,3832.31,2885.13,2901.03,0
11_33_52,46,2867.69,2898.97,2867.69,2865.64,2869.74,2866.15,2884.62,2885.13,2902.05,2897.44,2942.56,3834.36,2885.13,2900.51,0
11_33_52,47,2868.21,2898.97,2868.72,2867.18,2868.21,2868.21,2887.69,2884.1,2902.56,2900,2949.23,3832.82,2892.82,2898.46,0
11_33_52,48,2865.64,2900.51,2870.77,2868.72,2865.64,2867.69,2887.69,2885.13,2901.54,2898.46,2949.23,3831.28,2898.46,2902.56,0
11_33_52,49,2867.18,2898.46,2868.21,2867.18,2869.74,2866.67,2889.23,2885.64,2908.21,2898.46,2946.67,3831.28,2896.41,2907.69,0
11_33_52,50,2869.74,2901.03,2871.79,2866.67,2870.26,2868.21,2893.85,2882.05,2914.36,2898.97,2947.69,3834.87,2895.38,2907.69,0
11_33_52,51,2867.69,2905.13,2880.51,2868.21,2868.21,2869.23,2896.92,2887.18,2912.82,2898.97,2949.74,3838.46,2898.46,2908.21,0
11_33_52,52,2867.18,2904.1,2884.1,2867.69,2868.72,2867.18,2897.95,2897.95,2913.33,2901.03,2950.26,3838.97,2898.46,2913.33,0
11_33_52,53,2869.74,2905.13,2880.51,2867.18,2868.72,2873.33,2899.49,2897.95,2916.41,2901.03,2948.72,3839.49,2898.97,2914.36,0
11_33_52,54,2871.79,2910.26,2878.97,2869.74,2869.23,2881.54,2898.97,2894.87,2915.9,2901.03,2951.28,3842.56,2901.54,2910.26,0
11_33_52,55,2875.38,2910.77,2881.54,2868.21,2868.21,2881.54,2899.49,2898.97,2913.85,2901.54,2956.92,3844.62,2901.03,2912.31,0
11_33_52,56,2878.97,2906.67,2884.1,2869.23,2870.77,2880.51,2901.54,2900.51,2916.41,2900.51,2960,3846.15,2899.49,2915.9,0
11_33_52,57,2880,2909.23,2884.62,2878.97,2877.95,2884.1,2900,2898.46,2916.92,2902.05,2960,3847.69,2899.49,2915.38,0
11_33_52,58,2876.41,2913.33,2883.59,2884.62,2883.59,2884.1,2899.49,2900.51,2916.92,2907.69,2960,3846.67,2901.03,2916.41,0
11_33_52,59,2875.9,2913.85,2884.1,2881.03,2882.05,2881.54,2901.54,2901.54,2917.44,2912.82,2960.51,3848.21,2902.05,2917.44,0
11_33_52,60,2880.51,2913.33,2886.15,2881.54,2882.05,2883.59,2899.49,2900,2916.92,2914.87,2960,3849.74,2901.03,2916.92,0
11_33_52,61,2883.59,2914.36,2884.62,2885.64,2884.62,2884.1,2902.56,2901.03,2920.51,2915.38,2962.56,3847.69,2903.59,2915.9,0
11_33_52,62,2883.08,2915.38,2883.59,2884.1,2884.1,2882.56,2906.15,2900.51,2926.67,2914.87,2965.64,3849.74,2910.26,2916.92,0
11_33_52,63,2883.08,2915.38,2889.23,2883.08,2882.56,2883.59,2905.13,2900.51,2924.1,2914.87,2964.62,3855.38,2914.87,2918.46,0
11_33_52,64,2883.08,2920,2895.38,2884.1,2884.1,2885.13,2908.21,2904.1,2918.97,2915.9,2962.05,3854.87,2913.33,2921.54,0
11_33_52,65,2885.64,2922.05,2896.92,2883.59,2885.13,2883.08,2914.36,2909.23,2925.64,2916.92,2966.67,3853.33,2911.28,2927.69,0
11_33_52,66,2889.23,2914.87,2896.41,2884.1,2884.1,2884.62,2914.36,2912.31,2932.82,2916.41,2975.38,3860.51,2914.87,2929.23,0
11_33_52,67,2890.26,2914.87,2897.44,2884.1,2884.1,2893.33,2913.85,2914.36,2930.77,2916.92,2974.87,3865.13,2917.44,2929.23,0
11_33_52,68,2890.77,2924.62,2898.46,2885.13,2886.15,2898.46,2916.92,2914.87,2929.74,2917.95,2972.82,3862.05,2914.36,2930.26,0
11_33_52,69,2892.31,2929.74,2900,2886.67,2887.69,2896.41,2915.9,2913.85,2932.82,2917.95,2974.36,3862.05,2912.82,2930.26,0
11_33_52,70,2893.85,2926.67,2900.51,2885.13,2892.31,2896.92,2914.87,2914.87,2932.31,2919.49,2974.87,3865.13,2915.9,2930.26,0
11_33_52,71,2894.36,2926.67,2898.97,2889.23,2897.44,2900.51,2915.38,2915.9,2931.79,2925.13,2974.87,3865.13,2918.97,2931.28,0
11_33_52,72,2895.9,2929.74,2900,2898.97,2897.44,2901.03,2913.85,2914.87,2932.31,2929.74,2977.44,3865.13,2915.9,2931.79,0
11_33_52,73,2897.44,2930.26,2902.05,2901.54,2897.95,2900,2915.38,2915.38,2932.31,2930.77,2977.95,3866.15,2916.92,2933.33,0
11_33_52,74,2897.95,2929.23,2900.51,2897.95,2900.51,2899.49,2914.87,2916.92,2934.36,2931.28,2976.92,3865.64,2924.1,2932.31,0
11_33_52,75,2897.95,2930.77,2900.51,2898.46,2901.03,2900,2915.9,2917.44,2940.51,2931.79,2979.49,3870.26,2926.67,2931.28,0
11_33_52,76,2897.44,2932.31,2907.18,2900,2898.97,2900.51,2925.64,2916.41,2943.59,2931.79,2980.51,3875.9,2925.64,2937.44,0
11_33_52,77,2900.51,2930.77,2913.33,2900,2901.03,2900,2931.79,2917.44,2940.51,2932.31,2980.51,3873.33,2927.69,2940.51,0
11_33_52,78,2902.05,2932.82,2911.28,2900.51,2903.08,2901.54,2928.72,2920.51,2942.05,2932.82,2981.54,3872.82,2930.26,2938.46,0
11_33_52,79,2898.97,2935.9,2908.72,2900,2900.51,2904.1,2927.69,2920,2944.62,2930.77,2983.08,3877.95,2929.23,2942.05,0
11_33_52,80,2901.03,2933.85,2913.33,2901.03,2901.54,2906.15,2930.26,2920.51,2943.08,2932.82,2987.69,3880,2930.77,2946.15,0
11_33_52,81,2908.72,2936.41,2916.41,2903.08,2910.77,2909.74,2929.74,2926.67,2944.1,2937.95,2990.26,3880.51,2932.82,2943.59,0
11_33_52,82,2910.26,2944.1,2914.87,2900,2914.87,2911.79,2930.26,2932.31,2945.64,2936.41,2987.69,3882.56,2930.77,2943.59,0
11_33_52,83,2909.23,2946.67,2915.38,2900.51,2911.79,2912.82,2931.28,2931.79,2945.64,2935.9,2989.23,3882.56,2932.82,2946.15,0
11_33_52,84,2912.82,2944.1,2917.95,2907.69,2913.85,2915.9,2931.79,2932.31,2947.18,2942.56,2992.31,3882.56,2934.87,2945.13,0
11_33_52,85,2914.36,2943.59,2917.95,2911.28,2916.41,2916.92,2933.33,2933.33,2948.72,2944.62,2991.79,3882.05,2931.79,2946.67,0
11_33_52,86,2912.82,2946.15,2915.9,2911.28,2914.36,2914.87,2933.85,2932.82,2947.18,2940,2991.79,3882.56,2931.28,2949.23,0
11_33_52,87,2914.87,2947.18,2915.9,2914.36,2915.38,2914.87,2935.38,2933.33,2947.18,2944.1,2990.77,3890.77,2937.44,2948.72,0
11_33_52,88,2916.92,2945.64,2916.92,2916.41,2916.92,2916.92,2937.44,2932.31,2950.77,2950.77,2992.31,3895.9,2940.51,2947.69,0
11_33_52,89,2915.9,2945.64,2915.9,2915.9,2915.9,2915.9,2935.38,2931.28,2949.23,2948.21,2999.49,3893.85,2940.51,2951.28,0
11_33_52,90,2915.9,2948.72,2916.41,2915.38,2916.41,2917.95,2932.82,2935.9,2947.69,2947.18,3003.08,3894.36,2946.15,2954.87,0
11_33_52,91,2914.87,2948.72,2923.59,2915.9,2917.95,2917.44,2935.9,2936.92,2952.31,2949.23,3000.51,3896.41,2948.21,2953.33,0
11_33_52,92,2916.92,2945.64,2929.23,2916.41,2916.92,2916.41,2940.51,2931.28,2958.97,2950.26,2999.49,3894.36,2943.08,2954.36,0
11_33_52,93,2916.41,2948.21,2927.69,2916.41,2917.44,2920.51,2943.59,2936.92,2960.51,2948.72,3004.1,3894.36,2943.59,2959.49,0
11_33_52,94,2914.87,2954.87,2927.69,2916.92,2923.59,2925.64,2945.64,2947.18,2960.51,2948.72,3007.18,3897.44,2947.18,2962.05,0
11_33_52,95,2921.54,2960.51,2931.79,2916.92,2926.67,2927.18,2945.64,2946.15,2964.62,2950.26,3006.67,3895.9,2946.15,2960,0
11_33_52,96,2929.23,2958.46,2932.82,2917.44,2923.59,2926.67,2947.18,2943.59,2965.64,2948.72,3006.15,3897.95,2948.21,2957.95,0
11_33_52,97,2928.72,2954.36,2931.79,2923.08,2924.1,2928.21,2947.18,2947.18,2960.51,2949.23,3006.67,3903.59,2950.77,2959.49,0
11_33_52,98,2928.21,2956.41,2931.28,2928.21,2926.67,2930.77,2947.18,2948.21,2960.51,2955.38,3007.69,3903.59,2946.67,2962.05,0
11_33_52,99,2931.28,2961.03,2931.79,2928.72,2926.15,2932.82,2948.72,2946.67,2965.64,2959.49,3006.15,3903.08,2946.15,2961.54,0
11_33_52,100,2930.77,2958.97,2932.31,2929.23,2928.72,2932.31,2948.72,2947.69,2965.64,2957.44,3007.18,3906.67,2955.9,2962.05,0
11_33_52,101,2928.72,2957.44,2931.79,2931.28,2932.82,2931.28,2948.72,2948.72,2961.54,2956.41,3009.74,3907.18,2960.51,2963.59,0
11_33_52,102,2929.74,2961.54,2933.85,2932.82,2932.82,2932.31,2953.33,2948.21,2967.69,2960.51,3010.77,3906.15,2954.36,2962.05,0
11_33_52,103,2932.31,2963.59,2934.36,2932.82,2934.36,2932.31,2958.97,2948.21,2973.33,2964.1,3012.82,3909.23,2955.38,2967.18,0
11_33_52,104,2932.82,2962.56,2932.82,2931.28,2933.33,2934.87,2956.92,2948.72,2964.62,2964.62,3017.44,3911.79,2962.05,2971.79,0
11_33_52,105,2932.31,2964.1,2937.44,2931.28,2930.77,2935.38,2954.87,2950.77,2961.54,2963.59,3021.03,3911.28,2961.03,2968.21,0
11_33_52,106,2933.85,2964.1,2943.08,2933.85,2934.36,2934.87,2956.92,2949.74,2971.28,2964.1,3022.56,3912.82,2960,2967.69,0
11_33_52,107,2935.38,2963.08,2944.1,2933.33,2937.44,2940.51,2958.46,2949.23,2976.41,2964.62,3022.56,3916.92,2961.54,2975.9,0
11_33_52,108,2938.97,2967.18,2945.64,2932.82,2931.79,2945.13,2956.41,2954.36,2974.36,2964.62,3021.54,3917.44,2961.54,2977.95,0
11_33_52,109,2943.59,2967.69,2947.69,2938.46,2932.31,2942.05,2956.41,2957.95,2974.36,2966.15,3022.05,3917.44,2961.54,2974.87,0
11_33_52,110,2944.1,2966.15,2947.18,2943.08,2941.03,2941.54,2961.03,2958.46,2974.87,2966.67,3023.59,3920.51,2962.56,2975.9,0
11_33_52,111,2943.59,2970.26,2948.21,2943.08,2944.62,2946.15,2965.13,2961.03,2976.92,2964.62,3023.08,3918.46,2963.59,2976.41,0
11_33_52,112,2945.64,2975.9,2949.23,2941.03,2946.15,2945.64,2963.59,2965.13,2980.51,2967.18,3022.05,3916.92,2963.59,2976.41,0
11_33_52,113,2946.15,2973.85,2948.21,2941.03,2946.67,2946.15,2962.56,2964.62,2980.51,2973.85,3022.56,3925.13,2964.1,2978.46,0
11_33_52,114,2946.15,2974.36,2953.33,2943.59,2944.1,2947.69,2965.13,2964.1,2978.97,2975.38,3025.13,3928.72,2966.67,2979.49,0
11_33_52,115,2948.72,2978.46,2958.97,2948.21,2945.64,2949.74,2964.62,2964.62,2981.03,2974.36,3028.21,3924.62,2972.82,2980,0
11_33_52,116,2948.72,2977.95,2957.44,2949.23,2949.23,2949.23,2965.64,2963.59,2982.56,2975.38,3027.69,3925.13,2973.85,2980.51,0
11_33_52,117,2945.13,2978.46,2956.92,2948.72,2947.69,2948.21,2972.31,2968.21,2981.54,2974.87,3027.69,3928.72,2972.31,2978.97,0
11_33_52,118,2948.21,2982.05,2957.95,2949.23,2947.18,2948.72,2975.38,2973.85,2981.03,2976.41,3031.79,3927.18,2974.87,2981.03,0
11_33_52,119,2953.33,2980.51,2958.97,2947.69,2949.23,2948.72,2972.82,2973.33,2980,2981.03,3034.36,3929.23,2974.87,2985.64,0
11_33_52,120,2951.28,2980,2959.49,2949.74,2948.72,2950.77,2972.31,2972.31,2981.54,2981.03,3034.87,3932.31,2973.85,2986.67,0
11_33_52,121,2951.28,2985.13,2958.97,2956.41,2953.85,2956.92,2973.33,2973.33,2988.21,2979.49,3036.41,3933.85,2976.92,2987.18,0
11_33_52,122,2957.95,2984.1,2960.51,2958.97,2959.49,2958.97,2973.85,2972.82,2991.28,2980.51,3037.95,3934.36,2979.49,2991.28,0
11_33_52,123,2961.54,2982.05,2962.05,2957.44,2958.97,2956.92,2973.33,2972.82,2990.26,2979.49,3037.95,3935.38,2978.46,2990.77,0
11_33_52,124,2960,2985.64,2961.03,2957.95,2957.44,2957.44,2972.82,2974.87,2991.28,2980,3037.95,3937.44,2980,2989.74,0
11_33_52,125,2960.51,2987.69,2962.05,2957.95,2957.95,2961.03,2975.9,2974.87,2991.28,2986.67,3038.97,3940,2981.03,2992.82,0
11_33_52,126,2962.05,2988.72,2965.13,2958.46,2958.46,2963.08,2977.95,2976.92,2988.72,2990.77,3039.49,3941.03,2981.03,2994.87,0
11_33_52,127,2961.54,2989.74,2964.1,2961.03,2962.05,2963.08,2977.95,2980,2990.26,2989.74,3041.03,3941.54,2985.13,2993.85,0
11_33_52,128,2962.05,2990.77,2966.67,2962.05,2966.15,2964.1,2979.49,2980,2990.77,2989.74,3038.97,3942.56,2986.15,2994.36,0
11_33_52,0,2966.67,2991.79,2973.85,2962.05,2964.62,2964.62,2981.03,2981.03,2991.79,2990.77,3042.05,3944.1,2983.08,2993.85,0
11_33_52,1,2970.26,2992.82,2974.87,2963.59,2962.56,2963.59,2981.03,2980.51,2993.33,2990.77,3049.74,3944.1,2987.69,2994.36,0
11_33_52,2,2965.64,2991.79,2971.28,2963.08,2963.59,2968.21,2984.1,2980,2993.33,2990.77,3049.74,3943.08,2992.31,2998.97,0
11_33_52,3,2961.54,2992.82,2970.77,2963.08,2965.13,2971.79,2990.26,2986.15,2995.9,2990.77,3047.18,3943.59,2989.23,2999.49,0
11_33_52,4,2967.18,2993.85,2972.31,2964.62,2964.62,2966.67,2991.28,2991.28,3001.54,2992.82,3050.77,3947.69,2990.26,3000,0
11_33_52,5,2970.77,2992.82,2975.38,2965.13,2963.08,2961.54,2989.74,2988.72,3004.1,2995.38,3054.36,3951.79,2994.36,3003.08,0
11_33_52,6,2968.72,2996.41,2976.92,2968.21,2967.18,2967.18,2989.23,2986.67,3006.15,2995.38,3054.36,3952.31,2992.31,3002.05,0
11_33_52,7,2971.28,2999.49,2975.9,2973.85,2973.33,2973.85,2990.26,2988.21,3009.23,2998.46,3054.87,3952.82,2990.26,3002.05,0
11_33_52,8,2976.41,3001.03,2976.41,2974.36,2974.36,2973.85,2990.26,2987.69,3009.23,3004.1,3055.9,3954.87,2993.33,3007.69,0
11_33_52,9,2976.41,3001.54,2977.95,2972.82,2971.79,2972.82,2989.74,2988.72,3008.72,3005.13,3054.87,3955.38,2996.92,3010.26,0
11_33_52,10,2975.9,2999.49,2977.95,2974.87,2972.82,2974.87,2990.77,2990.77,3009.23,3004.62,3053.85,3954.87,2996.92,3007.18,0
11_33_52,11,2977.95,3001.54,2979.49,2974.87,2974.87,2976.92,2990.77,2991.79,3008.21,3005.64,3055.38,3956.41,2994.36,3006.15,0
11_33_52,12,2977.44,3007.18,2981.03,2973.33,2975.38,2975.9,2991.79,2992.82,3008.72,3006.15,3056.41,3957.95,2998.46,3007.18,0
11_33_52,13,2976.92,3007.18,2981.03,2975.9,2976.92,2975.38,2994.87,2994.87,3009.23,3006.15,3056.41,3958.97,3004.62,3009.74,0
11_33_52,14,2980.51,3004.62,2984.62,2980,2979.49,2978.97,2997.44,2995.38,3007.18,3006.67,3054.36,3960,2998.97,3009.23,0
11_33_52,15,2980.51,3007.69,2991.79,2981.03,2980.51,2982.05,2999.49,2995.38,3009.23,3006.67,3054.36,3961.03,2995.9,3009.74,0
11_33_52,16,2977.95,3009.74,2992.31,2980,2979.49,2980,3002.56,2995.9,3014.87,3005.64,3061.03,3963.59,3004.62,3016.41,0
11_33_52,17,2982.56,3008.21,2989.74,2981.03,2982.56,2982.05,3004.1,2997.95,3016.92,3006.67,3063.59,3967.18,3008.72,3018.46,0
11_33_52,18,2986.67,3009.74,2989.23,2981.54,2988.72,2985.64,3004.62,3000,3013.33,3010.26,3063.59,3968.21,3006.67,3016.41,0
11_33_52,19,2984.62,3009.74,2990.26,2979.49,2991.28,2985.64,3006.15,3002.05,3015.38,3009.74,3067.18,3968.72,3005.64,3018.97,0
11_33_52,20,2987.69,3007.69,2991.28,2982.56,2989.74,2987.69,3005.13,3005.13,3021.03,3006.15,3068.21,3969.74,3007.18,3022.05,0
11_33_52,21,2992.82,3010.26,2989.23,2989.23,2989.23,2990.77,3003.08,3006.15,3021.54,3009.23,3067.69,3969.23,3010.26,3021.54,0
11_33_52,22,2990.77,3014.36,2989.74,2991.28,2989.23,2990.77,3005.64,3005.64,3021.03,3016.92,3070.26,3969.74,3009.23,3021.03,0
11_33_52,23,2989.23,3014.87,2994.36,2989.23,2988.21,2990.26,3006.67,3005.64,3022.56,3020.51,3070.77,3970.77,3006.67,3021.54,0
11_33_52,24,2992.82,3012.82,2995.38,2990.26,2988.21,2991.28,3006.15,3006.67,3022.05,3020.51,3068.72,3970.26,3012.31,3022.05,0
11_33_52,25,2993.33,3015.38,2995.38,2990.77,2988.72,2990.77,3006.67,3008.21,3020.51,3021.54,3071.79,3973.33,3017.95,3023.08,0
11_33_52,26,2991.28,3021.03,2999.49,2990.26,2989.23,2992.31,3006.67,3007.69,3022.05,3022.56,3072.31,3975.38,3012.82,3021.03,0
11_33_52,27,2992.31,3019.49,3003.59,2992.31,2990.26,2992.82,3007.69,3007.69,3023.08,3023.59,3069.74,3975.38,3012.82,3024.1,0
11_33_52,28,2996.92,3017.95,3005.64,2994.36,2993.33,2991.79,3009.74,3009.23,3021.03,3023.59,3072.82,3977.95,3017.95,3029.23,0
11_33_52,29,3000,3023.59,3006.15,2992.82,2997.44,2993.85,3010.26,3008.72,3021.54,3022.56,3073.33,3981.03,3016.92,3028.72,0
11_33_52,30,2995.38,3023.59,3005.13,2991.79,2997.44,2996.92,3012.31,3010.26,3026.15,3021.54,3071.28,3983.59,3017.44,3024.1,0
11_33_52,31,2994.36,3021.03,3005.64,2996.41,2995.38,3000,3016.41,3014.87,3026.15,3022.56,3075.38,3985.13,3018.46,3025.64,0
11_33_52,32,3001.54,3026.67,3007.18,3000,2999.49,3004.62,3020.51,3017.95,3025.64,3023.08,3080.51,3985.13,3018.97,3030.26,0
11_33_52,33,3002.05,3030.77,3005.64,3000.51,3006.15,3006.67,3021.03,3020.51,3030.26,3022.56,3082.05,3984.62,3022.56,3028.21,0
11_33_52,34,3000.51,3024.62,3004.1,3003.59,3006.15,3005.13,3021.03,3023.08,3035.9,3026.15,3082.05,3987.69,3023.59,3026.15,0
11_33_52,35,3004.62,3023.59,3007.18,3006.67,3003.08,3005.64,3021.54,3022.56,3034.87,3030.26,3083.59,3987.69,3022.05,3029.74,0
11_33_52,36,3006.15,3028.21,3006.67,3006.15,3004.1,3007.18,3023.08,3021.03,3032.82,3031.28,3086.15,3985.64,3024.1,3035.9,0
11_33_52,37,3006.15,3025.64,3006.67,3006.15,3005.13,3006.67,3023.59,3022.05,3036.41,3031.79,3086.67,3988.21,3026.15,3038.46,0
11_33_52,38,3008.21,3024.62,3008.21,3009.23,3004.1,3006.15,3023.08,3022.56,3038.97,3035.38,3086.67,3989.74,3024.62,3037.44,0
11_33_52,39,3008.72,3028.21,3012.82,3009.74,3006.15,3006.67,3022.05,3021.54,3038.97,3037.44,3087.69,3990.77,3025.13,3037.95,0
11_33_53,40,3008.72,3029.23,3014.36,3007.69,3008.21,3007.69,3021.54,3021.54,3037.95,3037.44,3088.72,3992.31,3027.18,3038.46,0
11_33_53,41,3009.74,3029.23,3012.82,3007.69,3007.69,3008.72,3022.56,3022.56,3037.95,3037.44,3087.69,3992.31,3028.21,3038.97,0
11_33_53,42,3009.74,3033.33,3013.33,3011.28,3007.69,3010.77,3023.59,3025.13,3037.95,3037.95,3087.69,3993.33,3029.23,3040,0
11_33_53,43,3011.28,3036.41,3017.95,3011.79,3008.72,3012.82,3022.05,3025.13,3037.44,3038.46,3088.21,3995.9,3031.28,3040.51,0
11_33_53,44,3015.38,3034.36,3022.05,3010.26,3011.28,3014.36,3023.08,3022.56,3037.44,3037.44,3090.26,3995.9,3034.36,3040.51,0
11_33_53,45,3016.92,3034.87,3021.54,3014.36,3014.87,3016.41,3029.23,3026.67,3038.46,3037.44,3094.87,3997.44,3035.9,3041.03,0
11_33_53,46,3016.92,3038.97,3021.03,3017.95,3018.46,3016.41,3033.33,3031.79,3040.51,3039.49,3096.41,3998.97,3034.36,3043.59,0
11_33_53,47,3016.92,3037.95,3022.56,3017.95,3017.95,3018.46,3035.9,3030.26,3038.97,3040,3097.95,3998.46,3035.38,3044.62,0
11_33_53,48,3016.41,3038.46,3023.08,3021.03,3016.92,3022.05,3034.87,3030.77,3036.92,3038.46,3099.49,4000,3040,3045.13,0
11_33_53,49,3017.44,3040.51,3023.08,3025.13,3019.49,3023.08,3031.79,3036.92,3043.08,3037.44,3097.95,4003.08,3038.46,3048.21,0
11_33_53,50,3022.05,3041.03,3023.08,3023.59,3022.56,3022.05,3034.36,3037.95,3049.23,3038.46,3098.97,4001.54,3036.92,3051.79,0
11_33_53,51,3023.08,3041.54,3023.59,3023.08,3023.08,3021.03,3040,3036.41,3049.74,3037.95,3102.56,4003.08,3040.51,3051.28,0
11_33_53,52,3021.03,3044.62,3023.08,3023.59,3023.08,3021.54,3037.95,3039.49,3051.28,3037.44,3103.08,4006.15,3043.08,3048.21,0
11_33_53,53,3022.05,3046.67,3021.03,3023.08,3023.08,3021.03,3035.9,3038.97,3054.36,3042.05,3101.54,4004.62,3041.03,3050.77,0
11_33_53,54,3026.15,3044.62,3022.56,3023.59,3022.05,3023.08,3038.46,3037.44,3054.36,3050.26,3103.08,4006.15,3042.05,3055.38,0
11_33_53,55,3023.59,3045.13,3028.21,3022.56,3021.03,3023.59,3037.95,3038.46,3054.36,3054.87,3104.1,4011.28,3044.62,3054.36,0
11_33_53,56,3023.59,3047.18,3033.85,3022.56,3023.08,3020.51,3038.46,3040.51,3055.9,3053.85,3104.62,4009.74,3043.59,3053.33,0
11_33_53,57,3029.74,3049.23,3034.87,3025.13,3024.1,3024.1,3040,3041.54,3055.9,3052.82,3107.18,4008.72,3043.08,3054.36,0
11_33_53,58,3028.72,3050.77,3032.82,3025.64,3022.05,3030.77,3036.92,3040,3054.87,3054.36,3109.23,4014.36,3046.67,3056.41,0
11_33_53,59,3027.18,3052.82,3033.85,3025.64,3026.15,3029.74,3039.49,3040,3054.36,3054.87,3109.74,4013.85,3050.26,3055.9,0
11_33_53,60,3030.77,3053.33,3037.95,3027.69,3032.82,3027.18,3045.13,3042.56,3054.36,3053.85,3108.72,4009.23,3050.26,3052.82,0
11_33_53,61,3033.33,3051.28,3038.46,3030.26,3034.87,3031.79,3045.13,3046.15,3056.41,3053.33,3110.26,4015.38,3050.77,3057.44,0
11_33_53,62,3031.79,3053.33,3036.92,3034.87,3035.9,3036.41,3047.69,3046.15,3055.9,3054.87,3113.33,4020.51,3055.38,3062.05,0
11_33_53,63,3033.33,3056.92,3036.92,3037.95,3037.44,3036.92,3053.33,3049.74,3055.9,3055.9,3112.82,4016.41,3054.36,3059.49,0
11_33_53,64,3036.41,3056.92,3038.46,3035.9,3036.92,3037.95,3049.23,3054.36,3061.03,3054.87,3110.77,4017.44,3052.31,3062.05,0
11_33_53,65,3035.9,3056.41,3038.46,3036.92,3037.44,3037.95,3046.15,3048.21,3065.13,3054.36,3114.87,4021.03,3054.87,3070.26,0
11_33_53,66,3035.9,3055.38,3041.03,3040,3039.49,3036.92,3054.36,3046.67,3064.1,3058.97,3119.49,4018.97,3055.38,3067.69,0
11_33_53,67,3037.44,3056.92,3040.51,3038.46,3037.95,3037.44,3056.92,3054.87,3063.59,3065.13,3119.49,4018.46,3055.38,3063.08,0
11_33_53,68,3037.44,3062.56,3038.46,3037.44,3036.92,3038.46,3051.28,3056.41,3067.18,3064.1,3118.97,4020,3054.36,3068.72,0
11_33_53,69,3039.49,3064.62,3043.08,3038.97,3038.46,3040,3051.79,3053.33,3069.74,3062.05,3119.49,4021.03,3056.41,3071.79,0
11_33_53,70,3043.08,3060,3049.74,3038.97,3038.46,3037.95,3054.36,3054.87,3069.74,3067.18,3118.46,4024.62,3061.54,3069.74,0
11_33_53,71,3044.62,3060.51,3049.74,3037.95,3038.46,3038.46,3055.38,3055.38,3071.28,3070.77,3117.44,4026.67,3061.54,3069.74,0
11_33_53,72,3046.15,3067.18,3046.67,3037.95,3037.95,3040.51,3054.87,3054.87,3071.28,3069.74,3120,4024.62,3062.05,3068.72,0
11_33_53,73,3048.21,3067.18,3048.21,3039.49,3039.49,3040,3055.9,3057.44,3069.74,3070.26,3124.62,4026.15,3062.56,3070.77,0
11_33_53,74,3046.15,3064.62,3051.79,3038.97,3041.03,3042.05,3057.95,3055.9,3068.72,3071.28,3125.13,4031.79,3061.03,3071.28,0
11_33_53,75,3044.1,3066.15,3053.33,3040,3040,3048.21,3054.36,3057.95,3070.26,3071.28,3125.13,4032.82,3062.56,3069.74,0
11_33_53,76,3048.21,3067.69,3054.36,3047.18,3044.1,3053.33,3056.92,3063.59,3070.77,3071.28,3127.18,4032.31,3068.72,3071.28,0
11_33_53,77,3051.79,3069.23,3053.85,3049.74,3052.31,3051.79,3063.59,3062.56,3070.26,3072.31,3125.64,4035.9,3068.21,3074.36,0
11_33_53,78,3050.77,3070.77,3054.36,3048.21,3054.87,3049.23,3062.05,3061.03,3070.77,3072.31,3124.62,4036.41,3064.62,3076.41,0
11_33_53,79,3050.77,3068.72,3054.87,3052.31,3051.79,3051.79,3062.05,3064.1,3071.79,3071.28,3129.23,4034.36,3069.23,3077.44,0
11_33_53,80,3052.31,3070.77,3054.87,3055.38,3051.79,3055.9,3070.26,3063.59,3073.85,3071.79,3128.21,4034.36,3071.28,3081.54,0
11_33_53,81,3054.87,3075.9,3054.36,3051.79,3054.36,3054.87,3072.31,3064.1,3070.77,3072.31,3126.15,4036.41,3071.28,3082.05,0
11_33_53,82,3055.9,3076.41,3054.87,3052.82,3054.36,3052.82,3069.74,3069.74,3071.79,3070.77,3132.82,4034.87,3071.28,3080,0
11_33_53,83,3053.33,3073.33,3056.92,3054.87,3053.85,3055.38,3072.82,3070.77,3080,3072.31,3137.44,4034.87,3070.77,3081.54,0
11_33_53,84,3054.36,3074.87,3056.41,3054.36,3054.36,3055.9,3074.87,3068.72,3084.1,3077.95,3135.9,4040,3072.31,3083.59,0
11_33_53,85,3057.44,3080,3054.87,3056.41,3055.38,3054.87,3072.82,3068.72,3083.08,3080,3136.41,4041.03,3070.26,3084.62,0
11_33_53,86,3060,3080.51,3058.46,3055.9,3054.87,3055.9,3073.33,3069.74,3083.59,3080,3138.46,4040.51,3071.79,3084.62,0
11_33_53,87,3057.44,3078.97,3064.1,3053.33,3054.87,3055.9,3072.82,3070.26,3085.13,3081.03,3140.51,4045.13,3080.51,3086.15,0
11_33_53,88,3058.46,3080.51,3065.13,3055.9,3055.9,3056.41,3073.85,3071.79,3084.62,3080,3141.54,4047.18,3082.05,3086.67,0
11_33_53,89,3063.59,3083.08,3062.56,3055.9,3054.36,3056.41,3072.82,3071.79,3085.64,3082.05,3140.51,4045.13,3076.41,3085.64,0
11_33_53,90,3065.13,3082.56,3065.13,3053.85,3056.92,3054.87,3071.28,3071.79,3087.18,3087.18,3141.54,4047.18,3077.95,3087.69,0
11_33_53,91,3064.62,3082.05,3070.26,3058.97,3063.59,3058.97,3076.92,3072.82,3087.69,3087.18,3143.08,4050.77,3084.1,3088.72,0
11_33_53,92,3062.56,3086.15,3071.28,3065.64,3067.18,3063.08,3081.03,3070.26,3087.69,3086.67,3140.51,4049.74,3084.62,3088.72,0
11_33_53,93,3063.59,3086.15,3070.26,3066.67,3067.18,3062.56,3075.9,3072.31,3087.69,3089.23,3142.05,4052.82,3083.59,3090.26,0
11_33_53,94,3067.69,3083.59,3069.74,3067.18,3068.21,3064.1,3074.87,3078.46,3089.23,3088.72,3148.72,4053.85,3084.62,3090.26,0
11_33_53,95,3068.72,3085.64,3069.23,3068.72,3069.23,3069.74,3083.59,3081.03,3089.74,3086.67,3151.28,4049.23,3086.15,3092.31,0
11_33_53,96,3068.72,3090.26,3071.28,3069.23,3069.74,3071.28,3085.13,3081.54,3086.67,3088.21,3149.74,4051.28,3087.18,3095.9,0
11_33_53,97,3069.74,3088.72,3072.31,3070.26,3070.26,3069.74,3079.49,3084.62,3089.23,3089.74,3148.72,4055.38,3085.64,3093.33,0
11_33_53,98,3071.28,3084.62,3071.28,3070.77,3069.23,3069.74,3081.54,3086.67,3094.87,3087.18,3148.72,4053.85,3086.67,3090.77,0
11_33_53,99,3069.74,3087.69,3075.9,3070.77,3069.23,3069.74,3086.67,3086.15,3094.87,3088.72,3152.31,4051.79,3087.69,3095.9,0
11_33_53,100,3068.72,3093.33,3078.46,3071.79,3070.26,3071.28,3087.18,3085.64,3094.87,3097.44,3156.41,4053.85,3085.13,3102.56,0
11_33_53,101,3072.82,3095.38,3073.85,3070.77,3070.77,3071.28,3084.62,3085.64,3100,3100.51,3154.87,4056.92,3089.74,3104.1,0
11_33_53,102,3076.92,3095.9,3075.9,3071.28,3071.28,3069.74,3085.64,3087.18,3103.08,3096.41,3152.31,4058.97,3092.31,3104.1,0
11_33_53,103,3076.41,3097.95,3081.03,3071.79,3070.77,3072.82,3086.67,3088.72,3100.51,3098.97,3154.87,4058.97,3090.77,3103.59,0
11_33_53,104,3076.92,3097.95,3077.44,3070.26,3072.31,3075.38,3086.67,3087.18,3099.49,3104.1,3157.44,4057.95,3090.26,3103.08,0
11_33_53,105,3080.51,3094.87,3078.97,3073.85,3077.95,3075.9,3088.21,3086.15,3101.54,3101.54,3156.41,4060.51,3092.82,3103.59,0
11_33_53,106,3079.49,3093.33,3087.69,3080.51,3080,3074.36,3087.69,3087.18,3102.05,3100,3156.92,4064.62,3095.38,3101.54,0
11_33_53,107,3078.97,3096.92,3086.67,3081.54,3078.46,3074.36,3088.72,3087.69,3102.05,3102.56,3157.95,4065.13,3094.87,3101.03,0
11_33_53,108,3083.08,3099.49,3084.62,3077.95,3080,3081.54,3093.33,3086.67,3102.05,3103.08,3156.41,4067.18,3094.36,3105.13,0
11_33_53,109,3083.08,3097.95,3087.69,3078.46,3082.56,3086.15,3095.38,3089.74,3103.59,3103.08,3157.44,4069.74,3093.33,3109.74,0
11_33_53,110,3081.54,3097.95,3088.72,3080.51,3084.1,3082.56,3095.38,3095.9,3104.62,3104.62,3160,4070.26,3096.41,3111.79,0
11_33_53,111,3085.13,3102.56,3088.21,3081.54,3086.67,3083.59,3095.9,3096.41,3104.1,3104.62,3160.51,4068.21,3101.03,3109.74,0
11_33_53,112,3088.21,3103.08,3086.67,3083.59,3086.15,3087.69,3095.9,3095.9,3104.1,3104.62,3160.51,4066.15,3103.59,3109.74,0
11_33_53,113,3086.67,3101.03,3087.69,3086.67,3083.59,3086.67,3097.44,3099.49,3104.62,3104.62,3166.67,4066.15,3104.1,3111.79,0
11_33_53,114,3083.59,3104.1,3089.23,3087.69,3085.64,3086.67,3101.54,3099.49,3104.62,3104.1,3171.79,4069.23,3101.54,3110.77,0
11_33_53,115,3084.62,3105.64,3089.23,3086.15,3087.18,3088.21,3102.56,3096.92,3103.59,3107.18,3171.79,4070.77,3102.56,3109.23,0
11_33_53,116,3087.69,3105.13,3089.23,3085.13,3085.64,3087.69,3102.05,3096.92,3104.62,3110.77,3171.28,4071.28,3102.05,3113.33,0
11_33_53,117,3087.69,3107.18,3092.82,3086.15,3085.64,3088.21,3103.59,3096.41,3109.74,3110.77,3171.79,4074.87,3102.05,3118.97,0
11_33_53,118,3088.72,3110.26,3096.92,3087.69,3086.15,3088.72,3102.56,3095.9,3112.82,3110.26,3171.28,4075.38,3104.1,3118.46,0
11_33_53,119,3089.23,3108.72,3094.36,3086.15,3087.18,3088.21,3102.05,3100.51,3111.28,3112.31,3170.77,4073.85,3104.1,3116.92,0
11_33_53,120,3088.72,3107.69,3094.36,3087.69,3088.72,3088.72,3104.1,3103.59,3111.79,3113.33,3171.28,4075.9,3104.1,3117.44,0
11_33_53,121,3090.26,3110.26,3098.46,3095.9,3087.69,3087.69,3103.08,3103.08,3116.92,3112.31,3172.31,4077.44,3106.15,3118.46,0
11_33_53,122,3093.33,3111.79,3100.51,3094.87,3088.72,3088.21,3102.56,3104.1,3117.44,3114.36,3171.79,4075.9,3110.26,3119.49,0
11_33_53,123,3094.36,3112.82,3100,3086.15,3092.31,3092.31,3102.56,3103.59,3117.95,3118.46,3171.28,4080.51,3109.74,3118.46,0
11_33_53,124,3093.85,3112.82,3100.51,3091.28,3094.87,3094.87,3102.56,3103.08,3122.56,3120,3174.87,4084.1,3109.23,3118.46,0
11_33_53,125,3096.41,3112.82,3102.56,3101.54,3098.46,3096.41,3105.13,3103.08,3121.54,3119.49,3175.38,4081.54,3112.31,3121.54,0
11_33_53,126,3096.92,3116.41,3102.56,3099.49,3101.03,3101.03,3107.18,3105.64,3116.92,3118.46,3171.79,4083.59,3113.33,3122.05,0
11_33_53,127,3096.92,3118.97,3104.1,3097.95,3101.03,3103.08,3105.64,3108.72,3121.03,3120.51,3178.46,4088.21,3115.38,3120.51,0
11_33_53,128,3098.97,3117.95,3104.1,3103.08,3102.05,3101.54,3106.15,3109.74,3127.18,3124.62,3185.64,4086.67,3117.95,3122.05,0
11_33_53,0,3100,3115.38,3103.59,3102.56,3103.59,3102.56,3111.28,3107.69,3125.64,3125.13,3182.05,4087.69,3117.95,3126.15,0
11_33_53,1,3101.03,3116.41,3106.15,3099.49,3102.56,3104.1,3112.82,3109.23,3124.62,3122.56,3181.54,4092.31,3115.9,3127.18,0
11_33_53,2,3101.54,3119.49,3107.18,3101.54,3101.54,3103.08,3111.28,3113.85,3126.15,3124.1,3189.74,4092.82,3116.92,3124.62,0
11_33_53,3,3103.08,3120,3105.64,3105.13,3102.05,3103.08,3114.36,3112.31,3125.64,3126.15,3190.77,4090.26,3122.56,3122.56,0
11_33_53,4,3103.59,3119.49,3106.15,3104.1,3102.56,3103.08,3118.46,3111.28,3125.13,3125.13,3187.18,4091.28,3124.62,3126.67,0
11_33_53,5,3102.56,3118.46,3110.77,3101.54,3103.59,3102.56,3118.46,3116.92,3125.13,3126.15,3189.74,4093.33,3124.1,3133.33,0
11_33_53,6,3103.59,3120.51,3110.77,3102.56,3104.1,3102.56,3115.38,3119.49,3126.15,3129.23,3189.23,4092.31,3122.56,3132.31,0
11_33_53,7,3107.18,3123.59,3108.21,3108.21,3107.18,3103.08,3115.38,3115.9,3126.15,3128.72,3186.67,4090.77,3123.08,3129.74,0
11_33_53,8,3110.26,3123.59,3109.74,3111.28,3109.74,3102.05,3118.97,3117.95,3126.15,3127.69,3187.18,4093.85,3124.62,3132.82,0
11_33_53,9,3111.79,3122.05,3110.77,3110.77,3108.72,3103.59,3123.08,3121.03,3130.26,3131.28,3188.21,4094.36,3124.1,3133.33,0
11_33_53,10,3111.28,3125.64,3112.31,3110.77,3108.72,3106.67,3124.62,3118.46,3133.33,3133.85,3188.72,4092.82,3126.15,3132.82,0
11_33_53,11,3108.21,3130.26,3116.92,3111.28,3110.26,3111.28,3123.08,3120.51,3131.79,3132.31,3197.44,4100.51,3127.69,3135.38,0
11_33_53,12,3109.74,3128.72,3118.97,3114.36,3109.74,3114.87,3122.56,3124.62,3135.9,3132.82,3205.13,4106.67,3126.67,3138.97,0
11_33_53,13,3114.87,3129.74,3117.95,3114.87,3109.74,3114.87,3123.59,3124.1,3140.51,3135.9,3196.41,4104.62,3125.64,3138.46,0
11_33_53,14,3112.31,3130.26,3118.46,3113.33,3108.72,3112.82,3125.13,3125.64,3138.97,3133.85,3189.23,4103.08,3128.72,3135.38,0
11_33_53,15,3112.82,3129.23,3120.51,3115.38,3110.77,3117.44,3125.13,3129.23,3139.49,3133.33,3198.97,4104.62,3134.36,3136.41,0
11_33_53,16,3120,3132.82,3118.46,3119.49,3115.9,3121.54,3124.62,3129.23,3142.56,3138.46,3204.1,4103.59,3134.87,3141.03,0
11_33_53,17,3119.49,3135.38,3117.95,3119.49,3118.46,3117.95,3125.64,3129.23,3140.51,3140.51,3199.49,4103.08,3132.82,3142.05,0
11_33_53,18,3115.38,3133.33,3119.49,3118.46,3117.95,3115.9,3128.72,3126.67,3141.03,3140,3200.51,4104.1,3131.28,3139.49,0
11_33_53,19,3117.44,3133.85,3117.95,3118.46,3118.97,3117.95,3130.77,3126.15,3142.56,3141.03,3203.08,4105.13,3136.41,3140.51,0
11_33_53,20,3119.49,3135.9,3119.49,3118.46,3119.49,3118.46,3130.77,3131.79,3141.03,3140.51,3201.54,4105.13,3138.97,3142.56,0
11_33_53,21,3118.46,3136.41,3126.15,3122.56,3119.49,3119.49,3132.31,3134.87,3140.51,3139.49,3202.56,4104.1,3134.36,3141.54,0
11_33_53,22,3119.49,3139.49,3128.21,3125.64,3123.59,3124.1,3138.46,3134.87,3141.03,3140,3205.13,4105.13,3135.9,3138.97,0
11_33_53,23,3120,3140.51,3127.69,3124.62,3127.69,3124.62,3139.49,3136.92,3144.62,3138.46,3205.13,4107.69,3141.03,3139.49,0
11_33_53,24,3120,3137.95,3133.33,3125.13,3128.21,3124.1,3134.36,3138.46,3145.13,3141.54,3205.13,4109.74,3141.54,3148.21,0
11_33_53,25,3124.1,3140.51,3132.82,3125.64,3127.18,3124.62,3132.31,3138.97,3144.62,3148.72,3205.13,4108.21,3140,3153.85,0
11_33_53,26,3127.69,3143.08,3127.69,3124.62,3127.69,3124.62,3136.41,3140,3149.23,3149.74,3205.13,4106.67,3141.54,3149.23,0
11_33_53,27,3128.72,3144.1,3130.77,3126.67,3127.69,3124.62,3139.49,3141.03,3151.28,3147.18,3204.62,4106.67,3143.08,3148.72,0
11_33_53,28,3128.21,3146.67,3132.82,3128.21,3127.18,3123.08,3140.51,3141.03,3148.21,3148.21,3204.62,4106.15,3141.54,3151.79,0
11_33_53,29,3128.72,3147.18,3130.77,3125.64,3127.18,3124.62,3140.51,3142.05,3151.79,3150.26,3206.15,4109.74,3142.05,3151.79,0
11_33_53,30,3130.77,3148.21,3131.28,3124.1,3127.69,3130.77,3140.51,3141.03,3157.44,3152.82,3204.1,4113.33,3144.62,3152.31,0
11_33_53,31,3129.23,3150.77,3132.82,3129.23,3126.67,3134.36,3141.54,3140.51,3155.38,3156.92,3206.15,4116.41,3146.15,3153.85,0
11_33_53,32,3129.74,3150.77,3136.41,3131.79,3127.69,3132.82,3144.62,3141.03,3155.38,3157.95,3214.87,4115.38,3147.69,3153.85,0
11_33_53,33,3134.87,3150.26,3141.54,3127.18,3132.82,3132.31,3143.59,3143.59,3158.46,3156.92,3217.95,4110.77,3151.28,3156.41,0
11_33_53,34,3136.92,3153.33,3140.51,3130.26,3135.38,3133.85,3143.08,3146.15,3156.92,3157.44,3215.38,4114.36,3153.85,3157.44,0
11_33_53,35,3133.33,3153.33,3138.46,3140.51,3131.79,3134.36,3145.64,3143.59,3156.92,3157.44,3215.9,4121.03,3152.31,3156.92,0
11_33_53,36,3133.33,3150.26,3140,3143.08,3131.28,3137.44,3146.67,3143.08,3157.44,3156.92,3217.95,4121.54,3151.79,3155.9,0
11_33_53,37,3137.44,3153.33,3140.51,3138.97,3138.46,3138.46,3147.18,3147.18,3156.92,3157.44,3215.9,4118.97,3153.85,3156.41,0
11_33_53,38,3137.44,3154.87,3139.49,3138.97,3143.08,3137.95,3149.74,3150.77,3156.92,3159.49,3215.38,4120.51,3155.38,3160.51,0
11_33_54,39,3137.95,3154.36,3141.03,3141.54,3141.03,3140,3148.72,3150.26,3157.44,3158.97,3217.95,4120.51,3155.9,3161.03,0
11_33_54,40,3142.05,3156.92,3142.56,3140.51,3139.49,3140.51,3146.15,3149.23,3155.9,3157.44,3217.95,4120,3154.36,3158.97,0
11_33_54,41,3144.62,3162.05,3141.54,3140,3140.51,3140.51,3151.79,3151.28,3157.44,3156.41,3216.41,4123.59,3155.9,3163.59,0
11_33_54,42,3144.1,3160,3143.08,3140.51,3140,3141.03,3157.44,3155.9,3163.59,3158.97,3218.46,4124.1,3156.92,3170.26,0
11_33_54,43,3143.59,3155.9,3148.21,3141.54,3139.49,3142.05,3156.92,3156.92,3165.64,3163.59,3221.54,4123.59,3155.38,3168.72,0
11_33_54,44,3145.64,3160,3145.13,3142.05,3140,3140.51,3155.9,3154.36,3165.13,3164.62,3222.05,4122.05,3156.41,3168.21,0
11_33_54,45,3145.64,3162.56,3140.51,3142.05,3140,3141.54,3156.92,3154.87,3166.15,3163.08,3221.54,4122.56,3158.97,3171.28,0
11_33_54,46,3145.13,3161.03,3148.21,3141.54,3138.97,3143.08,3157.44,3156.41,3166.67,3162.56,3220.51,4124.62,3162.05,3170.77,0
11_33_54,47,3149.23,3163.08,3152.82,3142.05,3141.03,3140.51,3155.9,3155.9,3168.72,3165.13,3222.05,4125.13,3163.08,3171.79,0
11_33_54,48,3152.31,3165.64,3150.26,3142.05,3145.64,3137.95,3156.41,3156.92,3171.79,3166.67,3223.59,4126.67,3162.56,3172.31,0
11_33_54,49,3151.28,3164.1,3152.82,3140.51,3144.62,3143.08,3156.92,3156.92,3170.77,3169.23,3222.56,4123.08,3162.56,3170.77,0
11_33_54,50,3150.77,3165.64,3154.87,3143.08,3142.56,3151.79,3155.9,3155.38,3171.28,3171.79,3228.72,4125.13,3166.67,3171.28,0
11_33_54,51,3151.79,3170.77,3154.36,3147.69,3149.23,3154.36,3157.95,3159.49,3172.82,3171.79,3232.82,4131.28,3170.26,3172.82,0
11_33_54,52,3151.28,3169.74,3155.9,3148.21,3156.92,3154.87,3165.13,3166.15,3171.79,3171.28,3229.23,4130.26,3166.67,3171.79,0
11_33_54,53,3151.79,3166.67,3156.92,3150.77,3156.41,3157.44,3168.21,3165.64,3171.28,3172.31,3229.74,4131.28,3166.15,3170.77,0
11_33_54,54,3154.36,3169.74,3156.92,3156.41,3154.36,3156.41,3158.97,3163.59,3172.82,3172.82,3234.36,4136.92,3167.69,3171.28,0
11_33_54,55,3153.85,3173.33,3157.44,3156.92,3154.87,3153.33,3157.44,3164.1,3172.31,3172.31,3232.82,4136.92,3167.18,3173.85,0
11_33_54,56,3155.38,3171.79,3155.9,3153.85,3155.38,3154.36,3165.13,3164.1,3172.82,3172.31,3231.79,4134.36,3170.26,3176.41,0
11_33_54,57,3155.9,3169.74,3161.54,3155.38,3155.38,3156.41,3168.72,3163.59,3173.85,3173.85,3234.87,4137.95,3171.79,3176.92,0
11_33_54,58,3155.9,3172.82,3167.18,3156.92,3156.41,3157.44,3167.69,3164.1,3172.31,3175.38,3234.87,4138.46,3172.82,3174.36,0
11_33_54,59,3155.9,3175.38,3164.1,3155.9,3156.41,3156.92,3166.67,3164.62,3173.85,3172.31,3234.36,4134.36,3172.82,3174.87,0
11_33_54,60,3155.9,3174.36,3163.08,3156.41,3154.87,3155.38,3167.69,3169.23,3175.9,3174.36,3234.36,4136.41,3172.82,3183.08,0
11_33_54,61,3158.97,3173.85,3165.64,3157.95,3155.9,3155.9,3169.74,3173.33,3172.31,3182.05,3235.38,4142.05,3172.82,3188.21,0
11_33_54,62,3162.05,3172.31,3164.1,3156.92,3159.49,3155.38,3171.28,3172.31,3173.85,3182.56,3237.44,4144.62,3172.82,3186.15,0
11_33_54,63,3164.62,3175.9,3162.56,3156.92,3157.44,3155.9,3171.79,3171.28,3184.62,3177.95,3236.41,4138.97,3175.9,3185.64,0
11_33_54,64,3164.1,3178.46,3166.67,3162.56,3156.41,3159.49,3171.79,3172.82,3187.69,3178.46,3238.46,4138.46,3177.44,3187.69,0
11_33_54,65,3162.56,3176.92,3170.26,3166.15,3163.08,3161.54,3172.31,3173.33,3184.1,3184.62,3237.95,4145.13,3178.97,3187.18,0
11_33_54,66,3164.1,3181.03,3170.26,3164.62,3166.67,3161.03,3171.28,3172.82,3187.18,3187.18,3237.95,4142.56,3177.44,3185.64,0
11_33_54,67,3169.74,3185.13,3169.74,3162.05,3162.56,3163.08,3173.33,3173.33,3190.77,3187.18,3246.67,4142.05,3174.87,3188.21,0
11_33_54,68,3169.74,3183.08,3171.79,3164.1,3165.64,3166.15,3173.85,3174.36,3188.72,3186.67,3247.18,4145.64,3179.49,3188.72,0
11_33_54,69,3166.15,3184.1,3172.82,3168.72,3170.26,3166.15,3172.82,3172.31,3188.72,3188.72,3241.03,4146.15,3184.1,3187.69,0
11_33_54,70,3168.21,3188.21,3171.28,3170.77,3164.1,3167.69,3174.36,3174.87,3189.23,3190.26,3240,4149.23,3183.59,3187.18,0
11_33_54,71,3169.74,3186.67,3171.79,3169.23,3161.03,3169.23,3180,3182.05,3188.72,3189.74,3242.05,4153.33,3184.62,3190.26,0
11_33_54,72,3167.69,3185.64,3172.82,3169.74,3168.72,3168.21,3180.51,3184.62,3188.72,3189.23,3245.13,4150.26,3188.21,3191.79,0
11_33_54,73,3171.28,3189.23,3173.85,3171.28,3173.33,3170.26,3177.95,3178.97,3188.72,3189.74,3250.26,4148.72,3187.69,3188.21,0
11_33_54,74,3173.33,3188.21,3174.36,3170.77,3170.77,3172.31,3178.46,3175.38,3188.72,3189.23,3251.28,4152.82,3185.64,3189.74,0
11_33_54,75,3172.31,3187.69,3171.79,3170.77,3170.77,3172.31,3178.46,3180,3188.21,3188.72,3248.21,4151.28,3187.69,3195.9,0
11_33_54,76,3171.28,3187.69,3175.38,3172.31,3172.82,3172.31,3178.46,3186.15,3188.21,3190.26,3251.79,4151.28,3187.18,3198.46,0
11_33_54,77,3170.77,3187.69,3183.08,3172.31,3172.31,3171.79,3182.56,3186.67,3188.72,3189.23,3252.82,4153.33,3188.21,3195.9,0
11_33_54,78,3172.82,3190.77,3182.05,3172.31,3172.82,3171.79,3186.67,3184.62,3188.72,3187.18,3250.26,4152.31,3188.72,3195.38,0
11_33_54,79,3173.33,3190.26,3179.49,3172.82,3174.36,3173.85,3186.67,3185.64,3188.72,3194.36,3251.79,4152.82,3188.72,3200.51,0
11_33_54,80,3175.38,3190.77,3179.49,3172.31,3172.31,3175.9,3186.15,3188.21,3193.85,3202.56,3249.74,4151.79,3190.77,3204.1,0
11_33_54,81,3176.92,3191.79,3181.03,3171.79,3174.87,3174.36,3187.18,3190.26,3200,3200.51,3254.36,4153.33,3188.21,3202.56,0
11_33_54,82,3177.44,3193.85,3182.56,3173.85,3181.03,3172.82,3188.72,3191.28,3201.54,3198.46,3263.59,4154.36,3190.26,3200,0
11_33_54,83,3179.49,3195.9,3183.08,3173.33,3182.05,3176.41,3188.21,3190.26,3199.49,3200.51,3259.49,4152.31,3194.87,3202.56,0
11_33_54,84,3181.54,3193.85,3182.56,3172.82,3180,3179.49,3188.21,3190.77,3198.97,3201.03,3256.92,4156.92,3193.85,3204.1,0
11_33_54,85,3181.54,3193.85,3185.13,3180,3179.49,3174.87,3188.72,3190.77,3201.54,3199.49,3261.03,4162.05,3194.36,3203.08,0
11_33_54,86,3184.62,3201.03,3187.18,3183.59,3177.95,3172.82,3189.74,3190.26,3202.05,3200.51,3258.46,4157.95,3202.05,3203.08,0
11_33_54,87,3188.72,3204.62,3185.64,3178.46,3181.03,3181.54,3188.72,3189.74,3201.54,3202.05,3257.95,4151.79,3204.62,3203.08,0
11_33_54,88,3183.59,3200.51,3188.21,3179.49,3184.1,3187.18,3188.21,3190.26,3204.1,3205.13,3266.15,4157.44,3200,3206.15,0
11_33_54,89,3182.05,3201.54,3189.74,3186.67,3182.05,3185.64,3191.28,3191.28,3205.64,3206.15,3268.72,4160.51,3201.54,3206.15,0
11_33_54,90,3187.69,3204.1,3188.72,3186.15,3183.08,3185.13,3191.28,3188.72,3203.59,3205.13,3264.62,4159.49,3203.59,3205.64,0
11_33_54,91,3187.69,3201.03,3187.18,3185.64,3187.69,3186.67,3191.79,3190.77,3202.05,3204.62,3267.18,4161.03,3202.05,3206.15,0
11_33_54,92,3186.67,3202.05,3188.72,3189.23,3187.69,3188.21,3197.95,3199.49,3202.56,3205.13,3266.15,4160,3202.56,3206.15,0
11_33_54,93,3188.72,3203.08,3190.77,3188.72,3187.18,3187.18,3200.51,3203.08,3203.08,3206.67,3266.15,4164.62,3203.08,3205.13,0
11_33_54,94,3188.72,3202.05,3189.74,3187.18,3189.23,3186.15,3198.46,3199.49,3205.13,3205.13,3267.69,4169.74,3204.1,3204.62,0
11_33_54,95,3186.67,3203.59,3193.33,3187.69,3189.23,3187.69,3200.51,3200,3206.15,3204.1,3266.67,4168.72,3204.1,3209.74,0
11_33_54,96,3187.69,3203.08,3201.03,3187.69,3188.72,3190.26,3202.56,3202.56,3204.1,3211.79,3266.67,4166.15,3204.1,3210.26,0
11_33_54,97,3190.77,3204.62,3202.56,3187.18,3190.77,3189.74,3201.54,3202.05,3202.56,3218.97,3267.18,4167.69,3204.1,3209.23,0
11_33_54,98,3190.26,3207.18,3200.51,3189.74,3190.77,3188.72,3203.59,3201.54,3211.28,3217.44,3268.21,4169.74,3205.64,3214.36,0
11_33_54,99,3190.77,3208.72,3201.54,3191.28,3188.21,3190.77,3203.59,3202.05,3214.36,3215.38,3270.26,4168.72,3207.69,3220.51,0
11_33_54,100,3194.36,3208.21,3201.54,3187.18,3192.31,3188.72,3201.03,3203.08,3208.21,3217.44,3269.74,4169.74,3204.1,3217.95,0
11_33_54,101,3196.92,3209.74,3201.54,3191.28,3200,3188.21,3203.08,3204.1,3210.26,3216.92,3269.74,4170.26,3205.64,3215.9,0
11_33_54,102,3196.41,3213.33,3202.05,3200.51,3198.97,3194.36,3204.62,3204.1,3219.49,3216.41,3271.28,4171.79,3214.36,3219.49,0
11_33_54,103,3194.87,3213.33,3200,3198.46,3193.85,3196.41,3204.62,3203.08,3218.46,3216.41,3268.72,4171.28,3211.79,3220,0
11_33_54,104,3197.44,3212.82,3199.49,3194.87,3194.36,3195.9,3203.59,3205.13,3215.9,3216.92,3269.23,4168.21,3207.18,3219.49,0
11_33_54,105,3201.54,3216.41,3202.56,3200.51,3196.92,3200.51,3203.59,3204.62,3217.95,3218.46,3280.51,4169.74,3216.41,3220,0
11_33_54,106,3202.56,3219.49,3203.59,3203.08,3198.97,3203.59,3205.13,3204.62,3218.46,3218.97,3283.59,4172.31,3221.03,3218.97,0
11_33_54,107,3202.05,3217.44,3201.54,3200,3202.05,3200.51,3203.59,3212.31,3218.97,3220,3277.95,4173.85,3215.38,3219.49,0
11_33_54,108,3202.05,3216.92,3204.1,3199.49,3201.54,3202.05,3202.56,3218.46,3219.49,3221.03,3280.51,4178.97,3216.92,3220,0
11_33_54,109,3203.08,3219.49,3206.67,3201.03,3200.51,3204.1,3211.28,3216.41,3218.97,3221.03,3284.62,4183.08,3220,3221.03,0
11_33_54,110,3203.08,3218.46,3205.13,3201.54,3203.59,3202.56,3218.97,3214.87,3218.97,3220,3281.54,4182.56,3218.46,3221.03,0
11_33_54,111,3204.62,3218.46,3204.1,3201.03,3204.62,3204.1,3215.9,3217.44,3219.49,3221.03,3281.03,4183.59,3218.97,3220.51,0
11_33_54,112,3204.1,3218.97,3205.64,3200,3203.59,3204.62,3217.44,3216.92,3221.03,3221.54,3282.05,4184.62,3219.49,3220,0
11_33_54,113,3204.62,3218.97,3206.15,3202.05,3204.1,3204.1,3217.44,3216.41,3221.54,3219.49,3280,4180,3218.46,3220,0
11_33_54,114,3205.64,3218.97,3206.15,3205.13,3204.1,3204.1,3208.21,3218.97,3221.03,3224.62,3282.05,4179.49,3219.49,3225.13,0
11_33_54,115,3203.59,3220,3207.69,3205.64,3204.1,3204.1,3208.21,3218.97,3221.03,3228.72,3284.1,4183.59,3220.51,3227.69,0
11_33_54,116,3205.13,3221.54,3213.33,3204.1,3204.1,3206.15,3218.46,3217.95,3223.08,3226.15,3283.08,4182.56,3220.51,3228.21,0
11_33_54,117,3208.72,3219.49,3218.46,3204.62,3204.62,3207.18,3219.49,3217.95,3222.56,3228.72,3284.1,4182.56,3221.03,3228.72,0
11_33_54,118,3210.26,3220.51,3217.44,3206.67,3206.15,3206.15,3217.44,3221.03,3220.51,3234.87,3285.13,4184.62,3221.03,3227.18,0
11_33_54,119,3213.33,3224.1,3216.92,3204.1,3204.62,3207.69,3218.97,3221.54,3225.13,3233.85,3285.13,4184.62,3218.97,3228.21,0
11_33_54,120,3214.36,3225.64,3217.44,3206.67,3205.64,3208.21,3217.44,3218.97,3233.33,3231.79,3284.62,4184.62,3222.56,3233.85,0
11_33_54,121,3214.36,3221.54,3216.41,3215.9,3213.85,3209.74,3218.46,3217.95,3233.33,3233.85,3284.1,4186.67,3227.18,3235.9,0
11_33_54,122,3217.44,3221.03,3217.44,3219.49,3219.49,3216.41,3221.03,3220.51,3230.77,3232.82,3289.74,4185.64,3226.15,3232.82,0
11_33_54,123,3218.97,3228.21,3218.97,3215.38,3216.41,3220,3220,3222.05,3233.85,3231.79,3294.87,4184.62,3226.15,3233.85,0
11_33_54,124,3216.92,3230.26,3218.97,3215.9,3215.9,3216.92,3219.49,3221.03,3235.38,3233.85,3295.9,4187.69,3227.69,3234.87,0
11_33_54,125,3217.44,3227.69,3219.49,3217.95,3218.46,3216.92,3221.54,3221.54,3233.33,3234.36,3296.92,4187.69,3228.72,3234.36,0
11_33_54,126,3219.49,3231.79,3219.49,3216.41,3217.95,3220.51,3221.54,3221.03,3233.33,3234.87,3298.97,4189.23,3231.79,3235.9,0
11_33_54,127,3218.46,3238.46,3220,3216.41,3217.95,3219.49,3222.05,3222.05,3233.85,3234.87,3297.95,4190.77,3233.85,3234.87,0
11_33_54,128,3218.97,3234.87,3220.51,3217.44,3218.46,3218.97,3220.51,3229.74,3234.87,3234.36,3297.44,4193.85,3233.33,3234.87,0
11_33_54,0,3218.46,3228.72,3219.49,3216.92,3217.44,3218.46,3220,3234.36,3237.44,3235.38,3298.46,4193.85,3233.33,3235.9,0
11_33_54,1,3219.49,3232.31,3221.03,3217.44,3216.92,3218.46,3228.21,3231.28,3237.44,3236.41,3296.92,4193.85,3234.36,3237.95,0
11_33_54,2,3221.03,3236.92,3220,3218.97,3216.92,3220,3234.87,3232.31,3236.92,3236.92,3297.44,4193.33,3232.82,3237.44,0
11_33_54,3,3220,3236.92,3221.03,3220.51,3216.92,3220.51,3233.33,3236.41,3237.44,3236.92,3298.97,4193.33,3234.87,3234.87,0
11_33_54,4,3220.51,3233.85,3227.18,3220.51,3217.44,3219.49,3231.28,3235.9,3237.95,3237.95,3299.49,4195.9,3236.92,3241.54,0
11_33_54,5,3223.59,3235.38,3227.18,3221.03,3218.97,3220,3232.82,3234.87,3236.92,3235.38,3299.49,4194.36,3236.92,3246.15,0
11_33_54,6,3224.62,3238.97,3227.18,3221.03,3220,3222.05,3232.82,3235.38,3236.41,3240.51,3298.46,4194.36,3235.9,3243.08,0
11_33_54,7,3220,3235.9,3232.82,3221.03,3219.49,3221.03,3231.79,3235.38,3240.51,3248.72,3297.95,4198.46,3235.38,3239.49,0
11_33_54,8,3222.56,3235.38,3234.87,3221.54,3222.05,3221.03,3233.85,3235.38,3241.03,3245.64,3299.49,4201.03,3236.92,3244.1,0
11_33_54,9,3227.18,3242.05,3231.79,3220.51,3222.56,3220,3234.87,3235.38,3235.9,3244.1,3302.05,4201.03,3236.41,3247.18,0
11_33_54,10,3226.67,3244.62,3232.82,3223.59,3221.54,3222.05,3234.36,3235.38,3239.49,3250.26,3302.05,4199.49,3236.41,3243.59,0
11_33_54,11,3228.72,3235.9,3233.85,3232.31,3227.18,3229.23,3234.87,3234.87,3250.26,3250.77,3302.05,4201.03,3237.44,3244.1,0
11_33_54,12,3230.26,3233.33,3231.79,3236.41,3234.36,3229.74,3236.92,3235.38,3251.79,3247.18,3304.62,4201.03,3239.49,3249.74,0
11_33_54,13,3230.26,3245.13,3233.33,3233.33,3234.87,3227.69,3236.92,3235.38,3247.69,3250.26,3303.59,4200,3244.1,3252.82,0
11_33_54,14,3232.31,3249.23,3234.87,3233.33,3232.31,3231.79,3236.92,3234.36,3248.72,3250.77,3305.13,4198.46,3243.59,3250.26,0
11_33_54,15,3235.38,3242.56,3235.38,3234.36,3233.33,3234.87,3238.46,3236.41,3250.77,3248.21,3312.82,4200.51,3242.05,3250.26,0
11_33_54,16,3234.87,3241.03,3235.38,3233.33,3233.85,3231.28,3238.97,3235.9,3249.74,3249.74,3315.38,4203.59,3248.72,3252.31,0
11_33_54,17,3234.36,3248.21,3234.87,3233.85,3231.79,3232.31,3237.44,3238.46,3248.72,3250.26,3312.31,4202.05,3252.82,3251.28,0
11_33_54,18,3235.9,3250.77,3235.9,3233.85,3232.82,3234.87,3237.95,3243.59,3249.23,3250.26,3313.85,4203.59,3245.13,3251.79,0
11_33_54,19,3234.87,3248.72,3235.9,3233.85,3235.38,3234.36,3239.49,3241.03,3250.26,3250.26,3315.9,4203.59,3243.08,3251.79,0
11_33_54,20,3236.41,3250.26,3235.9,3235.38,3235.9,3235.38,3236.92,3241.54,3250.26,3251.79,3313.85,4206.15,3248.72,3252.31,0
11_33_54,21,3235.38,3250.26,3236.92,3235.38,3232.82,3234.87,3238.97,3250.26,3250.77,3253.33,3313.85,4211.79,3251.28,3252.82,0
11_33_54,22,3235.38,3251.28,3237.95,3235.38,3234.36,3234.36,3248.72,3252.31,3251.79,3253.85,3314.36,4212.82,3252.31,3252.31,0
11_33_54,23,3236.41,3251.79,3238.46,3235.9,3237.44,3236.41,3252.31,3247.18,3252.82,3254.36,3313.85,4209.74,3251.79,3253.85,0
11_33_54,24,3233.85,3251.28,3241.03,3237.44,3236.92,3236.92,3248.21,3248.72,3252.82,3254.36,3314.36,4211.79,3249.74,3251.28,0
