TIME, ED_COUNTER, AF3, F7, F3, FC5, T7, P7, O1, O2, P8, T8, FC6, F4, F8, AF4, LABEL
12_9_4,34,4218.46,4063.08,4147.69,4056.41,3961.03,4042.05,4102.56,4098.46,4053.33,3818.46,3773.33,4108.72,4109.74,4298.46,0
12_9_4,35,4217.44,4055.9,4145.64,4056.92,3958.97,4058.97,4112.82,4098.97,4059.49,3821.03,3771.28,4104.62,4120,4292.31,0
12_9_4,36,4212.31,4055.9,4142.05,4060,3960,4058.46,4093.85,4098.97,4038.97,3816.41,3766.15,4092.31,4145.13,4288.72,0
12_9_4,37,4209.23,4056.41,4142.05,4057.44,3959.49,4046.67,4089.23,4098.46,4030.26,3818.97,3769.23,4094.36,4173.85,4286.67,0
12_9_4,38,4210.77,4045.64,4143.08,4051.79,3955.38,4050.77,4106.15,4097.44,4047.18,3831.79,3783.08,4107.69,4189.74,4287.18,0
12_9_4,39,4211.28,4044.1,4143.59,4050.77,3960,4059.49,4105.13,4097.44,4048.72,3840,3785.13,4109.23,4196.41,4285.13,0
12_9_4,40,4208.72,4052.82,4142.05,4047.18,3967.69,4055.9,4091.79,4098.97,4033.33,3839.49,3786.15,4103.08,4200.51,4282.56,0
12_9_4,41,4203.59,4048.21,4140.51,4042.56,3962.05,4046.15,4088.72,4100,4027.18,3833.85,3788.72,4101.03,4197.44,4278.97,0
12_9_5,42,4201.54,4036.92,4137.95,4043.59,3947.69,4046.67,4092.82,4098.97,4033.85,3834.36,3782.05,4100,4193.33,4272.82,0
12_9_5,43,4201.03,4034.87,4136.41,4041.54,3943.59,4057.95,4098.46,4098.46,4041.54,3843.08,3788.21,4101.54,4195.9,4267.69,0
12_9_5,44,4195.38,4029.23,4136.92,4035.38,3950.77,4061.54,4093.85,4098.97,4045.64,3849.23,3797.95,4100,4194.36,4263.08,0
12_9_5,45,4193.33,4029.74,4137.95,4034.87,3959.49,4057.44,4086.15,4098.97,4041.03,3854.36,3794.36,4095.9,4188.72,4261.03,0
12_9_5,46,4201.54,4034.36,4137.95,4036.41,3962.05,4061.03,4098.46,4098.97,4034.36,3862.56,3799.49,4103.59,4188.21,4266.15,0
12_9_5,47,4198.46,4026.15,4134.87,4032.31,3952.82,4064.1,4110.26,4098.46,4031.28,3861.54,3804.62,4107.18,4182.05,4262.05,0
12_9_5,48,4185.13,4021.54,4128.72,4027.18,3941.54,4055.9,4102.56,4097.44,4028.72,3857.44,3787.69,4093.33,4170.77,4249.23,0
12_9_5,49,4178.97,4019.49,4130.26,4026.67,3937.95,4055.9,4101.03,4096.92,4032.82,3866.67,3777.95,4088.21,4166.15,4241.54,0
12_9_5,50,4174.87,4013.33,4133.85,4034.36,3943.59,4066.15,4105.64,4096.92,4041.54,3873.33,3787.69,4093.85,4165.13,4238.46,0
12_9_5,51,4168.21,4018.46,4130.77,4040,3945.13,4068.21,4102.05,4096.92,4040,3869.74,3784.62,4088.21,4155.38,4231.28,0
12_9_5,52,4165.64,4025.13,4125.13,4031.79,3938.97,4069.23,4105.13,4097.44,4035.38,3871.79,3776.92,4082.05,4143.59,4227.69,0
12_9_5,53,4170.26,4017.95,4128.72,4025.64,3945.13,4073.85,4104.62,4097.95,4038.46,3886.67,3787.18,4089.74,4147.69,4231.28,0
12_9_5,54,4172.82,4017.95,4135.38,4032.31,3956.41,4071.79,4096.92,4097.95,4029.74,3889.74,3798.97,4092.82,4153.85,4237.44,0
12_9_5,55,4175.38,4031.28,4137.95,4038.46,3955.9,4064.1,4097.44,4094.36,4017.44,3885.13,3804.1,4090.77,4151.79,4243.59,0
12_9_5,56,4180,4024.1,4133.85,4035.38,3946.67,4063.08,4105.13,4090.26,4021.54,3886.15,3798.97,4092.82,4143.59,4241.03,0
12_9_5,57,4175.9,4009.23,4126.15,4029.23,3940.51,4072.82,4112.31,4094.87,4029.74,3884.62,3782.56,4089.74,4133.33,4228.72,0
12_9_5,58,4165.64,4014.87,4127.18,4027.18,3942.56,4080,4115.38,4102.05,4032.82,3887.18,3777.95,4078.97,4131.28,4226.15,0
12_9_5,59,4165.64,4014.36,4130.77,4028.72,3947.18,4081.54,4114.87,4096.92,4029.74,3890.26,3785.64,4077.44,4133.33,4230.77,0
12_9_5,60,4173.33,4010.26,4129.74,4025.64,3947.69,4089.74,4117.44,4090.26,4038.97,3897.44,3794.87,4087.69,4131.79,4229.23,0
12_9_5,61,4168.21,4018.46,4129.23,4017.44,3943.08,4091.79,4110.26,4094.36,4044.62,3904.62,3793.33,4088.21,4119.49,4221.54,0
12_9_5,62,4167.18,4019.49,4132.82,4022.56,3946.15,4078.97,4095.9,4096.41,4024.62,3898.97,3784.1,4078.46,4105.13,4215.9,0
12_9_5,63,4183.59,4015.38,4134.36,4033.85,3954.87,4079.49,4105.64,4091.79,4021.54,3902.56,3800,4084.1,4106.67,4218.97,0
12_9_5,64,4185.13,4013.85,4131.79,4028.72,3960,4096.41,4122.05,4090.26,4043.59,3918.97,3834.87,4089.74,4099.49,4216.41,0
12_9_5,65,4170.77,4010.77,4129.23,4020.51,3956.41,4104.62,4116.41,4091.28,4044.62,3916.41,3838.46,4072.31,4074.36,4203.59,0
12_9_5,66,4165.13,4005.13,4127.69,4018.46,3944.1,4104.1,4109.23,4092.31,4027.18,3898.97,3832.82,4062.05,4065.13,4196.92,0
12_9_5,67,4170.77,4005.13,4129.23,4013.33,3945.64,4107.18,4100.51,4091.28,4021.54,3895.9,3888.21,4073.33,4076.92,4198.97,0
12_9_5,68,4173.85,4001.54,4130.77,4011.28,3959.49,4107.69,4087.18,4089.74,4025.64,3897.44,3967.69,4078.46,4080.51,4201.54,0
12_9_5,69,4171.28,4000,4127.69,4012.82,3960.51,4106.67,4083.59,4093.33,4022.05,3895.38,3989.74,4073.33,4069.74,4201.54,0
12_9_5,70,4174.36,4006.67,4127.18,4005.64,3958.46,4112.31,4078.46,4094.87,4009.74,3892.31,3974.36,4069.74,4060.51,4198.46,0
12_9_5,71,4186.15,4008.72,4128.72,3999.49,3966.67,4122.56,4062.05,4089.74,4007.18,3892.82,3982.56,4071.28,4066.15,4197.44,0
12_9_5,72,4188.72,4010.77,4123.08,3992.31,3960.51,4126.15,4048.21,4087.18,4026.67,3905.13,4000,4073.85,4079.49,4199.49,0
12_9_5,73,4184.62,4016.41,4114.87,3980.51,3952.82,4125.13,4029.74,4089.23,4037.95,3910.26,3990.77,4068.21,4075.38,4193.85,0
12_9_5,74,4191.28,4018.46,4118.97,3976.92,3971.28,4144.1,4011.79,4090.26,4024.62,3895.9,3984.62,4062.56,4065.13,4185.64,0
12_9_5,75,4196.92,4018.46,4132.31,3972.31,3985.64,4163.59,4010.77,4091.79,4020.51,3884.62,3993.85,4069.23,4068.21,4187.18,0
12_9_5,76,4196.41,4019.49,4135.38,3962.56,3974.36,4163.59,3991.28,4093.33,4018.97,3878.46,3994.87,4069.74,4064.1,4187.18,0
12_9_5,77,4200,4015.9,4130.26,3963.08,3964.1,4171.28,3937.44,4090.26,4006.67,3870.26,3996.92,4062.56,4056.92,4184.1,0
12_9_5,78,4200.51,4007.18,4132.82,3968.72,3974.36,4195.9,3895.9,4089.74,3996.92,3869.74,4008.72,4072.31,4061.03,4187.18,0
12_9_5,79,4207.18,4004.1,4146.15,3973.85,3985.64,4213.33,3882.56,4091.28,3989.74,3872.82,4021.03,4078.46,4058.46,4188.21,0
12_9_5,80,4226.67,4014.36,4150.26,3981.03,3982.56,4206.67,3857.44,4089.23,3989.74,3884.62,4040.51,4069.74,4054.87,4184.62,0
12_9_5,81,4238.46,4025.13,4147.69,3980,3974.36,4194.36,3842.05,4089.74,4001.54,3917.44,4062.56,4070.26,4065.64,4187.69,0
12_9_5,82,4235.38,4024.1,4142.56,3971.79,3969.23,4190.77,3868.72,4091.28,3997.44,3931.28,4058.46,4065.64,4060,4184.1,0
12_9_5,83,4220.51,3990.77,4130.26,3960.51,3944.62,4178.97,3896.92,4091.79,3954.36,3893.33,4029.23,4028.21,4015.9,4149.23,0
12_9_5,84,4207.18,3942.05,4117.95,3946.67,3917.95,4149.74,3900.51,4091.79,3929.74,3853.33,4008.21,3992.31,3972.82,4109.74,0
12_9_5,85,4234.87,3946.15,4126.67,3973.85,3935.38,4128.72,3901.03,4090.77,3951.79,3873.33,4004.62,3996.92,3973.33,4109.74,0
12_9_5,86,4283.59,3991.28,4137.44,4030.26,3968.72,4115.9,3920,4090.77,3969.23,3910.77,4030.26,4010.77,3997.95,4131.79,0
12_9_5,87,4297.95,3997.95,4133.85,4035.38,3978.97,4094.36,3944.62,4092.31,3949.74,3900,4054.87,4009.23,4007.69,4140.51,0
12_9_5,88,4301.54,3977.44,4130.26,4009.74,3989.23,4089.74,3965.13,4091.79,3932.82,3871.28,3981.03,4003.08,3999.49,4140,0
12_9_5,89,4332.31,3991.79,4135.9,4022.05,4019.49,4103.08,3989.23,4092.31,3944.62,3892.31,3854.87,3993.85,4002.56,4141.54,0
12_9_5,90,4366.67,4020.51,4139.49,4032.82,4052.82,4101.54,4027.69,4096.41,3951.79,3935.9,3821.03,3990.26,4017.44,4142.56,0
12_9_5,91,4381.03,4016.41,4137.44,4007.69,4071.79,4084.62,4065.13,4092.31,3946.67,3952.31,3856.92,3991.79,4018.46,4147.18,0
12_9_5,92,4390.77,4006.15,4134.87,3990.26,4075.38,4067.18,4074.87,4087.18,3938.46,3961.54,3844.62,3975.38,4003.08,4146.15,0
12_9_5,93,4406.67,4005.13,4136.41,3997.44,4072.82,4054.36,4069.74,4094.36,3934.87,4013.33,3821.03,3955.9,4001.03,4140,0
12_9_5,94,4429.74,4002.56,4146.67,4014.36,4095.38,4043.59,4078.97,4100,3945.13,4089.74,3850.77,3964.62,4017.44,4150.77,0
12_9_5,95,4458.46,4011.28,4150.26,4041.54,4157.95,4032.31,4102.56,4094.36,3954.36,4129.74,3889.23,3979.49,4030.26,4173.33,0
12_9_5,96,4480.51,4019.49,4140.51,4062.05,4227.18,4031.79,4121.03,4090.77,3944.62,4141.54,3900.51,3972.82,4031.79,4175.9,0
12_9_5,97,4494.87,4011.28,4133.33,4062.56,4269.74,4050.26,4127.18,4092.82,3925.64,4137.95,3892.82,3955.9,4013.33,4158.46,0
12_9_5,98,4518.97,4003.59,4136.41,4067.18,4275.38,4064.1,4135.38,4090.26,3925.64,4095.38,3899.49,3948.72,3998.97,4156.92,0
12_9_5,99,4545.64,4003.59,4138.46,4069.74,4267.69,4077.44,4157.95,4090.26,3947.69,4065.13,3923.59,3955.38,4013.85,4170.26,0
12_9_5,100,4561.03,4004.1,4140.51,4059.49,4278.97,4104.1,4176.41,4094.36,3968.21,4096.92,3934.87,3963.59,4034.87,4180,0
12_9_5,101,4576.92,3995.38,4138.97,4050.77,4298.46,4133.33,4184.1,4097.95,3961.54,4124.62,3921.03,3956.92,4036.41,4175.9,0
12_9_5,102,4611.79,3991.28,4143.59,4053.85,4325.13,4144.62,4187.69,4099.49,3933.85,4149.23,3922.56,3953.33,4044.1,4179.49,0
12_9_5,103,4651.79,4004.1,4149.74,4051.79,4387.18,4145.64,4194.36,4098.46,3911.28,4219.49,3942.05,3958.46,4057.44,4196.92,0
12_9_5,104,4681.03,4021.54,4143.59,4044.1,4455.38,4158.97,4208.72,4097.95,3903.08,4275.9,3950.77,3954.87,4054.87,4201.54,0
12_9_5,105,4705.64,4020,4134.36,4049.23,4490.77,4170.77,4211.28,4098.46,3903.59,4288.72,3956.92,3948.72,4051.79,4198.97,0
12_9_5,106,4727.18,4008.72,4135.38,4055.38,4528.72,4170.77,4200,4093.85,3906.15,4290.77,3951.79,3941.03,4045.64,4196.41,0
12_9_5,107,4750.77,4014.36,4139.49,4054.87,4569.23,4167.18,4197.44,4091.28,3933.33,4302.05,3947.18,3944.62,4050.77,4202.05,0
12_9_5,108,4781.54,4025.13,4145.64,4060.51,4563.08,4165.13,4210.26,4097.44,3986.15,4349.23,3974.36,3976.41,4081.54,4226.67,0
12_9_5,109,4807.69,4032.82,4157.44,4068.72,4534.36,4174.36,4216.41,4101.03,4029.23,4406.15,3996.41,4003.59,4103.59,4252.82,0
12_9_5,110,4815.9,4029.74,4155.38,4062.56,4517.95,4202.56,4221.54,4102.56,4078.97,4418.97,3969.74,3994.36,4090.26,4248.72,0
12_9_5,111,4813.33,4020,4143.08,4048.72,4510.77,4227.69,4229.74,4105.13,4136.92,4430.26,3936.92,3973.85,4063.08,4222.56,0
12_9_5,112,4811.28,4021.03,4138.97,4045.13,4508.72,4236.41,4227.69,4100,4159.49,4481.54,3932.31,3962.56,4048.72,4209.74,0
12_9_5,113,4801.54,4020.51,4136.41,4040,4514.36,4262.05,4223.08,4095.9,4152.31,4518.46,3925.13,3946.15,4029.23,4197.44,0
12_9_5,114,4790.77,4014.36,4132.31,4031.28,4518.97,4291.79,4217.44,4095.9,4144.1,4524.62,3911.79,3930.77,4007.69,4182.05,0
12_9_5,115,4795.38,4009.23,4139.49,4036.92,4496.41,4295.9,4221.54,4091.79,4148.72,4553.85,3911.79,3938.97,4013.85,4191.28,0
12_9_5,116,4818.97,4025.13,4154.87,4057.95,4464.1,4298.97,4231.79,4091.79,4135.38,4625.64,3932.82,3976.41,4058.46,4231.28,0
12_9_5,117,4834.36,4043.08,4156.92,4061.54,4433.33,4317.95,4235.38,4102.05,4050.77,4689.23,3948.21,3996.92,4089.74,4252.82,0
12_9_5,118,4826.67,4048.72,4148.72,4045.64,4351.79,4328.72,4229.23,4105.13,3955.38,4732.82,3946.67,3984.1,4096.41,4241.54,0
12_9_5,119,4818.46,4045.13,4149.23,4035.38,4244.62,4335.38,4232.31,4099.49,3929.23,4774.36,3938.97,3969.23,4103.59,4228.21,0
12_9_5,120,4808.72,4030.26,4146.15,4035.38,4194.36,4355.38,4247.69,4097.44,3925.64,4806.67,3926.67,3960.51,4105.64,4213.33,0
12_9_5,121,4797.95,4034.87,4144.62,4042.56,4194.87,4367.18,4246.15,4100,3917.44,4843.59,3926.15,3961.54,4118.46,4208.21,0
12_9_5,122,4799.49,4056.41,4151.28,4055.9,4201.03,4369.23,4230.77,4096.92,3916.41,4866.15,3935.9,3972.31,4148.72,4220.51,0
12_9_5,123,4805.64,4058.46,4155.9,4070.26,4197.44,4380,4226.15,4095.9,3914.87,4855.38,3943.08,3985.13,4170.26,4230.77,0
12_9_5,124,4801.54,4047.18,4153.33,4074.87,4172.31,4389.74,4233.85,4102.56,3928.72,4855.9,3954.36,4000.51,4184.62,4233.33,0
12_9_5,125,4796.41,4049.23,4152.82,4067.69,4152.31,4394.36,4235.9,4104.1,3949.23,4871.28,3962.05,4014.87,4193.33,4235.9,0
12_9_5,126,4797.44,4057.95,4153.33,4060,4157.95,4402.56,4227.18,4097.95,3946.67,4868.72,3958.46,4011.28,4189.23,4233.85,0
12_9_5,127,4792.82,4061.03,4153.85,4060,4153.33,4416.41,4225.13,4094.36,3953.33,4873.85,3962.05,4005.64,4184.62,4229.74,0
12_9_5,128,4785.64,4066.15,4156.41,4065.64,4139.49,4424.62,4231.28,4094.36,3984.1,4902.05,3976.92,4020.51,4188.21,4233.85,0
12_9_5,0,4774.87,4069.23,4154.87,4067.69,4133.85,4421.54,4228.72,4094.87,3992.82,4904.1,3976.41,4029.74,4186.67,4237.44,0
12_9_5,1,4754.36,4062.56,4151.28,4060,4123.08,4414.36,4217.95,4099.49,3986.67,4881.54,3966.67,4025.13,4173.33,4231.79,0
12_9_5,2,4730.77,4050.26,4149.23,4048.72,4118.97,4421.03,4216.92,4105.13,3989.74,4864.1,3955.38,4016.41,4149.23,4221.03,0
12_9_5,3,4720.51,4049.23,4152.31,4052.31,4134.87,4429.23,4220,4103.08,3992.31,4852.31,3940.51,4010.26,4126.67,4209.74,0
12_9_5,4,4718.46,4060,4155.38,4057.44,4144.1,4426.15,4216.92,4097.95,3997.44,4849.23,3937.95,4011.28,4122.56,4203.08,0
12_9_5,5,4709.23,4058.46,4153.33,4050.26,4137.95,4424.62,4217.44,4096.92,4001.03,4853.33,3945.64,4015.9,4123.08,4203.08,0
12_9_5,6,4700.51,4057.44,4153.85,4050.77,4136.92,4428.21,4218.46,4099.49,4004.62,4866.67,3957.44,4023.59,4125.64,4213.33,0
12_9_5,7,4694.36,4067.69,4160.51,4061.03,4142.05,4430.26,4217.44,4099.49,4016.92,4878.46,3977.44,4037.44,4137.44,4228.72,0
12_9_5,8,4682.56,4068.21,4160,4061.54,4142.05,4427.69,4215.38,4097.95,4032.31,4877.95,3991.28,4047.69,4142.05,4235.9,0
12_9_5,9,4668.21,4064.62,4156.41,4057.44,4130.26,4430.26,4214.87,4100.51,4042.56,4874.36,3990.77,4044.62,4125.13,4231.79,0
12_9_5,10,4660,4076.41,4156.41,4060,4120.51,4441.03,4217.95,4101.54,4045.64,4876.92,3994.87,4041.54,4110.26,4231.79,0
12_9_5,11,4646.67,4080,4156.92,4061.54,4124.62,4445.13,4217.44,4100,4043.08,4875.9,4007.18,4041.54,4110.26,4231.79,0
12_9_5,12,4620,4058.97,4153.33,4057.95,4134.36,4442.05,4212.31,4100.51,4043.08,4865.13,4005.13,4035.38,4101.54,4220.51,0
12_9_5,13,4603.08,4057.95,4154.87,4062.05,4146.15,4441.54,4213.33,4102.56,4051.28,4865.13,4006.67,4034.87,4092.82,4216.92,0
12_9_5,14,4603.08,4076.41,4156.92,4072.31,4150.26,4443.59,4218.97,4099.49,4065.13,4882.56,4035.38,4047.18,4106.67,4232.82,0
12_9_5,15,4597.95,4069.23,4155.9,4076.92,4144.62,4445.13,4217.95,4096.92,4078.46,4898.97,4056.92,4061.03,4118.97,4243.08,0
12_9_5,16,4584.1,4060.51,4156.92,4074.36,4149.74,4440,4215.9,4100.51,4086.67,4914.36,4040.51,4073.33,4110.26,4246.67,0
12_9_5,17,4569.23,4067.69,4157.44,4067.69,4162.56,4427.18,4217.44,4102.56,4091.79,4925.64,4015.9,4078.97,4094.36,4251.79,0
12_9_5,18,4544.1,4058.46,4151.79,4054.87,4154.87,4416.92,4212.82,4100.51,4087.18,4913.33,4004.62,4068.72,4071.79,4240.51,0
12_9_5,19,4514.36,4043.59,4142.05,4046.67,4141.54,4412.31,4206.67,4100,4073.33,4891.28,3993.85,4052.82,4044.1,4215.38,0
12_9_5,20,4491.79,4045.13,4137.95,4052.82,4140,4403.59,4203.59,4101.03,4074.87,4887.69,3983.08,4051.28,4030.26,4208.21,0
12_9_5,21,4469.23,4047.69,4141.03,4057.95,4133.85,4401.03,4189.74,4103.59,4095.9,4894.87,3987.69,4060.51,4033.33,4217.95,0
12_9_5,22,4437.95,4038.97,4141.54,4048.21,4108.72,4404.1,4169.74,4105.13,4103.59,4896.41,3996.92,4060,4039.49,4210.77,0
12_9_5,23,4406.15,4021.54,4133.33,4039.49,4063.08,4392.31,4164.62,4105.13,4087.18,4891.28,4003.08,4053.33,4041.03,4189.74,0
12_9_5,24,4378.97,4013.33,4128.72,4045.64,4021.03,4369.74,4167.18,4104.62,4070.77,4881.54,3996.92,4053.33,4034.87,4181.54,0
12_9_5,25,4340,4019.49,4132.31,4051.79,4010.26,4362.56,4166.67,4104.62,4061.03,4867.69,3980,4058.46,4029.74,4182.05,0
12_9_5,26,4293.33,4020,4139.49,4054.36,4014.36,4368.72,4170.26,4105.64,4057.95,4857.95,3975.9,4068.72,4030.26,4182.56,0
12_9_5,27,4262.05,4010.26,4139.49,4051.28,4008.21,4365.64,4166.15,4107.18,4059.49,4847.69,3986.67,4075.9,4028.21,4186.15,0
12_9_5,28,4243.59,4004.62,4136.92,4030.77,4002.05,4346.67,4153.33,4108.21,4060,4831.79,3995.38,4076.41,4029.23,4184.1,0
12_9_5,29,4226.15,4005.64,4137.95,4016.92,4005.64,4329.74,4153.33,4108.21,4065.64,4824.1,4004.1,4085.13,4041.03,4182.05,0
12_9_5,30,4210.26,4005.64,4141.03,4028.72,4017.44,4318.46,4146.67,4107.18,4065.13,4827.69,4004.1,4090.26,4051.79,4183.08,0
12_9_5,31,4189.74,3998.97,4136.92,4038.46,4024.1,4304.1,4122.56,4107.18,4055.38,4823.59,3981.03,4076.92,4045.64,4175.38,0
12_9_5,32,4169.23,3994.36,4134.87,4037.95,4013.33,4294.87,4116.41,4107.69,4048.21,4816.41,3956.92,4069.23,4029.74,4171.79,0
12_9_5,33,4162.56,4002.56,4135.9,4045.64,3993.33,4294.87,4124.1,4107.69,4052.82,4824.1,3956.41,4078.97,4023.08,4180.51,0
12_9_5,34,4154.87,4007.18,4134.36,4052.82,3974.36,4281.54,4124.1,4107.18,4081.03,4834.36,3959.49,4077.95,4030.26,4181.03,0
12_9_5,35,4146.15,4003.59,4136.92,4063.08,3970.77,4249.23,4129.23,4105.64,4118.46,4830.26,3948.72,4074.87,4040.51,4180.51,0
12_9_5,36,4140.51,4005.64,4140,4077.44,3982.05,4226.15,4140.51,4104.62,4118.97,4817.44,3938.97,4087.69,4041.03,4188.72,0
12_9_5,37,4118.97,4007.69,4133.85,4077.44,3990.26,4211.79,4140,4105.13,4092.82,4803.08,3935.9,4094.87,4038.46,4189.23,0
12_9_5,38,4089.74,4008.72,4131.28,4073.33,3999.49,4195.38,4137.44,4105.13,4082.05,4794.36,3932.31,4089.23,4031.28,4183.08,0
12_9_5,39,4081.54,4015.38,4136.41,4080.51,4023.59,4184.62,4139.49,4106.67,4083.59,4792.31,3942.56,4092.31,4030.77,4191.79,0
12_9_5,40,4077.95,4015.38,4135.38,4083.59,4047.18,4174.87,4139.49,4109.23,4077.44,4790.26,3963.59,4107.18,4044.1,4206.15,0
12_9_5,41,4062.56,4012.82,4134.36,4078.46,4055.38,4156.92,4137.44,4104.1,4077.44,4781.03,3954.36,4107.69,4051.79,4202.56,0
12_9_5,42,4056.92,4022.05,4144.62,4083.59,4065.13,4141.54,4137.44,4100.51,4095.38,4771.28,3943.59,4104.1,4054.36,4198.97,0
12_9_5,43,4063.59,4032.31,4153.33,4094.36,4074.36,4134.87,4139.49,4103.08,4114.36,4769.74,3962.56,4116.41,4065.13,4213.33,0
12_9_5,44,4053.85,4028.72,4147.18,4093.33,4068.21,4123.08,4138.46,4104.62,4116.41,4757.95,3966.15,4121.54,4062.56,4213.85,0
12_9_5,45,4039.49,4027.18,4144.1,4089.74,4069.23,4105.13,4128.72,4103.59,4102.05,4734.36,3958.97,4107.69,4037.44,4191.79,0
12_9_5,46,4035.9,4037.44,4146.15,4097.95,4087.69,4093.33,4114.87,4105.13,4084.1,4720.51,3992.82,4094.87,4031.79,4183.08,0
12_9_5,47,4022.05,4034.36,4143.59,4102.56,4096.41,4084.1,4106.15,4106.67,4066.15,4711.79,4041.54,4088.72,4048.21,4185.13,0
12_9_5,48,3996.92,4017.44,4134.36,4092.31,4085.13,4073.85,4106.67,4102.05,4047.69,4693.85,4059.49,4080,4049.23,4173.85,0
12_9_6,49,3989.74,4013.85,4134.36,4089.23,4080.51,4068.72,4108.72,4100.51,4033.33,4680.51,4067.18,4072.82,4029.74,4158.97,0
12_9_6,50,3997.95,4027.69,4137.95,4099.49,4086.67,4058.97,4105.13,4101.03,4031.28,4687.69,4079.49,4077.95,4022.56,4158.97,0
12_9_6,51,4005.64,4045.64,4138.46,4107.69,4090.26,4045.13,4106.67,4101.03,4040.51,4702.56,4089.74,4089.74,4036.92,4169.74,0
12_9_6,52,4011.79,4049.74,4135.9,4105.64,4097.95,4041.03,4121.03,4100.51,4045.64,4701.03,4102.05,4094.87,4045.64,4172.31,0
12_9_6,53,4011.79,4043.59,4136.41,4099.49,4105.64,4038.46,4127.18,4098.97,4048.72,4691.28,4106.67,4087.18,4043.08,4162.05,0
12_9_6,54,4006.67,4050.26,4134.36,4096.41,4108.72,4030.77,4113.85,4100,4051.79,4687.69,4096.41,4075.38,4042.56,4154.36,0
12_9_6,55,3997.95,4057.44,4123.08,4093.33,4108.72,4027.18,4100,4101.54,4047.18,4669.23,4076.41,4062.05,4030.26,4140.51,0
12_9_6,63,3968.72,4058.97,4117.44,4081.03,4080,3976.92,4100.51,4099.49,4092.31,4593.33,4093.33,4078.97,4037.44,4112.31,0
12_9_6,64,3971.79,4073.85,4117.95,4088.72,4074.87,3967.69,4086.15,4099.49,4089.23,4562.56,4081.54,4073.85,4020.51,4097.44,0
12_9_6,65,3972.82,4079.49,4115.38,4088.72,4074.87,3972.82,4086.67,4097.95,4096.41,4572.82,4097.44,4074.87,4032.31,4095.9,0
12_9_6,66,3966.15,4071.79,4113.33,4080,4088.21,3986.15,4100.51,4098.46,4110.26,4588.72,4108.21,4073.85,4036.41,4095.9,0
12_9_6,67,3972.31,4088.21,4117.44,4091.79,4109.23,3992.31,4108.72,4099.49,4123.59,4592.82,4111.28,4080,4029.23,4095.9,0
12_9_6,68,3979.49,4100,4120.51,4100,4109.23,3992.82,4110.77,4100,4126.67,4595.38,4127.18,4092.31,4039.49,4101.54,0
12_9_6,69,3963.08,4085.64,4112.82,4082.56,4089.74,3990.26,4112.31,4098.97,4118.46,4583.59,4125.13,4084.62,4038.97,4091.28,0
12_9_6,70,3946.15,4083.59,4109.23,4073.85,4085.64,3986.67,4111.28,4098.97,4116.41,4558.97,4104.1,4061.03,4023.59,4070.26,0
12_9_6,71,3942.56,4090.26,4110.26,4075.38,4090.77,3983.59,4106.67,4100,4121.54,4549.74,4100.51,4047.69,4033.85,4058.97,0
12_9_6,72,3932.31,4081.03,4107.18,4070.26,4080,3977.95,4097.95,4098.97,4125.13,4549.74,4111.79,4044.62,4061.03,4054.36,0
12_9_6,73,3921.03,4081.03,4104.1,4071.28,4067.18,3973.33,4088.72,4097.44,4130.26,4548.21,4115.9,4043.59,4081.54,4050.77,0
12_9_6,74,3925.64,4097.44,4105.64,4077.95,4065.64,3973.85,4087.69,4097.95,4140,4558.46,4108.72,4045.13,4107.18,4048.72,0
12_9_6,75,3929.74,4098.46,4105.13,4077.44,4069.74,3975.9,4092.31,4097.44,4145.13,4574.36,4110.26,4051.28,4134.36,4047.18,0
12_9_6,76,3926.67,4097.95,4100,4074.87,4078.97,3973.33,4086.15,4096.92,4141.54,4573.33,4123.08,4056.92,4150.26,4042.05,0
12_9_6,77,3923.08,4106.67,4095.9,4071.79,4093.33,3972.82,4081.54,4098.46,4136.92,4558.97,4124.1,4057.95,4155.38,4029.23,0
12_9_6,78,3914.87,4097.44,4094.36,4059.49,4092.31,3975.9,4090.26,4098.97,4139.49,4545.64,4121.54,4064.1,4154.36,4023.08,0
12_9_6,79,3907.18,4089.74,4096.92,4058.97,4086.67,3976.41,4094.87,4096.41,4141.03,4527.69,4126.15,4073.33,4152.82,4024.1,0
12_9_6,80,3910.26,4112.31,4097.44,4074.36,4098.97,3981.54,4094.87,4096.92,4135.9,4518.97,4112.31,4070.26,4153.33,4013.33,0
12_9_6,81,3911.28,4128.21,4092.31,4076.92,4107.69,3987.69,4095.9,4098.97,4132.31,4522.56,4106.67,4060.51,4154.36,4001.54,0
12_9_6,82,3904.1,4110.77,4085.64,4065.64,4096.92,3982.05,4096.41,4097.95,4135.9,4509.74,4123.08,4063.59,4157.95,4002.56,0
12_9_6,83,3893.85,4092.31,4086.15,4054.87,4081.54,3967.69,4091.79,4096.92,4142.56,4475.38,4098.46,4080.51,4143.59,3998.97,0
12_9_6,84,3889.74,4105.13,4086.67,4055.38,4073.33,3958.46,4082.56,4098.46,4152.31,4451.79,4067.69,4092.31,4126.15,3992.82,0
12_9_6,85,3903.08,4117.44,4089.23,4069.23,4072.31,3958.46,4078.46,4097.95,4161.54,4469.23,4103.08,4092.82,4148.72,3997.44,0
12_9_6,86,3912.82,4114.87,4092.31,4072.31,4077.44,3961.03,4084.62,4097.44,4170.26,4491.28,4144.62,4112.31,4141.54,4023.08,0
12_9_6,87,3894.36,4121.54,4090.26,4058.97,4071.79,3957.95,4084.1,4098.97,4178.46,4466.67,4101.03,4122.56,4101.54,4029.23,0
12_9_6,88,3874.36,4112.31,4086.67,4053.33,4050.26,3955.38,4080,4098.97,4165.64,4425.13,4090.77,4111.28,4058.46,4015.38,0
12_9_6,89,3872.82,4091.28,4087.69,4048.21,4049.74,3957.95,4086.15,4097.44,4136.92,4415.9,4140.51,4143.08,3991.28,4030.26,0
12_9_6,90,3869.23,4110.26,4083.08,4040.51,4073.85,3962.56,4088.21,4098.46,4130.26,4429.23,4067.18,4140,4034.87,4006.67,0
12_9_6,91,3861.54,4137.44,4078.46,4049.23,4085.13,3969.23,4087.69,4099.49,4152.82,4446.15,4024.1,4053.85,4200,3925.13,0
12_9_6,92,3867.69,4128.72,4082.05,4057.44,4073.85,3974.87,4098.46,4098.97,4176.92,4462.05,4306.67,4029.23,4230.77,3909.74,0
12_9_6,93,3877.44,4136.92,4081.03,4049.23,4065.13,3971.79,4103.08,4099.49,4179.49,4462.56,4670.77,4091.28,4165.13,3957.95,0
12_9_6,94,3880,4149.74,4077.95,4049.74,4057.44,3964.1,4091.28,4097.95,4173.85,4444.1,4911.28,4122.05,4239.49,3973.33,0
12_9_6,95,3877.44,4109.74,4081.54,4046.15,4034.36,3952.82,4080.51,4095.38,4167.69,4427.18,5214.87,4122.56,4292.82,3994.36,0
12_9_6,96,3865.64,4096.92,4076.92,4012.82,4014.87,3946.15,4079.49,4099.49,4157.44,4430.26,5491.28,4113.33,4256.92,3996.92,0
12_9_6,97,3847.69,4128.72,4064.1,3983.08,4010.26,3952.82,4084.62,4098.97,4154.36,4431.79,5614.36,4083.59,4267.18,3948.72,0
12_9_6,98,3842.56,4125.64,4067.69,3988.72,3997.95,3960.51,4090.77,4092.82,4166.15,4402.05,5725.13,4099.49,4249.23,3952.82,0
12_9_6,99,3857.44,4118.46,4078.46,4006.67,3981.03,3958.97,4092.31,4095.9,4171.79,4394.36,5882.56,4126.67,4278.46,3975.38,0
12_9_6,100,3863.59,4138.97,4076.41,4005.64,3972.82,3958.97,4092.82,4102.05,4171.79,4446.15,6101.03,4089.74,4434.87,3942.05,0
12_9_6,101,3852.82,4127.18,4072.31,3989.74,3958.97,3958.46,4093.33,4099.49,4181.54,4457.95,6359.49,4062.05,4485.13,3923.59,0
12_9_6,102,3847.69,4106.15,4072.82,3969.74,3940.51,3949.74,4085.13,4095.9,4184.1,4418.97,6587.69,4078.97,4415.9,3937.95,0
12_9_6,103,3844.1,4131.79,4064.1,3956.92,3927.18,3942.56,4074.87,4099.49,4172.82,4428.72,6765.64,4070.77,4463.08,3921.03,0
12_9_6,104,3833.33,4147.69,4058.97,3950.26,3917.44,3943.59,4075.38,4104.1,4167.69,4455.9,6888.21,4041.54,4544.62,3898.97,0
12_9_6,105,3829.74,4131.28,4061.03,3944.62,3909.23,3944.1,4079.49,4103.08,4177.95,4437.44,6970.26,4049.23,4523.59,3906.67,0
12_9_6,106,3834.87,4123.59,4060,3946.67,3901.03,3940.51,4077.44,4097.44,4183.08,4438.46,7146.67,4050.26,4560,3910.77,0
12_9_6,107,3834.87,4126.67,4058.46,3942.56,3889.74,3939.49,4076.41,4095.9,4174.36,4456.92,7310.26,4042.56,4626.67,3921.03,0
12_9_6,108,3834.36,4130.26,4059.49,3936.92,3883.59,3933.85,4077.44,4099.49,4167.69,4414.36,7273.85,4066.67,4593.33,3938.97,0
12_9_6,109,3833.85,4135.9,4056.41,3946.67,3887.69,3928.21,4071.79,4098.46,4165.13,4387.69,7227.18,4070.26,4567.18,3928.72,0
12_9_6,110,3832.82,4137.44,4053.85,3959.49,3894.36,3933.85,4065.64,4097.44,4172.31,4437.95,7308.21,4035.38,4623.59,3903.08,0
12_9_6,111,3829.74,4138.97,4053.85,3967.69,3908.72,3935.38,4064.1,4098.97,4186.67,4473.33,7371.79,4023.08,4643.59,3902.56,0
12_9_6,112,3821.54,4139.49,4046.67,3988.72,3912.31,3926.67,4062.05,4097.95,4180,4457.95,7340.51,4031.79,4595.38,3908.21,0
12_9_6,113,3813.85,4138.97,4041.03,4010.26,3894.87,3925.13,4059.49,4095.9,4164.62,4454.87,7288.72,4024.1,4572.31,3896.92,0
12_9_6,114,3817.44,4140,4045.64,4011.28,3892.31,3928.72,4061.54,4097.44,4181.03,4478.46,7273.33,4028.72,4571.79,3902.05,0
12_9_6,115,3824.62,4138.97,4049.74,4016.92,3908.72,3927.18,4064.1,4098.97,4195.9,4510.26,7258.46,4045.64,4542.56,3923.08,0
12_9_6,116,3822.56,4142.05,4047.18,4024.1,3915.38,3927.18,4061.54,4097.44,4184.1,4532.31,7175.9,4042.05,4509.23,3930.26,0
12_9_6,117,3813.85,4137.95,4045.64,4017.95,3906.15,3928.21,4055.9,4097.44,4181.54,4519.49,7005.64,4035.9,4476.41,3924.62,0
12_9_6,118,3809.74,4128.21,4045.13,4018.97,3912.31,3924.1,4050.77,4098.97,4185.13,4522.56,6790.77,4040,4430.77,3914.87,0
12_9_6,119,3812.82,4135.38,4047.69,4022.56,3933.33,3923.59,4049.74,4097.95,4176.41,4570.26,6542.56,4044.1,4387.69,3915.9,0
12_9_6,120,3811.28,4154.36,4046.15,4017.44,3947.18,3929.23,4052.82,4097.44,4180.51,4618.46,6282.56,4046.67,4364.1,3927.18,0
12_9_6,121,3805.64,4158.97,4036.92,4013.85,3941.03,3930.26,4051.79,4100,4194.36,4649.23,6027.18,4053.85,4334.87,3925.64,0
12_9_6,122,3812.31,4161.54,4031.28,4014.36,3939.49,3935.9,4051.28,4100.51,4187.69,4699.49,5751.28,4057.44,4314.36,3924.1,0
12_9_6,123,3831.28,4178.46,4039.49,4016.41,3957.95,3949.74,4059.49,4098.46,4176.41,4769.74,5536.92,4065.13,4325.64,3938.46,0
12_9_6,124,3836.92,4184.1,4043.08,4020,3957.95,3949.74,4060.51,4097.44,4184.1,4818.97,5427.18,4074.87,4318.46,3946.15,0
12_9_6,125,3827.69,4170.77,4035.9,4017.44,3944.62,3938.46,4052.31,4097.44,4181.03,4851.79,5271.79,4069.23,4295.9,3938.46,0
12_9_6,126,3821.54,4163.08,4033.33,4014.36,3956.92,3938.97,4049.74,4096.41,4184.62,4872.31,5036.92,4068.21,4285.64,3938.46,0
12_9_6,127,3818.46,4174.87,4038.97,4023.08,3975.38,3942.56,4051.28,4097.95,4207.18,4882.05,4848.21,4076.92,4261.03,3936.41,0
12_9_6,128,3813.33,4185.13,4038.46,4027.18,3972.82,3941.54,4051.79,4099.49,4199.49,4906.15,4733.33,4081.03,4231.79,3924.62,0
12_9_6,0,3792.31,4186.15,4036.41,4025.64,3967.69,3949.74,4057.44,4096.92,4178.46,4942.05,4661.03,4086.67,4218.97,3930.26,0
12_9_6,1,3757.44,4192.31,4038.46,4038.46,3962.05,3956.41,4063.59,4098.46,4184.62,4978.46,4609.23,4095.38,4218.46,3948.21,0
12_9_6,2,3734.36,4191.28,4039.49,4045.64,3941.54,3948.72,4064.62,4102.56,4188.72,5020,4547.69,4092.82,4214.87,3947.69,0
12_9_6,3,3740.51,4196.41,4038.97,4036.41,3934.36,3942.56,4064.1,4100,4200,5075.9,4500.51,4097.95,4204.1,3942.56,0
12_9_6,4,3743.08,4204.62,4036.92,4025.64,3944.1,3945.13,4054.87,4096.92,4229.74,5107.69,4466.15,4107.18,4186.67,3945.64,0
12_9_6,5,3735.9,4195.38,4032.31,4018.46,3953.85,3943.08,4044.1,4097.95,4220,5099.49,4355.38,4098.46,4157.95,3943.59,0
12_9_6,6,3742.05,4180.51,4029.74,4018.97,3961.54,3938.46,4042.05,4098.46,4192.82,5124.62,4190.26,4089.74,4147.18,3938.97,0
12_9_6,7,3752.31,4176.92,4035.38,4030.26,3951.79,3933.85,4043.08,4096.92,4213.33,5190.77,4070.77,4092.82,4150.26,3940,0
12_9_6,8,3763.59,4195.9,4043.59,4048.21,3949.23,3933.33,4046.67,4096.92,4225.13,5220.51,3973.33,4106.67,4141.03,3950.26,0
12_9_6,9,3771.79,4209.23,4046.67,4052.31,3975.9,3940,4053.33,4098.46,4198.97,5229.23,3840.51,4117.95,4144.1,3962.05,0
12_9_6,10,3768.72,4205.64,4043.59,4044.1,3988.72,3946.67,4056.41,4097.95,4193.33,5272.82,3734.87,4114.36,4170.26,3962.56,0
12_9_6,11,3768.72,4206.15,4044.62,4043.59,3974.87,3949.23,4052.31,4098.46,4209.23,5310.26,3711.79,4106.15,4172.82,3958.46,0
12_9_6,12,3783.59,4211.79,4047.69,4047.69,3974.87,3957.44,4051.28,4099.49,4195.9,5313.33,3708.72,4110.77,4147.18,3962.05,0
12_9_6,13,3790.77,4198.97,4048.72,4047.69,3982.56,3962.05,4048.21,4099.49,4182.56,5321.03,3695.38,4114.87,4132.31,3965.64,0
12_9_6,14,3778.97,4171.79,4045.13,4043.59,3971.79,3950.77,4039.49,4101.03,4196.41,5342.56,3689.23,4105.64,4111.28,3956.92,0
12_9_6,15,3784.62,4176.41,4046.15,4036.92,3974.87,3938.46,4041.03,4103.08,4177.44,5373.85,3689.23,4102.56,4102.05,3952.82,0
12_9_6,16,3805.64,4197.44,4056.41,4041.54,3996.41,3937.44,4046.67,4100,4137.95,5420,3682.56,4112.31,4127.69,3966.67,0
12_9_6,17,3821.03,4203.08,4062.05,4061.03,4007.18,3947.69,4045.64,4096.41,4157.44,5478.97,3672.31,4125.64,4140,3978.46,0
12_9_6,18,3827.69,4201.54,4054.87,4068.21,4008.72,3960.51,4041.03,4097.95,4189.74,5517.44,3670.26,4121.03,4129.23,3974.36,0
12_9_6,19,3826.67,4197.44,4050.77,4061.03,4003.59,3962.56,4041.03,4098.46,4162.56,5513.85,3652.82,4105.13,4120.51,3968.21,0
12_9_6,20,3823.08,4188.72,4056.41,4060,4000,3964.62,4047.18,4097.44,4136.41,5501.54,3625.13,4109.23,4107.18,3971.28,0
12_9_6,21,3832.31,4182.56,4057.44,4065.13,4012.31,3971.28,4052.31,4099.49,4154.36,5521.03,3627.18,4124.1,4091.79,3977.95,0
12_9_6,22,3847.69,4190.77,4059.49,4074.87,4036.92,3972.31,4049.74,4100,4164.1,5540.51,3638.46,4122.56,4089.74,3981.54,0
12_9_6,23,3857.44,4201.03,4068.72,4092.82,4047.69,3971.28,4045.13,4097.95,4152.82,5526.15,3624.62,4120,4089.74,3985.64,0
12_9_6,24,3870.77,4206.15,4074.36,4098.46,4044.62,3973.85,4050.77,4097.44,4136.92,5515.9,3618.46,4129.74,4090.77,3996.41,0
12_9_6,25,3886.67,4212.82,4073.33,4093.85,4042.56,3976.41,4056.92,4098.46,4152.31,5550.26,3641.03,4139.49,4107.18,4011.79,0
12_9_6,26,3880.51,4208.21,4071.79,4095.38,4040,3975.38,4047.69,4098.46,4184.1,5574.36,3645.13,4131.79,4106.15,4006.15,0
12_9_6,27,3865.13,4191.28,4066.67,4095.38,4036.41,3968.21,4037.95,4097.95,4169.23,5526.67,3620.51,4113.33,4074.36,3983.08,0
12_9_6,28,3868.72,4188.21,4066.15,4090.77,4040,3967.69,4042.05,4098.97,4136.41,5478.46,3608.72,4110.26,4056.92,3978.46,0
12_9_6,29,3880,4203.59,4072.31,4100,4048.21,3982.05,4048.72,4100,4146.67,5482.56,3617.44,4118.46,4074.87,3987.69,0
12_9_6,30,3882.56,4207.69,4080,4109.23,4055.38,3989.23,4046.15,4099.49,4168.21,5488.21,3612.31,4112.31,4096.92,3988.21,0
12_9_6,31,3883.59,4196.92,4080,4103.08,4053.33,3983.08,4046.15,4097.95,4169.74,5477.44,3586.15,4105.13,4106.67,3986.67,0
12_9_6,32,3885.13,4196.41,4078.97,4094.87,4046.67,3985.64,4052.82,4097.44,4171.28,5464.62,3567.69,4115.9,4123.08,3989.74,0
12_9_6,33,3882.05,4203.08,4081.03,4092.82,4043.59,3990.26,4054.87,4097.95,4171.28,5462.56,3572.82,4125.64,4146.67,3988.72,0
12_9_6,34,3881.54,4201.03,4080,4099.49,4042.56,3984.1,4047.69,4097.44,4169.74,5459.49,3585.64,4122.05,4163.08,3989.23,0
12_9_6,34,3881.54,4201.03,4080,4099.49,4042.56,3984.1,4047.69,4097.44,4169.74,5459.49,3585.64,4122.05,4163.08,3989.23,0
12_9_6,35,3886.67,4197.95,4079.49,4106.67,4045.64,3981.54,4041.54,4096.92,4183.59,5446.67,3597.95,4122.56,4173.85,3996.41,0
12_9_6,36,3877.44,4190.77,4078.46,4092.31,4048.21,3989.23,4050.77,4098.97,4193.85,5442.05,3606.67,4127.69,4173.85,3991.79,0
12_9_6,37,3865.64,4178.97,4074.36,4074.87,4042.56,3991.28,4054.87,4098.46,4180.51,5437.44,3606.67,4125.64,4160.51,3975.9,0
12_9_6,38,3868.21,4174.87,4071.28,4084.1,4040.51,3986.15,4037.95,4097.44,4166.15,5401.03,3605.13,4114.87,4150.26,3969.74,0
12_9_6,39,3874.87,4173.85,4071.28,4098.46,4048.21,3986.67,4029.74,4097.95,4171.79,5374.87,3611.79,4109.23,4153.85,3971.79,0
12_9_6,40,3875.38,4171.28,4070.77,4090.77,4049.74,3991.28,4044.62,4096.41,4185.64,5390.26,3623.59,4118.46,4152.82,3974.36,0
12_9_6,41,3875.9,4174.36,4070.26,4080,4048.21,3993.33,4045.64,4097.44,4189.74,5381.03,3635.9,4128.21,4147.69,3978.97,0
12_9_6,42,3885.64,4188.21,4074.36,4091.79,4056.92,3998.97,4037.95,4101.03,4194.87,5362.56,3662.05,4137.44,4159.49,3990.77,0
12_9_6,43,3898.97,4191.79,4078.46,4107.18,4061.03,4006.15,4049.74,4100,4205.64,5384.62,3692.82,4149.74,4176.92,4002.05,0
12_9_6,44,3894.87,4176.41,4078.97,4100,4054.87,4008.21,4061.03,4096.92,4203.08,5381.54,3701.54,4155.9,4165.64,4000,0
12_9_6,45,3880.51,4175.38,4080,4093.85,4061.54,4006.67,4052.82,4097.95,4186.67,5334.36,3695.9,4154.87,4147.18,3991.28,0
12_9_6,46,3879.49,4185.13,4077.95,4107.18,4077.95,4010.26,4047.69,4098.97,4180,5313.85,3691.79,4150.77,4146.67,3985.64,0
12_9_6,47,3881.03,4175.9,4076.92,4106.15,4075.9,4012.82,4056.92,4097.95,4190.77,5311.28,3681.03,4140,4136.92,3975.38,0
12_9_6,48,3873.33,4168.72,4075.9,4091.28,4069.23,4008.72,4054.87,4098.97,4193.85,5290.26,3682.05,4133.85,4116.92,3968.72,0
12_9_6,49,3878.97,4184.62,4077.95,4099.49,4082.56,4003.08,4036.41,4099.49,4184.1,5275.38,3707.69,4140,4121.54,3979.49,0
12_9_6,50,3888.21,4192.82,4079.49,4112.82,4092.31,4003.59,4031.28,4098.97,4188.21,5269.74,3724.62,4144.62,4127.69,3985.13,0
12_9_6,51,3884.1,4183.59,4079.49,4103.08,4076.41,4007.18,4045.13,4100,4192.82,5249.74,3728.21,4143.08,4113.85,3974.87,0
12_9_6,52,3881.54,4181.03,4080.51,4095.9,4057.44,4006.67,4053.33,4099.49,4179.49,5228.72,3735.9,4143.59,4111.28,3971.79,0
12_9_6,53,3883.08,4169.23,4078.97,4100,4051.28,4005.64,4060,4097.95,4171.79,5204.1,3740.51,4141.54,4114.36,3975.9,0
12_9_7,54,3875.38,4153.85,4076.92,4093.85,4054.36,4006.67,4066.15,4098.97,4173.85,5161.54,3740,4138.46,4104.62,3970.26,0
12_9_7,55,3870.77,4160,4078.97,4085.64,4065.13,4008.21,4051.28,4095.9,4169.74,5128.21,3733.85,4137.95,4103.59,3961.03,0
12_9_7,56,3871.28,4165.13,4082.05,4096.41,4066.67,4007.69,4036.92,4093.33,4177.95,5112.31,3735.38,4137.95,4107.69,3963.59,0
12_9_7,57,3867.18,4160.51,4078.97,4109.74,4061.03,4009.23,4045.13,4098.46,4191.28,5086.67,3750.26,4140.51,4094.87,3971.28,0
12_9_7,58,3868.72,4162.56,4075.38,4107.69,4067.69,4009.74,4052.31,4102.05,4182.56,5050.26,3752.82,4142.05,4077.44,3966.67,0
12_9_7,59,3874.87,4168.72,4075.9,4103.59,4072.82,3997.95,4032.31,4096.92,4167.18,5029.23,3740.51,4135.9,4075.38,3957.44,0
12_9_7,60,3877.44,4167.69,4078.97,4107.18,4068.72,3987.18,4014.87,4096.92,4168.21,5011.28,3746.15,4134.36,4072.82,3962.05,0
12_9_7,61,3886.15,4172.31,4080,4116.41,4065.64,3995.9,4030.77,4102.56,4177.44,4984.1,3758.97,4140.51,4064.62,3975.9,0
12_9_7,62,3893.33,4180.51,4079.49,4121.03,4065.64,4011.79,4051.28,4101.54,4181.54,4958.46,3752.82,4138.97,4060.51,3980,0
12_9_7,63,3892.31,4181.54,4079.49,4118.97,4073.85,4015.38,4047.69,4096.41,4187.69,4944.1,3753.33,4135.9,4070.26,3982.56,0
12_9_7,64,3904.1,4189.74,4084.1,4124.62,4090.26,4010.77,4041.54,4096.41,4196.41,4933.33,3774.36,4147.69,4083.08,3998.97,0
12_9_7,65,3918.97,4194.36,4087.69,4140.51,4098.46,4015.9,4058.97,4099.49,4201.03,4909.74,3795.38,4165.13,4082.56,4018.46,0
12_9_7,66,3907.18,4188.21,4086.15,4146.67,4087.69,4019.49,4066.67,4098.97,4192.82,4878.46,3789.74,4161.03,4073.85,4012.82,0
12_9_7,67,3887.69,4182.56,4078.97,4141.03,4082.56,4009.23,4045.64,4097.44,4180,4846.15,3762.05,4143.08,4062.05,3993.85,0
12_9_7,68,3885.64,4185.13,4076.41,4148.21,4090.26,4006.67,4030.26,4099.49,4175.9,4810.77,3746.67,4134.87,4043.08,3985.13,0
12_9_7,69,3893.33,4193.33,4079.49,4165.64,4098.46,4013.85,4037.44,4098.97,4178.46,4790.26,3751.28,4137.44,4032.31,3988.21,0
12_9_7,70,3903.59,4200.51,4086.15,4173.85,4094.36,4008.21,4043.59,4097.44,4186.15,4786.67,3758.97,4144.62,4037.44,3996.92,0
12_9_7,71,3910.77,4205.64,4089.74,4178.97,4081.54,4003.59,4040,4101.54,4187.69,4759.49,3758.46,4153.85,4030.26,4003.08,0
12_9_7,72,3912.31,4200.51,4086.67,4183.08,4083.08,4013.85,4041.03,4103.59,4189.23,4725.13,3750.26,4156.41,4018.97,4001.54,0
12_9_7,73,3910.26,4190.26,4084.1,4178.46,4093.33,4015.38,4045.64,4098.97,4202.05,4717.95,3738.46,4153.85,4025.64,4001.03,0
12_9_7,74,3904.62,4185.64,4084.1,4176.41,4093.85,4010.77,4046.15,4096.92,4204.62,4696.41,3742.56,4154.36,4023.59,4004.62,0
12_9_7,75,3902.56,4186.15,4086.15,4185.13,4093.33,4015.9,4044.1,4098.46,4180.51,4652.82,3751.79,4147.18,4010.26,4003.59,0
12_9_7,76,3908.72,4185.13,4086.15,4187.18,4095.9,4016.41,4038.97,4098.97,4165.13,4625.64,3750.26,4140,4014.87,4004.1,0
12_9_7,77,3911.28,4181.54,4083.08,4182.05,4094.87,4013.85,4036.41,4098.97,4181.03,4607.18,3748.21,4147.69,4013.85,4006.15,0
12_9_7,78,3910.26,4183.08,4080.51,4184.62,4097.44,4018.46,4037.95,4100,4186.15,4582.05,3751.79,4153.33,3994.87,4003.08,0
12_9_7,79,3918.97,4191.28,4087.69,4193.33,4106.67,4017.95,4030.77,4098.97,4177.95,4578.46,3764.62,4149.74,3997.44,4011.79,0
12_9_7,80,3936.41,4203.59,4095.9,4201.54,4108.72,4016.92,4032.31,4097.95,4192.82,4588.72,3787.69,4160.51,4014.87,4031.79,0
12_9_7,81,3944.62,4208.21,4095.38,4203.08,4105.64,4023.59,4046.67,4097.95,4205.64,4575.9,3787.69,4171.28,4009.74,4035.38,0
12_9_7,82,3928.72,4202.56,4089.74,4199.49,4105.13,4024.62,4047.18,4096.92,4188.72,4541.54,3761.54,4160,3995.38,4019.49,0
12_9_7,83,3904.62,4201.03,4089.23,4202.56,4104.62,4020.51,4037.95,4096.92,4177.95,4507.69,3749.23,4149.74,3983.08,4008.21,0
12_9_7,84,3903.08,4205.64,4092.31,4214.36,4109.23,4025.64,4041.03,4098.97,4192.82,4497.44,3759.49,4156.92,3978.46,4008.72,0
12_9_7,85,3909.74,4204.62,4091.79,4218.46,4110.26,4032.31,4049.74,4097.44,4194.36,4491.28,3755.38,4158.46,3985.64,4009.74,0
12_9_7,86,3895.9,4195.9,4085.13,4212.31,4105.64,4029.74,4044.62,4095.38,4174.36,4457.95,3730.77,4148.21,3977.95,4001.54,0
12_9_7,87,3886.67,4189.74,4085.13,4209.23,4110.26,4028.72,4036.92,4098.46,4174.36,4427.69,3722.56,4148.72,3958.97,3998.46,0
12_9_7,88,3904.62,4190.77,4087.18,4203.08,4122.05,4031.79,4038.46,4099.49,4189.23,4416.41,3737.95,4154.36,3964.62,4008.72,0
12_9_7,89,3935.9,4194.87,4086.15,4187.69,4122.05,4033.33,4044.1,4097.44,4189.23,4399.49,3741.54,4152.82,3976.92,4015.38,0
12_9_7,90,3960.51,4192.31,4087.69,4181.03,4107.18,4035.38,4050.77,4100.51,4183.08,4383.59,3742.05,4156.41,3973.33,4018.97,0
12_9_7,91,3976.92,4193.85,4092.31,4186.67,4104.62,4037.44,4051.79,4101.03,4185.64,4380.51,3767.18,4169.74,3977.44,4033.85,0
12_9_7,92,3988.72,4209.23,4091.79,4193.85,4118.97,4037.44,4045.64,4098.97,4186.15,4369.23,3775.9,4172.82,3983.59,4042.05,0
12_9_7,93,3994.87,4220.51,4087.69,4198.97,4118.46,4036.41,4040.51,4101.54,4188.72,4348.21,3748.21,4164.1,3970.77,4031.28,0
12_9_7,94,3993.33,4224.1,4088.21,4201.54,4110.77,4035.38,4040,4101.03,4190.26,4318.97,3722.05,4151.79,3949.23,4014.87,0
12_9_7,95,3982.05,4229.74,4083.59,4201.03,4130.26,4039.49,4026.67,4096.41,4171.79,4270.26,3699.49,4127.18,3917.44,3994.36,0
12_9_7,96,3982.56,4238.46,4082.56,4207.18,4143.08,4043.08,4025.64,4096.92,4165.13,4250.77,3692.82,4118.97,3903.59,3989.74,0
12_9_7,97,4002.05,4246.67,4090.77,4213.85,4109.23,4040,4055.9,4099.49,4195.38,4275.9,3720,4146.15,3923.08,4014.87,0
12_9_7,98,4013.33,4248.72,4093.33,4210.77,4078.46,4035.38,4067.18,4097.95,4208.72,4277.95,3735.38,4158.97,3927.18,4025.13,0
12_9_7,99,4005.13,4244.1,4084.62,4206.15,4075.9,4036.41,4050.26,4097.95,4188.72,4248.21,3712.31,4142.05,3896.92,4004.62,0
12_9_7,100,4002.05,4243.08,4083.59,4203.59,4072.31,4037.44,4041.54,4098.97,4182.56,4232.31,3697.44,4132.82,3878.97,3992.31,0
12_9_7,101,4008.72,4252.82,4087.18,4208.72,4080,4037.44,4040.51,4097.95,4192.31,4226.67,3709.74,4136.41,3884.1,3998.46,0
12_9_7,102,4015.38,4258.97,4088.21,4215.38,4095.9,4039.49,4034.36,4097.95,4190.26,4209.23,3718.97,4132.82,3884.62,4001.03,0
12_9_7,103,4025.64,4265.13,4091.28,4221.54,4094.87,4038.46,4027.69,4098.97,4182.56,4186.15,3721.03,4133.33,3876.41,4004.62,0
12_9_7,104,4029.23,4274.36,4093.33,4226.15,4092.31,4037.44,4023.59,4100,4182.05,4160.51,3722.05,4136.92,3869.23,4008.72,0
12_9_7,105,4025.64,4273.33,4089.74,4229.23,4084.62,4047.69,4040.51,4098.97,4191.79,4153.33,3724.62,4137.95,3873.85,4010.26,0
12_9_7,106,4017.44,4256.92,4084.62,4220.51,4063.08,4056.92,4062.05,4097.44,4197.95,4155.38,3721.54,4131.28,3873.85,4002.05,0
12_9_7,107,3995.38,4236.92,4077.95,4203.59,4050.77,4048.21,4053.85,4097.95,4186.15,4119.49,3696.41,4105.13,3837.95,3971.79,0
12_9_7,108,3982.56,4226.15,4074.36,4194.87,4031.28,4034.87,4038.46,4099.49,4172.82,4080.51,3676.92,4086.67,3813.33,3953.33,0
12_9_7,109,3994.87,4224.1,4077.44,4193.33,4014.36,4032.31,4035.38,4097.95,4168.21,4083.59,3690.26,4096.41,3827.18,3966.67,0
12_9_7,110,4014.87,4235.9,4085.13,4210.26,4039.49,4037.44,4031.28,4097.44,4176.92,4096.41,3718.97,4116.41,3848.21,3988.72,0
12_9_7,111,4026.15,4250.77,4089.74,4227.69,4058.97,4034.87,4027.69,4102.05,4193.33,4092.82,3742.05,4132.82,3855.38,4006.67,0
12_9_7,112,4028.72,4247.18,4087.18,4220.51,4030.77,4024.62,4029.23,4101.54,4189.74,4075.9,3752.31,4137.95,3850.77,4010.26,0
12_9_7,113,4024.62,4236.92,4081.03,4216.41,4015.9,4032.31,4028.72,4099.49,4171.28,4050.77,3745.13,4125.13,3840.51,3997.44,0
12_9_7,114,4014.87,4230.77,4076.92,4216.41,4027.18,4048.21,4026.67,4101.54,4164.1,4023.08,3735.38,4107.69,3828.21,3984.1,0
12_9_7,115,4007.69,4221.54,4074.87,4182.56,4018.97,4045.13,4027.69,4101.03,4170.77,3997.44,3750.26,4108.72,3824.1,3985.64,0
12_9_7,116,4005.64,4212.82,4071.28,4147.18,4012.82,4040.51,4031.79,4096.92,4183.08,3985.64,3763.59,4111.79,3827.69,3988.72,0
12_9_7,117,4012.31,4213.33,4074.36,4159.49,4016.41,4048.72,4036.92,4096.92,4186.15,3993.33,3764.1,4106.15,3831.28,3987.18,0
12_9_7,118,4011.79,4209.74,4076.41,4171.28,4002.56,4046.15,4034.87,4098.97,4172.31,3977.44,3756.41,4100,3821.03,3979.49,0
12_9_7,119,3998.46,4196.41,4070.26,4151.79,3992.31,4040,4026.15,4097.95,4161.54,3929.23,3740,4088.21,3794.87,3967.18,0
12_9_7,120,4006.67,4196.92,4070.26,4147.18,3986.15,4043.08,4034.36,4097.95,4171.79,3908.72,3761.03,4097.44,3797.44,3976.92,0
12_9_7,121,4026.67,4203.08,4077.95,4165.64,3966.15,4044.1,4047.18,4097.95,4169.23,3902.05,3785.13,4119.49,3811.79,3992.31,0
12_9_7,122,4024.62,4192.31,4077.95,4168.72,3953.85,4044.62,4039.49,4097.44,4150.26,3874.87,3764.62,4115.38,3808.72,3985.64,0
12_9_7,123,4020.51,4182.56,4075.9,4162.56,3947.69,4038.97,4033.85,4097.95,4150.26,3855.9,3754.36,4110.77,3827.18,3987.18,0
12_9_7,124,4026.15,4178.97,4072.82,4162.05,3928.72,4033.85,4034.36,4096.92,4155.9,3839.49,3764.62,4116.92,3854.87,3993.85,0
12_9_7,125,4012.82,4164.62,4067.69,4157.95,3921.03,4040.51,4021.54,4097.44,4145.64,3811.28,3754.36,4102.56,3861.54,3980.51,0
12_9_7,126,3999.49,4142.56,4065.13,4154.36,3916.41,4049.74,4015.38,4098.97,4143.59,3802.05,3757.95,4089.23,3881.03,3976.92,0
12_9_7,127,4004.1,4124.1,4061.03,4153.33,3893.33,4057.44,4032.82,4100,4162.56,3810.26,3784.62,4103.08,3913.33,3992.82,0
12_9_7,128,4004.1,4108.21,4055.9,4153.33,3887.18,4061.54,4041.03,4098.97,4173.33,3803.59,3791.28,4110.77,3920.51,3998.97,0
12_9_7,0,4012.82,4100.51,4059.49,4164.62,3897.95,4051.28,4049.74,4098.46,4169.74,3792.82,3802.56,4121.54,3937.44,4010.26,0
12_9_7,1,4035.38,4093.33,4064.1,4183.59,3896.41,4040,4066.67,4098.97,4169.23,3786.15,3828.72,4141.03,3970.77,4034.36,0
12_9_7,2,4022.05,4071.79,4057.95,4188.72,3898.46,4045.13,4056.41,4098.46,4153.33,3753.33,3822.05,4131.79,3955.38,4028.21,0
12_9_7,3,3976.92,4052.31,4049.23,4182.05,3914.87,4047.18,4033.33,4098.97,4120.51,3702.05,3804.1,4111.79,3925.13,4007.69,0
12_9_7,4,3952.31,4035.9,4046.15,4171.79,3927.69,4043.08,4026.67,4098.46,4124.62,3679.49,3812.31,4107.18,3929.74,4005.13,0
12_9_7,5,3962.05,4010.26,4049.23,4168.21,3927.69,4044.1,4033.33,4096.92,4161.03,3686.67,3839.49,4112.82,3942.05,4016.41,0
12_9_7,6,3984.62,3993.85,4052.82,4191.28,3948.21,4037.95,4047.69,4097.44,4167.18,3664.1,3865.64,4129.23,3952.82,4036.92,0
12_9_7,7,4000,3989.23,4053.33,4215.38,4031.28,4029.74,4062.56,4098.46,4155.38,3605.13,3875.38,4143.59,3965.13,4052.31,0
12_9_7,8,4004.1,3975.38,4049.74,4220.51,4154.87,4038.97,4065.13,4098.46,4162.05,3562.05,3870.77,4142.05,3966.15,4053.33,0
12_9_7,9,4008.21,3960.51,4049.23,4227.69,4252.31,4056.92,4062.05,4098.46,4163.08,3537.95,3866.15,4135.9,3952.82,4049.23,0
12_9_7,10,4013.85,3960,4048.72,4234.36,4283.08,4061.54,4058.97,4098.46,4148.21,3503.59,3872.31,4135.9,3944.1,4055.38,0
12_9_7,11,4012.82,3946.15,4044.62,4222.05,4286.67,4066.67,4053.85,4098.46,4140.51,3463.08,3873.33,4132.82,3940,4056.92,0
12_9_7,12,4008.21,3924.1,4043.08,4223.08,4304.62,4075.38,4065.13,4097.95,4140.51,3436.92,3869.74,4137.44,3947.18,4060.51,0
12_9_7,13,3992.82,3923.59,4041.54,4250.26,4341.54,4070.26,4065.64,4098.46,4134.87,3403.08,3858.97,4136.41,3947.18,4065.13,0
12_9_7,14,3968.72,3908.21,4033.85,4278.46,4317.44,4069.23,4048.21,4098.46,4135.38,3369.23,3842.05,4121.54,3929.74,4056.41,0
12_9_7,15,3982.56,3874.87,4040,4324.1,4146.15,4075.9,4073.33,4098.46,4167.69,3388.21,3874.36,4149.74,3961.54,4081.03,0
12_9_7,16,4019.49,3877.95,4048.21,4390.26,3992.82,4068.21,4106.15,4100,4188.72,3398.46,3920,4198.46,4006.15,4127.69,0
12_9_7,17,4008.72,3891.28,4032.31,4427.18,4037.95,4057.44,4077.95,4104.1,4148.21,3323.59,3892.31,4176.92,3960,4107.69,0
12_9_7,18,3998.46,3889.74,4024.62,4458.46,4110.26,4056.92,4058.46,4104.62,4121.54,3251.79,3851.28,4139.49,3903.08,4072.82,0
12_9_7,19,4021.03,3906.67,4029.23,4513.33,4070.26,4058.97,4067.69,4100,4128.21,3210.26,3844.62,4140.51,3892.31,4079.49,0
12_9_7,20,4015.38,3915.38,4019.49,4539.49,4015.9,4066.67,4055.38,4097.44,4112.82,3157.44,3827.69,4126.67,3866.15,4071.28,0
12_9_7,21,4016.92,3899.49,4023.59,4542.05,3935.9,4070.77,4072.31,4098.46,4130.26,3159.49,3846.67,4135.9,3869.23,4080.51,0
12_9_7,22,4036.92,3891.28,4035.9,4564.1,3843.59,4070.77,4094.36,4098.97,4147.69,3162.56,3871.79,4158.46,3887.18,4104.62,0
12_9_7,23,4019.49,3886.15,4021.03,4583.08,3860,4076.92,4070.26,4097.95,4119.49,3106.15,3825.13,4132.82,3838.46,4075.9,0
12_9_7,24,4010.77,3878.46,4013.85,4586.15,3911.28,4067.18,4070.77,4098.97,4129.23,3108.21,3807.69,4130.26,3812.82,4064.62,0
12_9_7,25,4032.82,3877.95,4017.95,4587.18,3882.56,4047.18,4094.87,4102.56,4158.97,3141.03,3834.87,4159.49,3838.97,4092.31,0
12_9_7,26,4027.18,3878.97,4009.23,4580,3820.51,4046.67,4071.79,4104.62,4125.13,3085.13,3803.08,4136.41,3809.74,4069.74,0
12_9_7,27,4022.05,3886.67,4007.69,4578.97,3774.36,4045.13,4044.1,4102.05,4087.69,3028.21,3766.67,4109.74,3771.28,4044.1,0
12_9_7,28,4031.28,3891.28,4012.82,4586.67,3785.13,4035.9,4040,4097.95,4076.92,3007.69,3761.54,4112.82,3768.21,4053.85,0
12_9_7,29,4020.51,3871.79,4005.13,4585.13,3832.82,4043.08,4043.59,4098.46,4083.59,2991.28,3742.05,4103.59,3757.95,4048.21,0
12_9_7,30,4038.97,3857.95,4009.23,4587.69,3805.64,4046.67,4085.64,4098.46,4139.49,3033.33,3758.97,4127.69,3778.97,4065.13,0
12_9_7,31,4076.92,3863.59,4014.87,4599.49,3747.69,4038.97,4115.38,4100,4164.62,3062.56,3787.69,4160,3809.23,4094.36,0
12_9_7,32,4080,3865.13,4004.62,4608.21,3734.87,4041.03,4100,4104.1,4127.69,3016.92,3769.74,4149.23,3797.44,4086.15,0
12_9_7,33,4070.77,3860,3993.85,4608.72,3704.62,4043.59,4082.05,4103.59,4105.13,2983.08,3750.77,4131.28,3773.85,4067.69,0
12_9_7,34,4071.28,3855.38,3988.21,4606.15,3627.69,4036.92,4057.44,4098.46,4089.74,2988.21,3741.54,4120.51,3755.9,4054.87,0
12_9_7,35,4075.9,3855.38,3987.18,4618.46,3570.77,4034.36,4037.44,4096.92,4070.26,2981.03,3733.33,4116.41,3746.67,4050.26,0
12_9_7,36,4086.15,3849.23,3992.31,4642.56,3541.54,4032.82,4054.87,4097.44,4075.9,2956.41,3755.9,4131.79,3758.46,4068.72,0
12_9_7,37,4102.05,3833.33,4000.51,4667.69,3490.77,4028.21,4096.92,4096.92,4115.9,2952.82,3788.21,4160,3788.72,4098.46,0
12_9_7,38,4118.46,3821.54,4005.13,4699.49,3445.64,4035.9,4113.85,4097.95,4142.56,2953.85,3789.23,4172.31,3806.67,4109.23,0
12_9_7,39,4129.74,3818.46,4009.74,4733.33,3412.82,4041.54,4103.08,4101.54,4129.74,2931.79,3784.1,4166.15,3798.46,4104.1,0
12_9_7,40,4123.59,3813.85,4007.69,4746.67,3417.44,4036.92,4088.72,4101.54,4106.67,2900,3775.9,4143.59,3766.15,4083.08,0
12_9_7,41,4116.92,3811.79,4005.64,4748.72,3499.49,4038.97,4078.97,4098.97,4106.15,2888.72,3757.44,4125.13,3743.08,4058.97,0
12_9_7,42,4131.28,3817.44,4008.21,4768.21,3578.46,4045.64,4077.95,4097.95,4095.9,2871.28,3749.74,4124.62,3739.49,4057.44,0
12_9_7,43,4134.87,3814.36,4010.77,4805.64,3590.77,4043.08,4071.79,4098.46,4057.44,2832.82,3743.59,4116.92,3725.13,4054.36,0
12_9_7,44,4125.13,3805.13,4014.36,4837.95,3589.74,4041.03,4069.23,4097.44,4064.62,2835.38,3742.56,4111.79,3720,4048.72,0
12_9_7,45,4130.77,3798.97,4022.05,4854.87,3591.28,4045.64,4081.03,4096.92,4104.62,2873.85,3759.49,4128.21,3742.56,4067.18,0
12_9_7,46,4142.56,3803.59,4026.67,4865.64,3545.64,4042.56,4098.97,4097.95,4105.13,2884.62,3777.44,4148.21,3761.03,4092.31,0
12_9_7,47,4137.95,3806.15,4027.18,4870.77,3503.08,4033.33,4095.38,4097.95,4089.23,2846.15,3770.77,4149.23,3744.62,4086.15,0
12_9_7,48,4129.23,3803.08,4022.05,4865.13,3511.79,4027.18,4073.33,4098.97,4083.59,2795.9,3747.69,4131.28,3722.56,4067.18,0
12_9_8,49,4136.92,3805.13,4020.51,4848.21,3515.38,4025.13,4068.72,4100.51,4070.26,2773.33,3737.44,4122.05,3726.67,4071.28,0
12_9_8,50,4149.74,3815.9,4026.67,4832.31,3489.74,4027.18,4079.49,4099.49,4065.64,2783.08,3749.23,4132.31,3738.97,4085.13,0
12_9_8,51,4153.85,3821.54,4027.69,4824.62,3462.56,4031.79,4076.92,4097.95,4073.85,2790.26,3752.31,4133.85,3742.05,4083.59,0
12_9_8,52,4140.51,3808.72,4011.28,4813.33,3447.69,4040,4066.67,4097.95,4060.51,2768.72,3729.74,4115.38,3733.85,4072.82,0
12_9_8,53,4132.82,3790.26,4003.08,4797.95,3429.23,4042.05,4072.31,4098.97,4057.95,2762.56,3727.69,4117.44,3738.46,4075.38,0
12_9_8,54,4139.49,3782.56,4013.33,4790.26,3418.97,4034.87,4083.59,4098.46,4083.59,2784.1,3754.36,4138.97,3768.72,4091.79,0
12_9_8,55,4140.51,3784.1,4017.44,4786.15,3441.03,4031.79,4084.62,4098.46,4086.67,2785.13,3760.51,4139.49,3788.72,4097.95,0
12_9_8,56,4137.95,3783.59,4014.36,4773.85,3463.59,4035.9,4088.72,4098.46,4080.51,2769.74,3760,4142.56,3791.79,4102.56,0
12_9_8,57,4142.56,3774.87,4015.9,4752.82,3469.23,4037.44,4093.85,4098.46,4088.72,2771.28,3775.9,4157.95,3803.08,4115.38,0
12_9_8,58,4135.38,3765.13,4012.31,4727.18,3486.15,4036.41,4091.28,4098.97,4079.49,2766.67,3770.26,4149.23,3805.64,4108.21,0
12_9_8,59,4126.15,3758.97,4006.67,4705.64,3506.15,4037.44,4092.31,4098.46,4060.51,2747.18,3748.72,4133.85,3794.36,4092.31,0
12_9_8,60,4128.21,3755.9,4010.77,4690.77,3490.26,4034.87,4087.18,4098.46,4056.92,2732.82,3744.62,4135.9,3798.97,4092.31,0
12_9_8,61,4126.15,3752.82,4012.82,4676.92,3451.28,4031.28,4076.41,4098.97,4062.05,2731.79,3750.77,4138.46,3813.33,4099.49,0
12_9_8,62,4126.67,3753.85,4011.28,4663.59,3445.64,4032.82,4082.56,4099.49,4062.56,2744.1,3752.82,4140,3824.62,4104.62,0
12_9_8,63,4139.49,3757.95,4014.87,4648.72,3474.87,4037.95,4092.31,4099.49,4063.59,2754.87,3758.97,4146.67,3838.97,4114.87,0
12_9_8,64,4148.72,3758.97,4021.54,4628.21,3485.64,4042.05,4096.41,4100,4080.51,2768.72,3781.03,4156.41,3851.28,4127.69,0
12_9_8,65,4135.9,3755.38,4018.46,4602.56,3465.13,4044.62,4101.54,4099.49,4085.64,2778.97,3785.64,4156.41,3856.41,4127.18,0
12_9_8,66,4113.85,3743.59,4014.87,4574.36,3457.95,4047.69,4098.46,4097.95,4054.87,2765.13,3752.31,4138.97,3854.36,4115.9,0
12_9_8,67,4097.44,3727.69,4015.38,4548.72,3477.44,4043.08,4092.31,4097.95,4033.33,2747.69,3725.13,4121.54,3849.74,4106.67,0
12_9_8,68,4087.18,3724.1,4017.44,4526.67,3501.54,4037.44,4090.26,4097.44,4036.41,2742.05,3717.95,4118.46,3832.82,4104.62,0
12_9_8,69,4086.15,3735.38,4019.49,4512.31,3494.87,4036.92,4082.05,4097.44,4026.67,2730.26,3700,4119.49,3813.33,4104.1,0
12_9_8,70,4090.77,3745.13,4025.13,4496.92,3447.69,4030.26,4073.33,4098.97,4014.87,2727.18,3686.67,4122.56,3814.87,4106.67,0
12_9_8,71,4096.41,3747.69,4030.26,4473.33,3410.77,4016.41,4074.36,4100,4029.23,2758.97,3704.62,4131.79,3828.21,4115.38,0
12_9_8,72,4094.87,3755.9,4029.74,4445.64,3418.46,4013.85,4075.38,4098.97,4042.05,2793.85,3710.77,4140,3836.92,4123.08,0
12_9_8,73,4089.74,3765.64,4030.77,4417.44,3434.87,4029.23,4080.51,4098.46,4033.85,2804.1,3698.46,4138.97,3844.1,4122.56,0
12_9_8,74,4083.08,3754.36,4031.28,4387.69,3441.54,4041.03,4094.36,4098.97,4029.74,2809.23,3697.95,4133.33,3845.64,4114.87,0
12_9_8,75,4068.72,3728.72,4027.69,4354.36,3474.87,4038.46,4093.85,4098.46,4023.59,2805.64,3691.79,4119.49,3827.18,4098.97,0
12_9_8,76,4050.77,3722.05,4024.1,4323.59,3527.69,4027.18,4077.95,4098.46,4002.56,2787.69,3665.64,4104.1,3810.26,4084.62,0
12_9_8,77,4037.95,3730.77,4022.56,4296.92,3555.38,4015.38,4067.18,4098.97,3983.08,2776.92,3647.18,4096.92,3806.15,4081.54,0
12_9_8,78,4027.69,3724.62,4017.95,4269.74,3555.9,4000.51,4059.49,4098.46,3981.03,2787.69,3651.79,4088.72,3794.87,4075.9,0
12_9_8,79,4018.97,3718.46,4015.9,4247.69,3558.97,3988.72,4052.82,4098.46,3987.69,2803.08,3653.33,4080.51,3785.64,4061.03,0
12_9_8,80,4021.54,3727.69,4020.51,4231.79,3553.85,3992.31,4055.38,4099.49,3983.59,2819.49,3651.28,4085.64,3793.85,4060,0
12_9_8,81,4034.87,3739.49,4028.72,4206.15,3525.64,3993.85,4060.51,4099.49,3977.44,2842.05,3662.05,4100,3807.18,4072.82,0
12_9_8,82,4042.56,3748.21,4032.82,4173.85,3521.03,3987.69,4065.13,4097.44,3989.74,2859.49,3672.31,4102.56,3810.26,4080,0
12_9_8,83,4045.13,3755.9,4035.38,4155.9,3538.97,3986.15,4066.15,4096.92,3995.38,2863.08,3665.13,4094.36,3802.05,4076.41,0
12_9_8,84,4045.13,3763.59,4032.31,4138.46,3531.28,3985.13,4055.38,4098.46,3970.77,2847.69,3651.79,4083.08,3780,4064.1,0
12_9_8,85,4040.51,3766.67,4027.69,4107.69,3516.92,3970.26,4040.51,4098.46,3953.85,2825.64,3640,4072.31,3750.77,4049.74,0
12_9_8,86,4037.95,3769.23,4028.72,4087.18,3538.97,3956.92,4035.38,4098.46,3956.92,2829.74,3622.05,4065.64,3729.23,4041.54,0
12_9_8,87,4041.54,3777.95,4031.79,4071.79,3567.18,3954.36,4036.41,4098.46,3946.67,2852.82,3602.56,4055.9,3713.85,4034.87,0
12_9_8,88,4046.15,3794.87,4028.21,4045.13,3582.56,3954.87,4037.44,4098.46,3943.08,2874.36,3598.97,4048.21,3708.21,4027.69,0
12_9_8,89,4054.87,3818.46,4030.77,4031.28,3617.44,3964.62,4047.18,4098.46,3961.54,2908.21,3612.82,4055.9,3719.49,4034.87,0
12_9_8,90,4066.15,3846.15,4037.95,4028.21,3664.1,3972.82,4056.92,4098.97,3966.67,2938.46,3624.62,4067.18,3735.38,4041.03,0
12_9_8,91,4069.23,3863.08,4035.9,4008.21,3725.64,3965.13,4053.33,4098.46,3941.54,2922.05,3622.05,4061.03,3745.64,4032.82,0
12_9_8,92,4065.64,3862.56,4030.26,3984.62,3818.46,3953.85,4044.62,4096.92,3916.92,2890.26,3613.33,4048.72,3754.36,4023.08,0
12_9_8,93,4069.23,3870.26,4034.87,3980.51,3908.72,3953.85,4041.03,4096.92,3918.97,2894.87,3605.64,4047.18,3770.26,4022.56,0
12_9_8,94,4075.9,3888.72,4045.13,3977.44,3960.51,3956.41,4037.95,4097.95,3925.13,2908.21,3603.08,4049.74,3792.31,4022.05,0
12_9_8,95,4077.95,3896.41,4049.74,3964.1,3993.85,3951.28,4032.82,4098.46,3913.85,2898.97,3606.67,4047.69,3796.92,4014.36,0
12_9_8,96,4075.9,3902.05,4050.26,3956.41,4043.08,3952.31,4034.87,4098.46,3907.69,2900,3611.28,4045.13,3780.51,4007.18,0
12_9_8,97,4077.95,3913.33,4051.79,3955.38,4092.82,3954.36,4039.49,4098.46,3921.54,2928.21,3618.46,4050.26,3789.23,4009.23,0
12_9_8,98,4074.36,3907.18,4050.77,3946.15,4121.03,3943.59,4036.92,4098.46,3931.28,2951.79,3635.9,4059.49,3826.15,4020,0
12_9_8,99,4058.46,3878.46,4043.08,3922.56,4132.31,3940.51,4037.95,4098.46,3930.77,2950.77,3647.18,4056.41,3843.08,4017.44,0
12_9_8,100,4047.69,3862.05,4040.51,3909.23,4147.69,3954.36,4045.64,4098.46,3926.15,2946.15,3650.77,4050.77,3845.13,4006.15,0
12_9_8,101,4049.23,3866.67,4044.62,3904.62,4167.18,3960,4047.18,4098.97,3922.05,2959.49,3674.36,4055.9,3866.67,4011.79,0
12_9_8,102,4051.79,3867.69,4050.77,3893.33,4180,3953.85,4042.05,4098.97,3935.9,2984.62,3703.59,4060,3888.72,4023.08,0
12_9_8,103,4048.21,3858.97,4049.74,3880.51,4196.41,3957.95,4046.67,4097.95,3945.64,2997.44,3707.18,4060,3891.28,4019.49,0
12_9_8,104,4037.44,3847.69,4045.64,3867.18,4204.1,3960,4055.9,4098.46,3930.77,2989.74,3709.74,4057.95,3889.23,4008.21,0
12_9_8,105,4031.79,3837.95,4044.62,3856.92,4203.59,3957.44,4058.46,4099.49,3923.59,2988.72,3735.38,4056.92,3901.54,4010.26,0
12_9_8,106,4038.46,3832.82,4050.77,3853.85,4211.28,3964.1,4058.97,4096.41,3945.64,3019.49,3762.56,4066.15,3931.28,4025.13,0
12_9_8,107,4042.05,3832.31,4053.85,3853.85,4211.28,3965.13,4054.36,4094.87,3958.46,3055.38,3773.85,4076.41,3947.69,4032.82,0
12_9_8,108,4048.21,3830.26,4051.79,3843.08,4202.05,3963.59,4049.74,4098.46,3943.59,3058.46,3780,4073.33,3938.97,4027.69,0
12_9_8,109,4083.59,3829.74,4055.38,3830.26,4203.08,3966.67,4050.77,4101.03,3950.77,3076.41,3795.38,4080.51,3949.74,4035.38,0
12_9_8,110,4116.92,3835.9,4060.51,3834.87,4202.05,3964.62,4051.79,4100,3974.36,3118.97,3814.36,4095.9,3981.54,4051.79,0
12_9_8,111,4108.72,3833.85,4054.87,3831.79,4182.05,3962.56,4049.74,4098.97,3960.51,3115.38,3815.9,4086.67,3980.51,4043.59,0
12_9_8,112,4093.85,3824.1,4047.18,3806.67,4166.67,3968.72,4052.31,4098.46,3943.59,3091.79,3817.44,4073.33,3965.13,4028.72,0
12_9_8,113,4101.54,3825.13,4051.79,3822.05,4168.21,3973.33,4058.46,4098.97,3953.85,3101.54,3835.9,4076.92,3977.44,4031.79,0
12_9_8,114,4110.26,3831.79,4055.38,3902.05,4172.82,3974.36,4061.54,4095.38,3951.28,3108.72,3848.72,4078.46,3992.31,4034.87,0
12_9_8,115,4110.26,3831.28,4052.31,3952.82,4172.31,3976.41,4062.56,4089.23,3942.56,3107.18,3855.38,4078.46,3987.69,4031.28,0
12_9_8,116,4105.64,3825.64,4050.26,3937.44,4166.15,3973.33,4060.51,4089.74,3957.44,3126.67,3862.05,4077.95,3977.44,4024.62,0
12_9_8,117,4100,3822.05,4052.31,3922.05,4148.21,3971.79,4056.41,4096.92,3961.03,3143.08,3867.18,4070.26,3968.72,4015.9,0
12_9_8,118,4107.69,3830.26,4053.33,3931.28,4125.13,3967.18,4049.23,4099.49,3960,3167.69,3885.13,4080.51,3974.87,4023.59,0
12_9_8,119,4116.92,3842.05,4052.31,3929.74,4120.51,3966.67,4047.69,4096.41,3962.05,3191.28,3898.97,4093.33,3981.03,4036.41,0
12_9_8,120,4120.51,3855.38,4052.31,3924.62,4137.95,3976.41,4050.26,4095.9,3965.13,3196.92,3909.23,4092.82,3981.54,4040.51,0
12_9_8,121,4129.74,3876.92,4057.95,3929.74,4148.72,3984.62,4051.79,4101.03,3985.64,3217.44,3938.46,4098.97,3993.33,4049.74,0
12_9_8,122,4126.15,3884.62,4057.44,3922.56,4131.79,3992.82,4062.05,4100.51,3971.28,3200,3936.41,4093.85,3976.92,4039.49,0
12_9_8,123,4111.28,3877.95,4056.41,3906.67,4115.9,3995.9,4068.72,4090.77,3925.13,3134.36,3903.08,4067.69,3934.87,4009.23,0
12_9_8,124,4115.38,3886.67,4059.49,3906.67,4123.08,3982.05,4061.03,4088.72,3928.21,3129.23,3920.51,4062.05,3932.31,4005.64,0
12_9_8,125,4124.62,3900,4056.41,3909.23,4114.87,3971.79,4056.41,4092.82,3941.54,3160,3951.28,4071.79,3946.15,4013.33,0
12_9_8,126,4121.03,3900,4051.28,3896.92,4076.92,3977.95,4054.87,4091.28,3927.18,3161.03,3943.08,4071.28,3938.97,4008.72,0
12_9_8,127,4125.13,3910.26,4062.05,3900,4052.82,3971.28,4045.64,4089.74,3954.36,3195.9,3956.41,4085.13,3960.51,4023.08,0
12_9_8,128,4131.28,3917.95,4068.21,3910.26,4054.36,3968.72,4051.28,4092.31,3983.08,3231.79,3982.56,4096.92,3995.9,4038.46,0
12_9_8,0,4124.1,3900,4058.46,3899.49,4061.54,3982.05,4064.62,4092.31,3950.26,3194.36,3980.51,4079.49,4001.54,4026.67,0
12_9_8,1,4117.44,3892.31,4052.31,3891.79,4081.54,3981.03,4056.92,4091.79,3929.74,3161.54,3992.31,4074.36,4011.28,4025.13,0
12_9_8,2,4113.33,3897.95,4054.87,3896.92,4107.18,3970.26,4050.26,4091.28,3942.56,3164.62,4024.1,4090.26,4035.38,4034.87,0
12_9_8,3,4104.62,3888.21,4056.41,3890.77,4121.54,3971.79,4058.97,4089.74,3951.28,3154.87,4038.97,4094.87,4043.08,4028.21,0
12_9_8,4,4089.74,3872.82,4052.31,3874.87,4129.23,3978.97,4066.67,4091.79,3950.77,3128.72,4043.08,4084.1,4038.97,4015.9,0
12_9_8,5,4079.49,3871.28,4048.21,3874.36,4135.9,3973.85,4061.54,4091.79,3964.62,3147.69,4061.54,4084.62,4054.87,4017.44,0
12_9_8,6,4078.97,3874.87,4046.15,3875.38,4145.13,3971.79,4063.59,4090.26,3987.69,3187.69,4076.92,4091.79,4075.38,4024.1,0
12_9_8,7,4084.62,3875.9,4049.23,3867.69,4150.26,3973.85,4069.74,4091.79,3985.13,3172.82,4077.95,4092.82,4081.03,4022.05,0
12_9_8,8,4085.13,3878.46,4051.28,3863.08,4157.95,3968.72,4064.1,4092.31,3970.26,3149.23,4074.87,4089.74,4089.74,4021.03,0
12_9_8,9,4077.44,3875.9,4049.74,3863.08,4182.56,3971.28,4066.67,4089.74,3968.21,3144.1,4060,4085.13,4089.23,4018.46,0
12_9_8,10,4071.79,3875.38,4049.23,3861.54,4198.46,3977.95,4078.97,4090.77,3969.74,3109.23,4052.31,4085.13,4078.46,4014.87,0
12_9_8,11,4073.85,3884.62,4050.77,3859.49,4192.82,3969.23,4071.28,4092.82,3963.08,3065.13,4073.33,4087.69,4087.18,4016.92,0
12_9_8,12,4080.51,3892.82,4052.82,3860.51,4202.05,3961.03,4060,4089.74,3966.67,3064.1,4098.97,4094.36,4114.36,4027.69,0
12_9_8,13,4090.26,3901.54,4057.95,3864.62,4222.05,3971.28,4069.23,4089.74,3991.79,3092.31,4120,4107.18,4134.87,4040.51,0
12_9_8,14,4093.33,3905.64,4057.44,3864.62,4223.08,3983.59,4076.41,4092.82,4008.72,3107.18,4147.18,4111.28,4144.62,4041.54,0
12_9_8,15,4084.62,3905.64,4054.36,3860.51,4217.95,3992.31,4076.92,4093.33,3998.46,3084.1,4156.92,4101.54,4143.08,4034.36,0
12_9_8,16,4083.59,3909.74,4058.46,3862.56,4208.21,3994.36,4082.56,4091.28,3992.31,3047.69,4158.46,4103.08,4141.03,4035.9,0
12_9_8,17,4091.28,3910.26,4060.51,3861.54,4183.59,3977.95,4080,4090.26,4007.18,3026.67,4170.26,4113.85,4140,4043.59,0
12_9_8,18,4082.56,3901.54,4052.31,3846.67,4158.46,3966.15,4074.87,4090.26,3999.49,2984.62,4170.77,4109.74,4127.18,4036.92,0
12_9_8,19,4073.85,3904.62,4050.26,3842.56,4156.41,3986.67,4081.54,4091.79,3978.46,2945.64,4174.36,4101.54,4127.18,4030.26,0
12_9_8,20,4078.46,3914.36,4053.85,3849.74,4171.28,4005.64,4082.56,4093.33,3993.33,2981.54,4207.18,4105.13,4153.85,4040.51,0
12_9_8,21,4072.31,3900.51,4049.74,3837.44,4168.72,4000.51,4074.36,4091.79,4006.15,2997.44,4218.46,4097.95,4154.36,4029.23,0
12_9_8,22,4064.62,3896.92,4052.31,3830.77,4152.82,3991.28,4065.13,4090.26,4009.74,2973.33,4214.87,4093.33,4145.64,4015.9,0
12_9_8,23,4080,3926.15,4063.08,3848.72,4157.44,3992.82,4056.92,4093.85,4036.92,3013.85,4250.77,4114.36,4175.9,4042.56,0
12_9_8,24,4090.77,3941.54,4061.03,3854.87,4168.72,4002.56,4062.05,4093.85,4023.59,2994.87,4266.67,4117.44,4177.95,4050.26,0
12_9_8,25,4086.67,3945.64,4055.38,3845.64,4153.33,4009.74,4077.44,4089.74,3971.28,2858.97,4242.56,4093.33,4139.49,4024.62,0
12_9_8,26,4089.74,3958.46,4060.51,3846.67,4147.69,4015.38,4084.1,4089.23,3973.33,2798.46,4257.44,4086.67,4129.74,4023.08,0
12_9_8,27,4090.77,3963.59,4058.46,3849.74,4174.36,4033.85,4077.44,4091.28,3996.41,2830.77,4303.08,4091.79,4137.44,4030.77,0
12_9_8,28,4089.23,3966.15,4054.87,3848.21,4188.72,4053.33,4074.87,4091.79,3997.95,2833.33,4342.05,4093.85,4137.95,4029.23,0
12_9_8,29,4102.05,3984.62,4061.54,3850.77,4179.49,4050.26,4076.92,4090.77,4021.03,2846.15,4382.05,4105.64,4162.05,4049.74,0
12_9_8,30,4110.26,3997.44,4063.08,3849.74,4165.13,4046.15,4077.44,4091.79,4026.15,2846.15,4382.56,4110.26,4171.28,4058.46,0
12_9_8,31,4109.23,4007.69,4060.51,3850.26,4153.85,4059.49,4066.67,4091.79,4013.33,2816.41,4364.62,4106.15,4160,4048.72,0
12_9_8,32,4113.33,4020.51,4066.15,3848.21,4137.95,4051.79,4049.74,4091.28,4026.67,2820.51,4370.77,4104.62,4159.49,4050.77,0
12_9_8,33,4103.59,4012.31,4058.97,3825.13,4108.72,4037.44,4052.82,4090.26,3990.26,2750.26,4346.15,4079.49,4128.21,4031.79,0
12_9_8,34,4087.18,4004.1,4048.72,3803.59,4094.87,4041.54,4051.28,4091.28,3944.62,2656.41,4321.03,4053.85,4101.03,4002.05,0
12_9_8,35,4085.13,4011.28,4051.79,3801.54,4102.56,4044.1,4030.26,4092.82,3973.85,2675.38,4348.21,4056.41,4118.46,4003.59,0
12_9_8,36,4091.28,4013.33,4057.95,3800.51,4094.87,4045.64,4031.79,4090.77,4002.56,2722.05,4381.03,4066.67,4133.33,4017.95,0
12_9_8,37,4100.51,4026.67,4063.08,3796.41,4078.46,4057.44,4051.79,4091.28,4004.62,2747.69,4402.05,4073.85,4141.54,4027.18,0
12_9_8,38,4110.77,4046.67,4068.21,3800,4083.08,4066.15,4052.82,4092.82,4027.18,2788.21,4427.18,4075.38,4154.87,4032.82,0
12_9_8,39,4108.21,4042.56,4066.15,3798.97,4090.26,4068.21,4050.77,4093.33,4036.92,2814.87,4436.92,4060.51,4151.79,4025.64,0
12_9_8,40,4097.95,4033.85,4064.1,3789.74,4086.15,4073.85,4058.46,4092.31,4006.15,2802.56,4426.15,4034.87,4139.49,4011.28,0
12_9_8,41,4096.41,4045.13,4067.69,3788.21,4091.79,4085.13,4058.46,4092.31,3975.38,2784.62,4418.97,4008.72,4131.28,4002.56,0
12_9_8,42,4109.74,4059.49,4073.85,3801.54,4100.51,4092.31,4060,4093.85,3978.97,2784.1,4434.87,4003.08,4132.31,4005.64,0
12_9_8,43,4125.13,4070.77,4083.59,3817.44,4107.69,4081.54,4060.51,4095.38,4024.1,2843.59,4481.54,4029.74,4168.21,4025.13,0
12_9_8,44,4127.69,4080,4084.62,3820,4117.44,4076.41,4054.87,4092.82,4052.31,2907.18,4514.36,4058.46,4198.97,4038.97,0
12_9_8,45,4119.49,4077.44,4076.92,3814.36,4121.54,4100,4064.62,4090.77,4018.46,2865.13,4495.9,4053.33,4171.79,4030.77,0
12_9_8,46,4112.82,4071.79,4074.36,3813.85,4118.46,4111.28,4075.38,4091.79,4000,2801.03,4475.9,4040.51,4146.15,4025.13,0
12_9_8,47,4115.38,4080.51,4079.49,3822.56,4121.03,4092.82,4066.67,4090.26,4030.77,2838.97,4493.85,4048.21,4170.26,4040,0
12_9_9,48,4123.08,4093.85,4078.97,3833.33,4138.97,4094.36,4068.21,4088.21,4038.46,2930.77,4517.44,4057.95,4190.26,4058.97,0
12_9_9,49,4121.03,4092.31,4075.38,3833.33,4144.62,4118.97,4088.21,4090.77,4002.56,2936.92,4504.62,4050.77,4173.33,4056.41,0
12_9_9,50,4108.72,4082.56,4074.36,3825.13,4124.62,4120.51,4090.26,4092.82,3992.31,2886.67,4481.54,4038.46,4157.44,4042.05,0
12_9_9,51,4104.1,4085.13,4073.85,3826.67,4121.54,4111.28,4078.97,4093.85,4015.9,2890.26,4483.08,4037.44,4163.59,4039.49,0
12_9_9,52,4112.82,4094.36,4075.9,3842.56,4150.26,4118.46,4077.95,4092.82,4024.62,2931.79,4500.51,4049.23,4184.1,4052.82,0
12_9_9,53,4121.54,4099.49,4078.97,3850.26,4171.79,4126.15,4078.46,4090.77,4034.36,2955.9,4514.87,4062.05,4203.59,4063.08,0
12_9_9,54,4119.49,4100,4077.95,3844.62,4160.51,4125.64,4082.05,4091.79,4032.82,2935.38,4497.95,4059.49,4194.36,4050.77,0
12_9_9,55,4120,4103.59,4080,3849.23,4144.62,4124.1,4091.28,4093.33,4007.18,2920,4484.62,4062.56,4200.51,4048.21,0
12_9_9,56,4129.23,4112.82,4085.13,3868.72,4151.28,4123.08,4093.33,4092.82,4006.67,2950.26,4501.54,4082.56,4244.1,4068.72,0
12_9_9,57,4122.56,4113.33,4080.51,3865.13,4160.51,4123.59,4083.59,4092.31,4016.41,2960,4500.51,4079.49,4258.46,4064.1,0
12_9_9,58,4104.62,4100.51,4071.79,3844.1,4149.74,4122.56,4076.41,4092.82,4006.15,2955.9,4480.51,4059.49,4253.85,4043.08,0
12_9_9,59,4101.03,4098.97,4072.31,3848.72,4144.62,4120.51,4077.95,4092.31,4008.72,3005.13,4488.21,4060.51,4289.23,4047.69,0
12_9_9,60,4110.77,4115.38,4078.46,3869.23,4151.79,4133.85,4088.72,4089.74,4030.26,3069.74,4515.38,4081.54,4338.46,4070.26,0
12_9_9,61,4108.72,4109.23,4078.46,3866.67,4144.62,4150.77,4102.05,4088.72,4026.15,3091.79,4520,4094.87,4350.77,4076.92,0
12_9_9,62,4100.51,4091.28,4072.82,3855.9,4130.77,4141.03,4094.87,4090.77,4014.36,3114.36,4503.08,4094.36,4339.49,4069.23,0
12_9_9,63,4104.1,4109.74,4072.31,3868.21,4135.38,4129.74,4076.92,4091.28,4012.82,3139.49,4485.13,4088.72,4324.62,4064.62,0
12_9_9,64,4111.28,4137.44,4075.9,3881.54,4143.08,4137.44,4080.51,4091.28,3997.95,3120,4467.18,4086.15,4303.08,4064.62,0
12_9_9,65,4115.9,4138.97,4073.85,3881.03,4132.82,4136.41,4087.18,4093.33,3989.23,3109.74,4445.64,4085.13,4280,4063.59,0
12_9_9,66,4121.03,4142.56,4070.26,3880.51,4127.69,4120,4074.36,4093.85,3994.36,3144.1,4432.82,4078.46,4263.59,4056.92,0
12_9_9,67,4123.08,4154.36,4070.26,3881.03,4145.13,4121.03,4071.28,4093.33,4002.05,3172.31,4425.64,4072.82,4250.77,4050.26,0
12_9_9,68,4112.82,4161.54,4071.28,3882.05,4158.46,4136.92,4087.69,4093.33,4017.95,3190.77,4412.82,4074.36,4237.44,4048.21,0
12_9_9,69,4100,4173.85,4069.74,3889.74,4156.41,4140,4092.31,4091.79,4026.15,3222.05,4395.38,4076.92,4222.56,4047.18,0
12_9_9,70,4092.82,4188.72,4069.23,3895.38,4154.87,4138.46,4088.21,4090.77,4021.03,3242.56,4371.79,4076.92,4201.03,4043.59,0
12_9_9,71,4075.9,4193.85,4071.28,3892.82,4160,4136.41,4090.77,4090.77,4018.97,3248.21,4345.64,4073.85,4170.26,4035.38,0
12_9_9,72,4050.26,4201.54,4074.36,3902.56,4164.1,4132.31,4091.79,4092.31,4017.44,3255.38,4321.54,4067.18,4147.18,4027.18,0
12_9_9,73,4031.28,4213.33,4075.38,3913.85,4169.74,4135.38,4091.79,4092.31,4005.13,3265.13,4290.26,4062.05,4135.9,4022.05,0
12_9_9,74,4020,4218.46,4071.28,3910.77,4171.79,4137.95,4091.28,4090.77,3995.9,3288.21,4255.9,4059.49,4120,4014.36,0
12_9_9,75,4013.85,4223.59,4071.28,3913.33,4169.74,4130.77,4088.21,4091.28,3988.21,3309.23,4231.28,4057.95,4098.46,4011.28,0
12_9_9,76,4015.38,4232.31,4075.38,3923.08,4164.62,4120.51,4081.03,4093.33,3986.15,3324.62,4218.46,4064.1,4086.67,4018.46,0
12_9_9,77,4018.97,4238.46,4077.44,3924.62,4161.54,4111.28,4075.38,4093.33,3999.49,3358.97,4200,4066.67,4075.9,4025.64,0
12_9_9,78,4021.03,4244.1,4077.95,3928.21,4169.74,4105.13,4075.38,4091.79,4003.08,3402.05,4172.82,4065.13,4066.15,4031.28,0
12_9_9,79,4025.64,4249.23,4079.49,3941.54,4182.05,4106.67,4079.49,4093.85,4005.13,3434.87,4155.9,4072.31,4070.26,4038.46,0
12_9_9,80,4027.69,4250.77,4077.44,3945.64,4182.56,4106.15,4082.56,4097.95,4022.56,3467.18,4143.59,4075.38,4059.49,4038.46,0
12_9_9,81,4024.1,4248.21,4074.36,3940.51,4181.54,4103.08,4088.21,4099.49,4030.26,3495.38,4117.44,4067.18,4034.87,4031.28,0
12_9_9,82,4024.1,4248.72,4077.44,3948.21,4192.82,4109.23,4094.36,4096.41,4015.9,3507.18,4102.56,4064.1,4031.28,4034.87,0
12_9_9,83,4035.9,4249.74,4078.97,3960.51,4209.74,4113.33,4094.36,4092.82,4012.31,3522.56,4106.15,4065.13,4033.33,4040,0
12_9_9,84,4066.67,4247.18,4074.87,3959.49,4223.59,4109.74,4092.82,4093.85,4021.54,3552.82,4097.95,4058.46,4014.87,4030.26,0
12_9_9,85,4098.97,4248.72,4072.82,3958.46,4235.9,4108.72,4095.9,4098.97,4008.21,3570.77,4078.46,4050.77,3994.87,4022.56,0
12_9_9,86,4107.69,4256.41,4071.79,3967.18,4244.62,4109.74,4094.87,4100,3988.72,3575.38,4063.08,4044.62,3982.56,4019.49,0
12_9_9,87,4106.67,4260.51,4069.74,3970.77,4250.77,4105.64,4089.23,4092.31,3994.87,3598.46,4053.33,4044.1,3979.49,4009.23,0
12_9_9,88,4108.72,4257.44,4070.26,3971.79,4257.95,4101.54,4088.21,4090.26,4011.28,3631.79,4046.67,4052.31,3984.1,3998.97,0
12_9_9,89,4110.26,4260,4071.28,3982.05,4263.59,4105.13,4097.44,4100.51,4015.9,3653.85,4042.56,4060.51,3983.59,4004.62,0
12_9_9,90,4110.26,4264.62,4070.77,3988.72,4262.05,4104.1,4101.03,4102.05,4014.36,3676.92,4030.26,4058.97,3980.51,4014.87,0
12_9_9,91,4104.62,4256.41,4068.72,3987.18,4254.87,4092.82,4090.77,4092.82,4020,3705.64,4010.26,4047.69,3982.56,4011.79,0
12_9_9,92,4097.95,4248.21,4069.23,3991.79,4257.95,4087.69,4088.72,4091.79,4032.31,3736.41,4009.23,4044.62,3990.77,4010.26,0
12_9_9,93,4105.64,4251.28,4071.28,4000.51,4277.44,4099.49,4102.56,4097.95,4040.51,3769.23,4024.1,4055.9,4009.74,4026.15,0
12_9_9,94,4118.46,4251.79,4074.36,4005.64,4304.1,4110.77,4111.79,4097.95,4036.41,3796.92,4034.36,4066.67,4030.77,4050.26,0
12_9_9,95,4116.92,4241.03,4075.38,4006.67,4323.59,4111.79,4113.33,4097.95,4033.33,3818.97,4036.92,4068.72,4042.05,4056.92,0
12_9_9,96,4106.15,4227.18,4072.31,3996.92,4325.13,4116.41,4119.49,4098.46,4033.33,3838.46,4038.46,4064.1,4050.26,4046.67,0
12_9_9,97,4105.64,4215.9,4070.26,3988.72,4331.28,4124.1,4127.18,4096.41,4027.69,3854.87,4037.95,4058.97,4059.49,4048.72,0
12_9_9,98,4107.18,4203.59,4069.23,3993.85,4348.21,4123.08,4128.72,4098.46,4021.03,3863.08,4036.92,4063.59,4065.13,4058.97,0
12_9_9,99,4099.49,4196.41,4065.64,4000.51,4346.15,4120,4125.13,4097.44,4026.15,3877.44,4038.46,4073.85,4077.44,4061.54,0
12_9_9,100,4098.97,4198.97,4068.21,4006.67,4334.36,4120,4127.69,4089.74,4042.56,3916.41,4037.95,4081.54,4097.95,4068.72,0
12_9_9,101,4101.54,4192.31,4074.87,4014.87,4342.56,4120,4136.41,4093.33,4058.46,3969.23,4045.13,4088.72,4119.49,4088.72,0
12_9_9,102,4096.92,4180.51,4075.9,4018.46,4352.82,4127.69,4139.49,4104.1,4065.64,4008.72,4046.15,4092.31,4132.82,4101.54,0
12_9_9,103,4102.05,4197.95,4071.79,4029.23,4352.31,4135.38,4136.41,4100.51,4064.62,4028.72,4028.72,4093.85,4128.21,4102.05,0
12_9_9,104,4114.36,4231.28,4074.36,4045.64,4357.44,4132.82,4136.92,4095.9,4061.54,4048.21,4017.44,4094.36,4113.33,4101.54,0
12_9_9,105,4110.26,4233.33,4073.33,4046.15,4360,4126.67,4137.95,4098.97,4056.92,4070.26,4016.92,4083.08,4107.18,4092.82,0
12_9_9,106,4104.62,4224.1,4069.74,4042.56,4369.74,4125.13,4136.41,4099.49,4051.79,4084.62,4018.46,4077.44,4107.69,4089.23,0
12_9_9,107,4114.36,4233.85,4072.82,4050.77,4393.33,4130.26,4138.97,4097.95,4044.1,4093.85,4026.15,4087.18,4108.21,4104.1,0
12_9_9,108,4114.36,4230.77,4072.31,4049.23,4398.46,4135.38,4137.44,4094.36,4035.38,4101.03,4036.41,4085.13,4107.69,4106.15,0
12_9_9,109,4103.08,4212.31,4066.67,4039.49,4390.26,4136.92,4135.9,4088.72,4034.87,4114.36,4031.28,4072.82,4102.56,4090.77,0
12_9_9,110,4103.08,4212.31,4068.21,4048.72,4388.21,4136.41,4146.67,4090.77,4046.15,4140.51,4022.05,4079.49,4101.03,4092.31,0
12_9_9,111,4109.23,4220,4072.82,4063.08,4381.03,4139.49,4154.87,4096.41,4054.36,4166.15,4017.95,4089.23,4107.18,4106.67,0
12_9_9,112,4102.05,4210.26,4067.18,4060,4372.31,4137.95,4146.67,4092.82,4056.92,4185.64,4012.82,4083.59,4114.36,4106.15,0
12_9_9,113,4093.33,4199.49,4065.13,4052.31,4374.87,4130.26,4136.92,4090.77,4063.08,4205.13,4019.49,4083.59,4127.69,4109.74,0
12_9_9,114,4095.38,4201.03,4069.23,4058.46,4377.44,4132.31,4136.92,4094.87,4073.85,4230.26,4038.97,4094.36,4147.69,4125.13,0
12_9_9,115,4097.44,4198.97,4067.69,4068.21,4380.51,4145.13,4142.56,4094.87,4078.97,4243.59,4049.23,4093.33,4158.46,4132.31,0
12_9_9,116,4094.87,4190.26,4064.62,4067.18,4387.18,4146.15,4144.1,4089.74,4070.26,4223.08,4047.18,4081.54,4155.9,4133.85,0
12_9_9,117,4092.31,4182.56,4067.69,4063.08,4400,4134.87,4138.46,4090.77,4066.15,4197.44,4051.79,4079.49,4155.38,4138.46,0
12_9_9,118,4084.62,4172.82,4066.15,4064.1,4425.13,4136.41,4140,4095.9,4066.67,4197.95,4062.05,4078.46,4158.46,4132.82,0
12_9_9,119,4074.87,4155.9,4063.08,4061.54,4448.72,4149.74,4153.85,4092.31,4063.08,4214.36,4069.23,4072.82,4164.62,4125.13,0
12_9_9,120,4075.38,4142.05,4065.64,4060.51,4453.85,4155.38,4159.49,4090.77,4067.18,4232.82,4080.51,4081.03,4183.08,4133.33,0
12_9_9,121,4080.51,4139.49,4067.69,4070.77,4455.38,4152.82,4156.92,4097.95,4073.33,4248.72,4092.31,4092.82,4198.97,4143.59,0
12_9_9,122,4083.59,4141.54,4066.15,4076.41,4465.64,4152.82,4162.05,4098.46,4074.36,4251.28,4094.36,4090.77,4201.54,4146.67,0
12_9_9,123,4087.69,4141.54,4070.77,4072.82,4477.44,4152.82,4169.23,4097.44,4081.03,4243.59,4091.28,4089.23,4205.64,4151.79,0
12_9_9,124,4091.79,4142.05,4074.36,4076.41,4477.44,4151.79,4169.23,4097.95,4098.46,4250.26,4092.82,4096.41,4218.97,4157.95,0
12_9_9,125,4085.64,4140.51,4069.23,4078.46,4466.67,4154.36,4166.15,4094.87,4101.54,4260.51,4086.15,4092.31,4221.54,4153.85,0
12_9_9,126,4073.85,4131.28,4065.13,4068.21,4464.1,4156.41,4162.56,4093.33,4089.23,4258.97,4080,4082.05,4217.95,4148.72,0
12_9_9,127,4075.38,4132.82,4069.23,4070.26,4474.36,4154.87,4154.87,4095.38,4092.31,4274.87,4097.44,4091.28,4233.33,4155.9,0
12_9_9,128,4086.15,4146.15,4072.31,4080,4483.08,4159.49,4151.28,4093.33,4112.82,4311.79,4126.15,4109.74,4251.79,4170.26,0
12_9_9,0,4085.13,4149.23,4071.28,4079.49,4481.03,4168.72,4161.03,4091.79,4112.82,4312.82,4131.28,4109.23,4254.87,4175.9,0
12_9_9,1,4074.87,4136.92,4069.74,4074.87,4466.67,4166.15,4170.26,4095.38,4088.21,4265.13,4105.64,4089.23,4245.13,4164.1,0
12_9_9,2,4075.38,4129.23,4068.72,4070.77,4463.08,4157.95,4172.82,4094.36,4081.03,4246.67,4094.36,4083.59,4235.9,4156.41,0
12_9_9,3,4078.46,4123.59,4068.21,4064.62,4470.26,4157.44,4176.92,4092.31,4093.85,4260.51,4103.08,4090.77,4233.33,4156.41,0
12_9_9,4,4067.69,4113.85,4066.67,4064.1,4478.46,4161.03,4177.44,4092.31,4091.28,4247.18,4101.03,4087.69,4229.74,4147.18,0
12_9_9,5,4061.03,4114.36,4067.69,4071.79,4482.05,4155.9,4169.23,4091.28,4084.1,4238.46,4097.95,4082.05,4230.77,4143.59,0
12_9_9,6,4063.08,4117.44,4065.13,4072.82,4481.03,4155.38,4166.67,4091.28,4098.46,4266.67,4104.1,4082.56,4246.15,4150.26,0
12_9_9,7,4061.54,4117.44,4066.67,4072.31,4482.56,4168.72,4170.77,4092.82,4111.28,4293.33,4115.9,4086.67,4265.64,4154.87,0
12_9_9,8,4057.44,4119.49,4066.15,4074.36,4481.54,4170.77,4163.08,4095.9,4111.79,4298.46,4122.56,4086.67,4268.21,4153.85,0
12_9_9,9,4055.9,4121.54,4058.97,4073.85,4480,4158.97,4154.36,4099.49,4116.41,4305.13,4116.92,4078.97,4260,4152.31,0
12_9_9,10,4064.62,4123.59,4061.54,4074.87,4488.72,4162.05,4165.13,4097.44,4121.54,4314.36,4112.82,4078.46,4260.51,4153.33,0
12_9_9,11,4072.82,4123.08,4071.79,4071.28,4493.85,4181.54,4187.18,4091.28,4120,4311.28,4119.49,4085.64,4257.95,4150.26,0
12_9_9,12,4071.28,4123.59,4071.28,4063.08,4487.18,4179.49,4187.18,4088.72,4118.46,4309.23,4126.67,4087.69,4248.21,4148.72,0
12_9_9,13,4065.64,4120,4065.13,4061.54,4493.85,4167.18,4172.31,4090.77,4115.38,4311.28,4122.05,4087.69,4246.15,4150.26,0
12_9_9,14,4062.05,4119.49,4065.64,4068.72,4512.31,4167.69,4166.67,4090.77,4104.62,4304.1,4111.28,4087.18,4248.72,4147.69,0
12_9_9,15,4061.03,4128.21,4064.1,4073.85,4512.82,4168.72,4171.28,4089.23,4108.21,4302.05,4107.69,4079.49,4251.28,4143.59,0
12_9_9,16,4062.56,4137.44,4062.05,4077.44,4502.05,4162.05,4168.21,4090.77,4118.97,4313.85,4116.92,4073.85,4257.95,4145.64,0
12_9_9,17,4068.21,4142.56,4065.13,4083.59,4495.38,4159.49,4161.54,4094.36,4119.49,4329.23,4129.74,4078.97,4268.72,4153.33,0
12_9_9,18,4070.77,4145.64,4066.15,4082.05,4494.36,4176.41,4178.97,4096.92,4129.23,4344.62,4134.87,4084.1,4266.67,4149.23,0
12_9_9,19,4076.92,4153.33,4068.72,4078.46,4491.79,4184.62,4190.77,4092.82,4145.13,4366.67,4141.54,4091.79,4263.08,4145.13,0
12_9_9,20,4083.59,4156.92,4071.28,4080,4487.18,4173.85,4174.36,4088.72,4144.1,4376.92,4145.64,4097.95,4269.23,4148.21,0
12_9_9,21,4071.79,4146.15,4065.13,4080,4474.87,4172.82,4166.15,4095.38,4132.82,4363.08,4140,4087.69,4266.15,4144.1,0
12_9_9,22,4062.05,4135.9,4058.97,4075.38,4458.97,4178.46,4169.23,4099.49,4136.41,4361.54,4136.41,4078.97,4262.05,4138.46,0
12_9_9,23,4069.23,4140.51,4059.49,4072.31,4461.54,4177.44,4160,4092.82,4147.18,4383.59,4141.03,4085.13,4274.36,4140,0
12_9_9,24,4078.97,4153.33,4064.62,4074.36,4477.95,4185.64,4166.15,4087.69,4136.92,4385.64,4144.1,4089.74,4288.21,4140,0
12_9_9,25,4081.03,4162.56,4066.67,4078.97,4478.97,4201.03,4187.69,4089.74,4119.49,4370.26,4140,4086.67,4306.67,4140,0
12_9_9,26,4091.79,4165.13,4069.74,4082.56,4475.38,4191.79,4178.97,4092.31,4132.31,4385.64,4138.97,4092.31,4341.03,4149.23,0
12_9_9,27,4098.46,4168.72,4069.23,4081.54,4473.33,4184.1,4165.13,4092.31,4143.08,4401.03,4140.51,4096.92,4362.05,4149.74,0
12_9_9,28,4081.54,4176.92,4065.64,4077.95,4460,4191.28,4175.38,4090.77,4120,4378.97,4133.85,4087.18,4361.54,4140.51,0
12_9_9,29,4074.87,4190.77,4067.18,4075.9,4448.21,4181.54,4173.33,4088.21,4115.9,4383.08,4142.05,4096.92,4379.49,4152.31,0
12_9_9,30,4085.13,4194.87,4068.72,4069.23,4426.67,4173.85,4160,4089.74,4125.64,4405.13,4164.1,4118.97,4393.85,4167.69,0
12_9_9,31,4094.87,4196.92,4065.13,4067.18,4403.59,4179.49,4154.87,4089.74,4113.33,4401.54,4178.46,4124.1,4389.74,4169.23,0
12_9_9,32,4106.67,4214.87,4067.18,4075.38,4413.33,4182.05,4154.87,4089.23,4113.85,4406.67,4185.13,4125.13,4398.97,4182.05,0
12_9_9,33,4112.82,4219.49,4068.21,4078.46,4418.46,4181.03,4154.36,4088.21,4124.1,4420.51,4182.05,4123.08,4403.59,4190.26,0
12_9_9,34,4105.13,4202.05,4063.08,4073.85,4394.87,4187.18,4157.95,4088.72,4122.56,4411.79,4171.28,4111.79,4387.18,4176.92,0
12_9_9,35,4101.54,4194.87,4063.59,4072.82,4379.49,4194.36,4161.03,4091.79,4115.9,4396.41,4168.72,4107.69,4376.92,4168.72,0
12_9_9,36,4108.72,4203.08,4070.26,4073.33,4378.97,4196.92,4149.23,4090.77,4098.97,4381.54,4171.28,4110.77,4365.64,4171.79,0
12_9_9,37,4105.13,4203.59,4070.77,4072.82,4376.41,4195.38,4129.23,4088.72,4085.13,4367.69,4172.31,4109.74,4346.15,4167.69,0
12_9_9,38,4106.67,4200,4067.18,4080.51,4376.41,4187.69,4120.51,4092.82,4093.85,4374.36,4184.1,4112.82,4346.15,4167.69,0
12_9_9,39,4117.95,4202.56,4067.69,4083.59,4366.15,4186.15,4122.05,4090.26,4103.59,4391.79,4195.9,4115.38,4352.31,4175.38,0
12_9_9,40,4124.62,4208.72,4070.77,4079.49,4345.64,4189.23,4115.9,4080.51,4108.72,4417.95,4195.38,4109.23,4342.05,4172.82,0
12_9_9,41,4130.26,4219.49,4075.9,4085.13,4341.03,4186.15,4102.56,4082.05,4114.87,4455.38,4197.44,4116.41,4341.54,4174.36,0
12_9_9,42,4130.26,4219.49,4073.85,4094.87,4340,4186.67,4092.82,4089.74,4113.85,4468.72,4203.59,4122.56,4345.13,4177.44,0
12_9_10,43,4122.56,4207.18,4069.74,4090.77,4326.15,4195.9,4083.59,4091.28,4112.82,4457.95,4197.44,4108.72,4328.72,4167.69,0
12_9_10,44,4120.51,4205.13,4070.77,4081.54,4312.82,4196.92,4076.41,4091.79,4112.82,4458.97,4189.74,4101.54,4315.9,4164.62,0
12_9_10,45,4123.59,4203.08,4074.87,4078.97,4296.92,4184.62,4071.79,4092.31,4098.97,4462.05,4192.82,4107.69,4317.95,4167.69,0
12_9_10,46,4125.64,4188.21,4076.41,4077.95,4281.03,4184.1,4068.72,4091.28,4086.67,4457.95,4192.82,4106.67,4312.31,4155.38,0
12_9_10,47,4134.36,4187.69,4075.9,4076.92,4277.95,4193.33,4061.03,4091.79,4096.92,4475.9,4198.46,4103.08,4305.64,4150.77,0
12_9_10,48,4141.54,4200,4074.87,4075.38,4282.05,4191.28,4045.64,4088.72,4107.69,4507.69,4211.28,4107.18,4313.33,4162.05,0
12_9_10,49,4137.95,4199.49,4073.33,4074.87,4267.18,4189.23,4034.87,4086.67,4096.92,4513.33,4210.77,4106.67,4308.72,4161.03,0
12_9_10,50,4145.64,4196.41,4072.82,4082.56,4243.08,4187.69,4026.15,4092.82,4084.62,4494.36,4207.69,4103.08,4293.33,4152.82,0
12_9_10,51,4163.59,4203.08,4072.82,4090.77,4243.59,4188.72,4020.51,4095.9,4087.18,4484.1,4220,4107.69,4288.21,4154.87,0
12_9_10,52,4168.72,4212.82,4074.36,4086.15,4261.03,4200.51,4024.1,4089.23,4096.41,4494.87,4223.59,4106.67,4288.21,4160,0
12_9_10,53,4171.79,4213.33,4077.95,4074.36,4255.38,4206.15,4029.74,4087.18,4102.56,4506.67,4217.95,4104.1,4285.13,4161.03,0
12_9_10,54,4194.87,4208.21,4082.05,4081.03,4234.36,4205.13,4034.36,4090.26,4114.36,4514.87,4233.85,4124.1,4292.82,4169.23,0
12_9_10,55,4205.64,4211.28,4083.59,4094.36,4230.77,4209.23,4030.77,4089.74,4119.49,4528.72,4249.23,4149.74,4305.13,4177.44,0
12_9_10,56,4185.13,4211.79,4082.05,4077.95,4233.33,4222.56,4032.82,4089.23,4103.59,4524.62,4229.23,4139.49,4290.77,4161.03,0
12_9_10,57,4179.49,4202.05,4082.56,4056.41,4223.59,4226.67,4047.69,4090.77,4087.18,4496.92,4209.74,4115.38,4266.67,4138.97,0
12_9_10,58,4193.85,4196.92,4089.74,4060,4208.72,4213.85,4049.74,4089.23,4073.85,4486.67,4216.92,4115.9,4258.46,4137.44,0
12_9_10,59,4200,4192.82,4095.9,4063.08,4198.97,4205.13,4038.46,4089.23,4052.82,4493.33,4227.69,4121.54,4253.85,4142.56,0
12_9_10,60,4207.18,4183.59,4094.87,4050.26,4201.54,4213.85,4040,4089.74,4040.51,4475.9,4226.67,4111.79,4245.64,4137.95,0
12_9_10,61,4215.38,4182.05,4088.21,4048.21,4207.69,4218.97,4049.74,4089.23,4057.95,4464.1,4228.21,4103.08,4242.56,4132.82,0
12_9_10,62,4218.97,4184.1,4088.21,4052.82,4201.54,4212.31,4053.85,4089.74,4084.62,4490.26,4244.62,4108.72,4241.03,4135.9,0
12_9_10,63,4237.44,4190.26,4090.77,4048.72,4188.72,4216.92,4069.74,4089.23,4092.82,4508.21,4262.56,4118.97,4239.49,4144.62,0
12_9_10,64,4258.97,4204.62,4094.87,4037.44,4202.56,4220.51,4076.41,4089.23,4080.51,4501.54,4260.51,4118.97,4251.28,4149.23,0
12_9_10,65,4252.82,4192.31,4092.82,4028.72,4237.44,4215.38,4073.33,4088.72,4060,4488.72,4243.08,4108.21,4258.97,4141.54,0
12_9_10,66,4242.56,4166.15,4084.1,4028.21,4251.79,4217.44,4088.72,4088.72,4059.49,4476.92,4238.97,4103.08,4248.72,4132.82,0
12_9_10,67,4257.95,4173.33,4082.56,4034.36,4253.85,4216.41,4094.36,4090.26,4061.54,4480.51,4264.1,4110.26,4243.08,4136.92,0
12_9_10,68,4277.44,4190.26,4094.36,4040.51,4274.36,4213.85,4084.62,4090.26,4034.36,4490.77,4291.28,4114.87,4250.77,4144.62,0
12_9_10,69,4286.15,4188.21,4096.92,4037.95,4301.03,4225.64,4103.08,4089.23,4004.1,4487.69,4294.87,4111.28,4247.69,4141.54,0
12_9_10,70,4295.38,4182.05,4091.79,4026.15,4302.05,4242.05,4141.54,4089.23,4012.31,4483.08,4289.74,4105.64,4233.33,4134.87,0
12_9_10,71,4312.82,4189.23,4104.1,4014.36,4295.9,4238.97,4143.59,4089.74,4022.56,4491.28,4302.05,4108.72,4237.44,4134.36,0
12_9_10,72,4331.28,4195.9,4120,4017.44,4297.44,4227.69,4122.56,4088.72,4001.03,4490.26,4316.41,4117.44,4243.59,4137.95,0
12_9_10,73,4342.05,4188.21,4120,4040,4292.82,4228.21,4126.15,4088.72,4009.23,4494.36,4310.77,4120.51,4230.77,4142.56,0
12_9_10,74,4353.33,4189.23,4118.46,4060.51,4278.46,4228.72,4141.54,4089.74,4053.33,4519.49,4308.72,4127.69,4230.77,4151.28,0
12_9_10,75,4371.28,4204.62,4125.13,4064.62,4255.9,4218.46,4147.18,4090.26,4051.28,4533.33,4322.05,4135.38,4237.95,4154.87,0
12_9_10,76,4387.18,4201.54,4129.23,4061.03,4234.36,4211.28,4156.41,4091.28,4018.97,4535.9,4330.77,4133.85,4223.08,4154.36,0
12_9_10,77,4399.49,4191.79,4128.72,4069.23,4213.85,4213.33,4177.44,4092.31,4019.49,4537.95,4327.18,4126.67,4216.41,4156.41,0
12_9_10,78,4424.1,4193.85,4130.77,4072.31,4190.77,4217.44,4187.69,4091.79,4025.64,4538.46,4325.64,4125.64,4236.92,4163.08,0
12_9_10,79,4449.74,4184.1,4140,4069.74,4160.51,4216.41,4176.92,4090.26,4009.23,4549.23,4334.36,4133.33,4247.18,4174.36,0
12_9_10,80,4478.97,4189.74,4142.05,4088.21,4130.26,4211.28,4169.23,4090.26,3993.33,4578.46,4354.36,4147.18,4245.13,4191.79,0
12_9_10,81,4525.64,4229.74,4134.87,4112.31,4112.31,4224.62,4185.64,4091.79,3973.85,4595.38,4367.69,4154.36,4250.26,4205.13,0
12_9_10,82,4564.62,4237.44,4129.74,4112.31,4090.26,4246.67,4203.59,4092.31,3958.46,4585.13,4358.97,4145.64,4248.72,4203.08,0
12_9_10,83,4575.9,4211.28,4133.85,4098.46,4061.03,4254.87,4203.08,4090.77,3956.41,4575.9,4348.21,4135.38,4229.23,4195.9,0
12_9_10,84,4596.41,4218.46,4144.1,4108.72,4043.08,4259.49,4204.1,4088.21,3947.69,4578.46,4361.54,4138.97,4221.54,4207.18,0
12_9_10,85,4632.31,4247.18,4154.36,4127.69,4038.97,4274.36,4220,4088.21,3948.72,4602.56,4392.82,4152.31,4248.21,4236.41,0
12_9_10,86,4643.59,4241.03,4147.69,4123.59,4023.59,4301.03,4245.64,4091.28,3961.54,4621.54,4398.97,4153.85,4256.41,4245.64,0
12_9_10,87,4638.46,4216.41,4134.36,4114.36,4002.05,4317.95,4254.36,4091.79,3952.31,4605.64,4374.36,4136.92,4219.49,4227.18,0
12_9_10,88,4665.13,4231.79,4144.62,4115.9,4005.64,4309.23,4234.36,4090.26,3935.38,4604.62,4378.46,4143.08,4209.74,4232.82,0
12_9_10,89,4706.15,4263.59,4158.97,4125.64,4026.15,4314.87,4229.23,4091.28,3942.56,4626.67,4413.85,4168.72,4233.85,4263.59,0
12_9_10,90,4705.64,4251.28,4148.72,4144.62,4046.67,4358.46,4248.72,4095.9,3945.13,4612.82,4409.23,4158.46,4221.54,4253.33,0
12_9_10,91,4689.23,4223.59,4136.92,4165.13,4059.49,4376.92,4254.87,4094.36,3927.69,4579.49,4387.69,4131.79,4187.18,4222.56,0
12_9_10,92,4707.69,4226.15,4144.62,4173.85,4054.87,4364.1,4248.72,4092.82,3917.95,4589.23,4414.36,4142.56,4195.38,4240.51,0
12_9_10,93,4734.87,4238.97,4150.26,4186.15,4049.23,4375.38,4254.87,4094.36,3929.23,4611.79,4441.03,4165.13,4222.56,4270.77,0
12_9_10,94,4735.9,4244.1,4147.18,4203.59,4066.67,4396.41,4264.1,4092.31,3948.72,4615.9,4431.28,4168.72,4220,4269.74,0
12_9_10,95,4731.79,4246.15,4146.67,4200.51,4082.05,4396.92,4263.59,4090.26,3946.67,4622.05,4425.13,4168.21,4211.79,4270.77,0
12_9_10,96,4743.08,4242.05,4150.77,4188.72,4066.67,4388.72,4255.9,4092.82,3947.69,4632.31,4432.31,4171.79,4227.18,4282.05,0
12_9_10,97,4749.74,4234.36,4150.77,4187.18,4056.92,4383.08,4253.33,4096.41,3967.69,4645.13,4429.23,4170.26,4238.46,4279.49,0
12_9_10,98,4736.92,4228.72,4148.21,4185.64,4074.87,4395.9,4259.49,4097.95,3958.46,4652.31,4411.79,4155.9,4222.56,4265.64,0
12_9_10,99,4730.77,4229.74,4148.21,4182.05,4090.77,4413.33,4253.33,4097.44,3941.03,4658.46,4397.44,4144.62,4210.77,4260.51,0
12_9_10,100,4748.21,4242.05,4152.82,4185.64,4095.38,4411.28,4244.62,4094.87,3959.49,4678.97,4397.44,4157.44,4215.9,4274.87,0
12_9_10,101,4756.41,4250.77,4155.38,4189.74,4091.79,4414.36,4258.46,4091.79,3980.51,4707.69,4403.08,4170.26,4218.46,4292.82,0
12_9_10,102,4745.13,4245.64,4154.87,4186.15,4085.13,4430.77,4266.67,4090.77,3980,4730.26,4399.49,4162.56,4215.9,4295.38,0
12_9_10,103,4735.9,4236.92,4150.77,4182.56,4085.13,4430.77,4252.82,4092.31,3978.46,4734.87,4383.08,4155.38,4211.79,4292.82,0
12_9_10,104,4727.69,4232.31,4150.26,4182.56,4092.82,4424.62,4245.64,4093.33,3980.51,4730.77,4365.13,4157.95,4203.08,4292.31,0
12_9_10,105,4722.56,4236.41,4152.82,4184.1,4102.56,4427.18,4250.26,4093.85,3983.08,4737.95,4363.59,4163.59,4200,4297.95,0
12_9_10,106,4724.1,4243.59,4156.92,4187.69,4108.72,4426.15,4243.59,4096.92,3994.36,4756.41,4365.64,4169.74,4208.21,4307.18,0
12_9_10,107,4721.03,4240.51,4156.92,4186.15,4111.79,4420,4232.31,4099.49,4003.08,4771.79,4344.1,4167.18,4204.62,4307.18,0
12_9_10,108,4707.69,4227.69,4154.36,4173.33,4118.46,4419.49,4238.46,4098.46,4001.54,4778.46,4312.82,4158.46,4187.18,4306.15,0
12_9_10,109,4693.33,4219.49,4152.82,4165.64,4132.31,4425.64,4246.15,4095.9,4002.56,4787.18,4286.67,4157.44,4180,4309.74,0
12_9_10,110,4688.72,4229.74,4154.87,4178.46,4146.67,4425.64,4238.97,4091.28,4017.44,4802.05,4268.72,4162.56,4184.62,4310.77,0
12_9_10,111,4689.23,4242.05,4160,4193.33,4152.82,4413.33,4230.26,4090.77,4024.1,4811.79,4259.49,4168.21,4183.59,4315.38,0
12_9_10,112,4681.54,4237.44,4161.03,4196.92,4149.23,4407.69,4232.31,4099.49,4012.82,4811.79,4249.74,4169.23,4178.97,4323.59,0
12_9_10,113,4662.56,4231.79,4160.51,4199.49,4144.1,4413.85,4234.87,4101.03,4015.38,4817.44,4231.79,4161.54,4172.31,4314.87,0
12_9_10,114,4639.49,4230.77,4157.44,4203.08,4147.69,4410.26,4233.33,4096.41,4019.49,4821.03,4211.28,4154.36,4154.87,4295.9,0
12_9_10,115,4618.97,4222.05,4154.87,4201.54,4160.51,4400,4231.28,4098.46,4008.72,4816.41,4197.44,4152.82,4144.62,4290.26,0
12_9_10,116,4607.69,4216.41,4157.95,4201.03,4176.92,4401.03,4232.82,4099.49,4011.79,4831.28,4196.41,4154.87,4152.31,4293.85,0
12_9_10,117,4596.92,4221.54,4162.05,4203.08,4186.15,4401.54,4236.41,4097.44,4030.26,4854.36,4197.44,4159.49,4155.38,4295.9,0
12_9_10,118,4573.85,4221.03,4156.41,4201.54,4191.79,4396.41,4228.21,4099.49,4037.44,4854.36,4190.77,4158.46,4157.44,4295.9,0
12_9_10,119,4549.74,4217.44,4151.79,4202.56,4205.13,4394.87,4220,4103.08,4030.26,4845.64,4184.1,4154.87,4164.1,4298.46,0
12_9_10,120,4530.77,4212.31,4151.79,4205.13,4217.95,4394.36,4222.05,4101.03,4024.1,4843.59,4178.46,4156.41,4162.56,4299.49,0
12_9_10,121,4506.67,4202.05,4150.77,4206.67,4224.1,4384.62,4210.26,4099.49,4019.49,4835.38,4165.64,4151.79,4147.18,4290.26,0
12_9_10,122,4480.51,4203.59,4149.23,4206.67,4237.44,4376.41,4189.23,4101.54,4013.33,4830.26,4149.74,4141.03,4140.51,4277.44,0
12_9_10,123,4455.38,4204.62,4150.26,4193.33,4251.28,4373.85,4186.15,4103.59,4013.85,4844.1,4142.56,4140,4146.15,4278.46,0
12_9_10,124,4429.23,4200,4150.77,4164.62,4265.13,4364.62,4186.67,4105.64,4016.41,4852.82,4134.36,4143.08,4150.26,4283.59,0
12_9_10,125,4390.26,4202.05,4148.21,4136.41,4284.62,4349.23,4176.41,4106.15,4015.9,4850.77,4122.56,4138.97,4161.03,4271.79,0
12_9_10,126,4330.77,4189.74,4140.51,4116.41,4294.36,4328.21,4168.72,4103.59,4018.97,4851.28,4111.79,4130.77,4178.97,4247.69,0
12_9_10,127,4275.9,4169.23,4137.95,4112.31,4303.08,4297.44,4156.92,4103.59,4023.59,4851.79,4099.49,4123.08,4193.85,4232.82,0
12_9_10,128,4251.79,4169.74,4144.62,4120.51,4330.26,4271.28,4137.44,4106.67,4021.54,4852.82,4090.26,4120,4205.13,4230.26,0
12_9_10,0,4230.26,4166.15,4147.69,4121.54,4361.54,4254.36,4127.69,4108.72,4029.74,4858.46,4090.26,4126.15,4221.54,4228.21,0
12_9_10,1,4201.03,4155.38,4147.18,4122.56,4389.23,4235.9,4125.64,4105.64,4050.77,4868.72,4098.97,4134.36,4237.95,4230.77,0
12_9_10,2,4194.87,4168.72,4149.23,4136.92,4422.56,4224.62,4124.62,4104.1,4065.64,4886.15,4121.54,4146.67,4256.41,4244.1,0
12_9_10,3,4196.92,4170.77,4149.74,4146.67,4453.85,4229.23,4124.1,4106.67,4073.85,4894.36,4145.13,4154.87,4268.21,4251.79,0
12_9_10,4,4182.05,4149.23,4144.62,4147.69,4471.28,4236.41,4123.59,4108.21,4072.82,4883.08,4147.18,4149.23,4254.36,4248.21,0
12_9_10,5,4172.82,4145.64,4138.46,4148.21,4485.64,4236.41,4120.51,4105.64,4058.97,4867.69,4144.62,4141.54,4238.97,4242.56,0
12_9_10,6,4169.23,4148.21,4128.72,4141.54,4505.64,4228.72,4121.03,4104.1,4049.74,4860,4145.64,4140,4231.79,4236.41,0
12_9_10,7,4157.44,4140.51,4124.1,4137.44,4522.56,4221.54,4133.33,4105.13,4047.18,4854.36,4136.41,4142.56,4215.38,4227.18,0
12_9_10,8,4149.23,4141.54,4125.13,4142.05,4523.08,4221.54,4143.59,4105.64,4042.05,4857.44,4139.49,4150.77,4212.82,4221.54,0
12_9_10,9,4145.13,4138.46,4123.08,4134.87,4518.97,4214.36,4143.08,4104.1,4036.92,4859.49,4152.82,4152.31,4219.49,4215.38,0
12_9_10,10,4131.28,4136.41,4118.46,4125.64,4526.67,4197.95,4142.56,4106.15,4042.56,4856.41,4151.79,4139.49,4198.97,4202.56,0
12_9_10,11,4123.59,4152.31,4120.51,4133.85,4538.46,4197.44,4144.1,4104.1,4058.46,4867.18,4161.54,4138.97,4188.21,4198.46,0
12_9_10,12,4128.21,4154.87,4123.08,4141.03,4541.54,4205.64,4141.54,4097.95,4068.21,4886.67,4187.69,4156.41,4210.26,4208.72,0
12_9_10,13,4124.1,4142.56,4119.49,4138.46,4536.41,4198.46,4138.97,4097.95,4068.72,4887.18,4195.9,4158.97,4208.72,4209.23,0
12_9_10,14,4110.26,4143.59,4117.95,4132.82,4542.56,4182.56,4137.44,4099.49,4068.21,4874.87,4194.87,4146.67,4185.13,4192.82,0
12_9_10,15,4105.13,4149.23,4125.64,4128.72,4568.21,4182.56,4136.92,4097.95,4079.49,4873.85,4206.15,4140,4181.03,4183.08,0
12_9_10,16,4105.13,4150.26,4131.28,4126.15,4596.92,4196.92,4140.51,4098.46,4091.28,4875.38,4219.49,4141.03,4185.64,4185.13,0
12_9_10,17,4109.74,4157.44,4131.28,4128.72,4615.9,4198.46,4133.85,4102.05,4087.69,4867.18,4229.74,4144.62,4187.18,4188.21,0
12_9_10,18,4119.49,4167.69,4134.36,4133.85,4629.23,4186.15,4124.62,4100,4077.44,4853.33,4235.9,4150.77,4184.1,4188.72,0
12_9_10,19,4121.03,4175.38,4137.44,4137.44,4636.41,4183.08,4130.26,4097.95,4078.97,4842.05,4233.33,4155.38,4172.82,4187.18,0
12_9_10,20,4104.1,4170.77,4132.82,4131.28,4629.23,4186.67,4141.03,4097.95,4093.33,4836.92,4231.28,4151.79,4163.59,4182.56,0
12_9_10,21,4081.54,4155.38,4120,4114.36,4617.95,4187.18,4145.13,4098.46,4102.56,4830.26,4226.67,4138.97,4155.9,4168.72,0
12_9_10,22,4077.44,4156.41,4117.44,4110.77,4605.13,4183.59,4150.26,4098.46,4111.79,4823.59,4227.18,4132.31,4151.28,4159.49,0
12_9_10,23,4082.05,4169.23,4126.15,4122.05,4588.21,4175.38,4154.87,4098.46,4121.03,4826.15,4238.97,4142.05,4153.33,4168.21,0
12_9_10,24,4079.49,4173.85,4131.28,4121.03,4586.67,4169.23,4149.74,4097.44,4112.31,4829.74,4241.03,4147.18,4142.56,4170.26,0
12_9_10,25,4074.87,4173.85,4124.1,4109.74,4597.95,4166.67,4140.51,4097.44,4102.56,4827.69,4230.77,4135.9,4124.1,4156.41,0
12_9_10,26,4071.79,4163.08,4118.46,4101.54,4594.87,4160.51,4136.41,4098.46,4107.18,4823.59,4237.95,4131.28,4118.46,4151.28,0
12_9_10,27,4070.77,4158.46,4120.51,4105.13,4585.13,4157.44,4140.51,4098.46,4110.26,4823.59,4252.82,4134.87,4112.82,4154.87,0
12_9_10,28,4072.31,4172.31,4122.56,4109.74,4589.74,4158.46,4144.62,4096.41,4109.23,4828.21,4249.74,4127.18,4103.59,4154.36,0
12_9_10,29,4068.21,4167.69,4119.49,4103.59,4589.23,4152.31,4141.54,4095.38,4119.49,4828.21,4247.18,4121.03,4109.74,4149.23,0
12_9_10,30,4058.97,4154.87,4121.03,4102.05,4576.41,4152.82,4141.54,4096.41,4128.21,4815.9,4254.36,4127.18,4111.28,4142.05,0
12_9_10,31,4058.97,4163.08,4121.03,4108.72,4570.77,4163.08,4148.72,4096.41,4135.9,4808.21,4257.44,4128.21,4102.05,4137.44,0
12_9_10,32,4054.87,4162.05,4116.92,4104.1,4562.56,4161.54,4150.77,4094.36,4145.13,4804.1,4260.51,4123.08,4105.13,4140,0
12_9_10,33,4043.59,4147.69,4116.92,4092.31,4540.51,4146.67,4143.59,4095.9,4131.79,4785.13,4263.59,4126.67,4111.28,4141.03,0
12_9_10,34,4044.62,4152.82,4119.49,4091.28,4525.64,4136.41,4139.49,4098.46,4111.28,4774.36,4255.9,4126.15,4106.67,4133.33,0
12_9_10,35,4040,4157.95,4116.92,4090.77,4518.97,4128.21,4139.49,4097.95,4118.97,4784.62,4244.1,4107.18,4097.44,4123.08,0
12_9_10,36,4025.13,4153.33,4115.9,4088.72,4499.49,4115.9,4135.9,4097.44,4131.28,4791.28,4244.62,4087.69,4100,4122.05,0
12_9_10,37,4015.38,4151.28,4115.9,4087.69,4477.44,4107.69,4133.33,4097.95,4124.1,4784.1,4246.67,4086.67,4108.21,4119.49,0
12_9_10,38,4011.28,4150.77,4113.85,4084.1,4470.77,4106.15,4135.9,4097.95,4124.1,4781.54,4245.64,4091.79,4104.62,4108.21,0
12_9_10,39,4015.9,4161.03,4115.38,4083.08,4473.33,4102.05,4137.44,4098.46,4136.41,4789.74,4254.36,4090.26,4105.64,4109.23,0
12_9_10,40,4020,4166.15,4114.36,4080.51,4478.97,4097.44,4132.82,4097.44,4133.85,4791.28,4266.67,4088.72,4121.54,4120.51,0
12_9_10,41,4012.82,4140.51,4110.26,4070.77,4480.51,4097.95,4134.87,4093.85,4116.92,4783.08,4267.18,4091.28,4122.56,4113.85,0
12_9_11,42,3998.46,4117.44,4105.13,4062.56,4469.74,4095.38,4134.36,4092.31,4105.13,4767.18,4251.28,4082.56,4102.56,4091.79,0
12_9_11,43,3990.77,4124.1,4104.1,4066.15,4457.95,4085.13,4126.15,4090.77,4109.74,4752.82,4247.18,4072.82,4102.56,4087.69,0
12_9_11,44,3995.9,4136.41,4111.79,4076.92,4459.49,4076.92,4129.23,4089.74,4121.54,4754.87,4270.26,4084.1,4123.08,4103.08,0
12_9_11,45,4003.08,4140,4118.97,4084.1,4458.46,4078.97,4140,4092.31,4124.1,4750.26,4287.69,4097.95,4134.36,4110.26,0
12_9_11,46,3998.97,4141.54,4112.31,4081.54,4434.36,4083.59,4142.56,4096.92,4121.03,4724.62,4280,4092.31,4134.36,4101.54,0
12_9_11,47,3984.62,4137.44,4107.18,4076.41,4406.67,4075.38,4135.9,4098.97,4123.08,4708.72,4268.21,4084.1,4123.08,4090.26,0
12_9_11,48,3974.87,4131.28,4109.74,4071.79,4400,4065.13,4129.23,4098.46,4122.05,4708.72,4262.56,4080.51,4107.18,4081.03,0
12_9_11,49,3980,4140.51,4111.79,4068.21,4407.18,4068.72,4126.67,4098.97,4122.05,4704.62,4263.08,4077.95,4104.1,4074.87,0
12_9_11,50,3991.79,4154.36,4110.77,4071.79,4421.03,4072.82,4128.72,4098.46,4132.31,4702.56,4278.46,4085.13,4108.21,4077.95,0
12_9_11,51,3993.33,4153.85,4111.28,4074.87,4427.69,4062.56,4123.08,4093.85,4132.82,4698.97,4288.72,4090.77,4109.23,4082.56,0
12_9_11,52,3994.36,4153.33,4115.38,4071.79,4427.69,4058.46,4118.97,4092.31,4132.31,4694.87,4295.9,4090.26,4128.21,4088.72,0
12_9_11,53,4001.03,4153.85,4117.44,4067.18,4438.97,4073.85,4127.18,4096.41,4140.51,4697.44,4311.28,4095.38,4144.62,4094.87,0
12_9_11,54,3987.69,4143.08,4110.26,4060,4450.77,4077.44,4126.15,4092.82,4125.13,4671.79,4300.51,4086.67,4116.41,4077.95,0
12_9_11,55,3976.92,4142.56,4106.67,4057.44,4440.51,4061.03,4125.13,4088.21,4114.87,4633.85,4276.92,4072.31,4092.82,4060,0
12_9_11,56,3988.21,4156.92,4114.87,4065.13,4428.21,4055.9,4142.05,4093.33,4146.15,4638.97,4288.72,4083.08,4116.41,4069.74,0
12_9_11,57,3985.64,4155.9,4117.95,4065.64,4429.74,4061.54,4145.13,4095.9,4148.72,4645.13,4313.33,4093.85,4133.33,4083.59,0
12_9_11,58,3969.74,4151.79,4110.77,4056.41,4427.69,4057.44,4124.62,4093.85,4110.26,4607.18,4305.13,4078.46,4110.26,4072.31,0
12_9_11,59,3978.46,4169.74,4109.23,4060.51,4433.85,4050.77,4123.59,4096.41,4114.36,4595.9,4303.08,4078.46,4107.18,4072.31,0
12_9_11,60,3997.95,4177.95,4117.44,4069.23,4448.72,4056.92,4137.44,4100,4150.26,4625.64,4336.92,4106.67,4140.51,4096.92,0
12_9_11,61,3991.28,4159.49,4115.9,4056.92,4443.08,4067.18,4129.74,4098.46,4145.64,4619.49,4343.59,4106.67,4140,4090.26,0
12_9_11,62,3978.97,4147.18,4110.77,4041.54,4431.28,4054.36,4116.41,4097.44,4125.64,4580.51,4314.36,4083.59,4110.77,4062.56,0
12_9_11,63,3986.15,4156.92,4116.41,4048.72,4440.51,4033.85,4118.46,4096.41,4132.31,4567.69,4306.67,4083.59,4111.28,4064.1,0
12_9_11,64,3994.87,4160.51,4123.59,4056.41,4452.82,4041.54,4122.56,4095.38,4139.49,4572.31,4324.1,4094.87,4129.23,4074.36,0
12_9_11,65,3983.59,4141.54,4117.44,4044.62,4441.54,4062.05,4125.13,4096.41,4128.72,4564.1,4330.26,4090.77,4122.05,4061.03,0
12_9_11,66,3971.28,4131.28,4112.82,4037.44,4426.15,4060.51,4129.23,4096.41,4115.9,4541.54,4324.62,4081.54,4105.64,4047.69,0
12_9_11,67,3975.9,4144.1,4116.41,4043.59,4431.79,4054.87,4131.79,4095.38,4120,4528.21,4330.77,4078.97,4106.15,4047.18,0
12_9_11,68,3987.18,4157.95,4120.51,4045.64,4446.15,4067.69,4137.95,4097.44,4134.36,4542.05,4345.13,4087.69,4110.26,4050.26,0
12_9_11,69,4002.05,4167.69,4124.62,4044.1,4448.21,4069.23,4144.1,4098.97,4138.97,4555.38,4360.51,4106.67,4115.38,4064.62,0
12_9_11,70,4010.26,4171.28,4125.13,4040.51,4441.54,4053.33,4134.87,4099.49,4127.69,4537.44,4357.95,4109.23,4115.38,4070.77,0
12_9_11,71,4008.72,4173.85,4123.08,4040,4444.62,4042.05,4123.59,4098.46,4117.95,4518.97,4339.49,4095.38,4102.56,4061.54,0
12_9_11,80,4015.38,4206.15,4126.15,4035.9,4342.05,4031.79,4125.64,4099.49,4099.49,4387.69,4328.72,4122.05,4099.49,4060.51,0
12_9_11,81,4005.64,4187.69,4118.97,4014.36,4340.51,4027.18,4116.92,4095.9,4114.87,4386.15,4326.67,4118.97,4096.92,4053.33,0
12_9_11,82,3999.49,4176.41,4116.41,4005.64,4345.13,4022.56,4107.18,4094.36,4127.18,4378.97,4317.95,4111.79,4083.08,4038.97,0
12_9_11,83,4008.72,4200,4126.15,4024.62,4334.36,4020.51,4110.26,4093.33,4143.59,4386.15,4312.82,4113.33,4079.49,4041.54,0
12_9_11,84,4016.41,4208.21,4133.33,4035.9,4313.33,4025.64,4105.64,4093.33,4153.33,4397.95,4327.69,4128.21,4108.72,4063.59,0
12_9_11,85,4004.1,4187.18,4124.62,4023.59,4302.05,4021.54,4085.13,4092.31,4144.1,4376.92,4328.72,4125.13,4112.31,4061.03,0
12_9_11,86,3998.46,4195.38,4121.03,4028.21,4301.03,4012.82,4090.77,4092.31,4140,4367.18,4324.62,4120,4106.67,4055.38,0
12_9_11,87,4012.31,4216.41,4130.77,4044.62,4297.95,4024.1,4118.97,4098.46,4144.1,4379.49,4340.51,4139.49,4131.28,4077.44,0
12_9_11,88,4006.15,4203.59,4128.21,4034.87,4280,4033.85,4117.95,4099.49,4129.74,4354.36,4334.87,4143.08,4126.67,4078.46,0
12_9_11,89,3985.64,4188.72,4120,4020,4263.59,4022.05,4103.08,4095.9,4114.87,4320.51,4315.38,4129.23,4102.05,4059.49,0
12_9_11,90,3986.67,4197.44,4122.56,4024.62,4270.77,4018.97,4109.74,4097.44,4129.74,4323.59,4322.05,4132.82,4109.74,4061.03,0
12_9_11,91,3988.72,4203.08,4121.54,4021.03,4277.95,4033.33,4106.15,4098.97,4130.77,4314.87,4317.44,4125.64,4104.1,4051.28,0
12_9_11,92,3987.69,4207.18,4116.92,4014.87,4263.59,4031.79,4088.72,4097.95,4117.44,4309.23,4308.72,4111.79,4087.18,4038.46,0
12_9_11,93,4010.77,4222.56,4127.18,4033.85,4254.36,4011.28,4091.79,4094.87,4133.33,4342.56,4337.44,4130.26,4110.77,4062.56,0
12_9_11,94,4033.85,4233.33,4135.9,4045.13,4263.08,4007.18,4098.97,4092.31,4145.64,4352.82,4357.44,4147.69,4129.74,4083.08,0
12_9_11,95,4031.28,4233.85,4132.82,4036.92,4264.1,4023.08,4095.9,4092.82,4136.92,4335.38,4343.08,4144.1,4120,4074.87,0
12_9_11,96,4028.21,4232.82,4135.38,4041.54,4253.85,4030.77,4102.05,4095.38,4144.1,4343.08,4341.54,4149.23,4128.21,4078.97,0
12_9_11,97,4024.62,4224.1,4136.92,4047.18,4245.13,4031.28,4108.72,4096.41,4146.67,4338.46,4344.1,4150.26,4135.9,4081.03,0
12_9_11,98,4004.62,4210.26,4131.79,4036.41,4238.97,4034.36,4104.62,4096.92,4122.56,4297.44,4324.1,4134.36,4121.54,4057.44,0
12_9_11,99,4000.51,4213.33,4132.31,4036.41,4238.46,4032.31,4105.64,4097.44,4122.05,4289.74,4323.08,4136.41,4136.92,4053.85,0
12_9_11,100,4004.1,4211.28,4135.9,4036.41,4231.28,4029.74,4109.23,4099.49,4131.79,4305.13,4338.46,4145.13,4168.21,4066.15,0
12_9_11,101,3990.77,4194.36,4132.82,4021.03,4210.26,4030.77,4094.36,4100,4113.33,4285.13,4330.77,4135.9,4167.69,4050.26,0
12_9_11,102,3995.38,4204.62,4138.97,4021.54,4203.59,4036.41,4078.97,4098.97,4110.77,4278.46,4329.74,4134.36,4178.46,4045.64,0
12_9_11,103,4020.51,4227.69,4146.15,4037.44,4215.9,4044.1,4082.05,4101.54,4137.44,4307.69,4351.28,4149.74,4212.31,4069.23,0
12_9_11,104,4031.79,4232.82,4145.64,4043.59,4214.36,4043.59,4093.85,4102.05,4145.13,4316.41,4362.05,4163.08,4227.18,4080,0
12_9_11,105,4028.72,4228.72,4146.15,4042.56,4198.97,4036.92,4096.41,4095.38,4136.41,4297.44,4359.49,4166.67,4228.21,4082.05,0
12_9_11,106,4000,4221.03,4144.1,4041.54,4196.92,4035.9,4084.1,4094.36,4137.44,4285.13,4350.77,4157.95,4224.62,4084.62,0
12_9_11,107,3947.69,4221.03,4139.49,4046.67,4204.1,4039.49,4078.46,4096.41,4143.08,4280.51,4340,4149.74,4217.44,4078.46,0
12_9_11,108,3916.92,4232.82,4141.54,4051.28,4205.64,4042.56,4087.18,4095.38,4135.38,4273.33,4348.72,4155.9,4224.1,4076.92,0
12_9_11,109,3907.18,4226.15,4143.08,4042.56,4199.49,4048.72,4093.33,4093.85,4125.64,4262.56,4359.49,4152.82,4226.67,4077.44,0
12_9_11,110,3892.31,4208.72,4141.54,4031.28,4182.56,4046.67,4088.72,4091.28,4130.26,4254.87,4355.38,4143.08,4215.38,4071.79,0
12_9_11,111,3888.21,4209.74,4143.59,4030.77,4168.72,4048.72,4088.72,4092.31,4137.95,4260.51,4362.56,4148.72,4214.36,4075.9,0
12_9_11,112,3897.95,4216.92,4142.56,4034.36,4172.31,4057.95,4096.92,4097.44,4123.59,4252.31,4368.21,4151.79,4210.26,4080.51,0
12_9_11,113,3906.15,4223.08,4142.05,4045.13,4180,4055.38,4102.56,4097.44,4122.05,4242.05,4361.03,4146.67,4198.46,4078.97,0
12_9_11,114,3914.36,4228.21,4145.13,4055.9,4178.46,4053.33,4105.64,4090.77,4150.26,4257.95,4365.13,4154.36,4206.15,4089.23,0
12_9_11,115,3911.79,4219.49,4143.08,4052.31,4168.21,4061.03,4102.56,4088.21,4145.13,4254.36,4362.05,4160.51,4207.69,4088.21,0
12_9_11,116,3895.9,4208.21,4140.51,4045.13,4156.92,4064.1,4093.33,4093.85,4117.44,4228.72,4340.51,4148.21,4188.21,4072.31,0
12_9_11,117,3896.41,4211.28,4144.1,4051.28,4149.23,4056.92,4090.77,4100.51,4127.18,4233.85,4336.41,4145.64,4181.54,4074.87,0
12_9_11,118,3912.31,4220.51,4144.62,4061.54,4141.54,4058.97,4095.38,4096.41,4148.21,4249.74,4346.67,4158.46,4192.82,4089.23,0
12_9_11,119,3913.33,4218.46,4142.56,4055.9,4125.64,4061.03,4094.36,4091.28,4142.56,4235.9,4342.56,4159.49,4191.79,4087.69,0
12_9_11,120,3908.21,4213.85,4144.1,4047.18,4109.74,4056.41,4096.41,4096.92,4139.49,4225.64,4340.51,4155.9,4186.15,4080.51,0
12_9_11,121,3912.82,4220,4145.13,4051.79,4107.18,4065.64,4106.15,4101.03,4149.23,4233.85,4346.15,4156.41,4189.23,4082.56,0
12_9_11,122,3902.56,4213.33,4137.44,4047.69,4108.21,4067.69,4096.92,4095.9,4137.95,4221.03,4328.72,4143.59,4177.44,4071.79,0
12_9_11,123,3888.72,4196.41,4132.31,4036.41,4098.97,4055.9,4088.72,4092.82,4129.74,4197.44,4307.69,4132.82,4155.38,4057.44,0
12_9_11,124,3903.08,4198.97,4139.49,4041.54,4091.79,4063.59,4110.77,4096.41,4164.1,4207.18,4316.41,4149.23,4161.03,4068.21,0
12_9_11,125,3915.9,4207.18,4143.08,4051.28,4092.31,4079.49,4115.38,4100,4175.38,4222.05,4322.56,4160,4176.41,4083.59,0
12_9_11,125,3915.9,4207.18,4143.08,4051.28,4092.31,4079.49,4115.38,4100,4175.38,4222.05,4322.56,4160,4176.41,4083.59,0
12_9_11,126,3908.72,4203.08,4138.97,4049.23,4088.21,4071.79,4092.31,4100.51,4137.95,4197.44,4308.21,4151.28,4162.05,4079.49,0
12_9_11,127,3908.21,4198.97,4135.9,4049.23,4081.03,4056.92,4086.15,4096.92,4131.79,4173.85,4305.13,4152.31,4141.54,4074.87,0
12_9_11,128,3913.33,4198.97,4136.41,4051.28,4071.28,4053.33,4085.64,4094.36,4147.18,4177.44,4305.13,4150.26,4136.41,4075.38,0
12_9_11,0,3908.72,4199.49,4138.97,4048.21,4058.46,4054.36,4072.82,4097.44,4131.79,4175.38,4295.38,4138.46,4134.36,4073.85,0
12_9_11,1,3914.87,4204.1,4144.62,4049.74,4058.97,4054.87,4070.26,4100,4132.31,4168.21,4296.41,4145.64,4135.9,4078.46,0
12_9_11,2,3923.59,4206.67,4140.51,4051.28,4067.18,4058.97,4079.49,4095.9,4162.56,4171.28,4302.05,4158.97,4142.05,4081.03,0
12_9_11,2,3923.59,4206.67,4140.51,4051.28,4067.18,4058.97,4079.49,4095.9,4162.56,4171.28,4302.05,4158.97,4142.05,4081.03,0
12_9_11,3,3915.38,4198.46,4136.41,4043.59,4057.95,4067.18,4085.13,4088.72,4157.95,4168.72,4295.9,4154.36,4145.13,4075.38,0
12_9_11,4,3907.69,4189.74,4139.49,4038.46,4047.18,4078.46,4092.82,4092.82,4146.67,4166.67,4292.82,4148.21,4149.74,4073.33,0
12_9_11,5,3909.74,4187.18,4139.49,4044.1,4055.9,4084.62,4113.33,4099.49,4179.49,4169.74,4295.9,4152.31,4154.87,4075.9,0
12_9_11,6,3910.26,4184.62,4134.87,4048.21,4065.13,4089.74,4125.64,4097.95,4197.44,4168.21,4294.87,4156.41,4156.92,4076.41,0
12_9_11,7,3907.69,4185.64,4137.44,4047.18,4062.56,4087.69,4104.62,4097.44,4170.26,4162.05,4293.85,4152.82,4161.54,4078.97,0
12_9_11,8,3910.77,4195.38,4141.03,4053.85,4058.97,4068.72,4074.87,4098.97,4145.64,4155.38,4297.95,4151.79,4167.69,4088.72,0
12_9_11,9,3919.49,4204.1,4143.08,4059.49,4060,4060.51,4078.97,4097.44,4152.82,4151.79,4294.87,4164.62,4166.67,4093.85,0
12_9_11,10,3923.08,4200.51,4140.51,4052.82,4063.59,4070.26,4093.33,4096.92,4163.08,4146.67,4285.64,4170.26,4158.97,4086.15,0
12_9_11,11,3915.38,4192.31,4135.9,4043.59,4063.08,4074.87,4088.72,4098.97,4166.15,4145.13,4280,4157.95,4153.85,4075.9,0
12_9_11,12,3909.74,4189.23,4134.87,4044.1,4053.85,4073.85,4089.23,4097.95,4167.69,4149.23,4273.85,4151.79,4148.72,4074.36,0
12_9_11,13,3910.26,4187.18,4137.95,4047.18,4050.77,4075.38,4106.15,4094.87,4175.38,4144.1,4263.08,4155.38,4143.08,4075.9,0
12_9_11,14,3908.72,4184.62,4141.54,4050.26,4057.44,4081.54,4110.26,4094.87,4188.21,4135.38,4262.05,4157.95,4143.08,4074.87,0
12_9_11,15,3911.28,4188.21,4142.05,4058.46,4065.64,4087.18,4099.49,4098.46,4186.15,4135.9,4263.08,4161.54,4146.15,4077.95,0
12_9_11,16,3909.74,4182.05,4140,4056.41,4061.54,4095.38,4116.92,4098.97,4190.26,4139.49,4248.21,4163.08,4140.51,4077.95,0
12_9_11,17,3898.97,4170.77,4138.46,4043.08,4052.82,4098.46,4130.77,4097.95,4201.03,4135.38,4233.85,4153.85,4129.23,4072.31,0
12_9_11,18,3897.95,4177.44,4138.97,4045.64,4056.41,4090.26,4093.33,4098.46,4192.31,4137.95,4232.31,4144.1,4129.23,4070.26,0
12_9_11,19,3900,4180.51,4135.38,4050.77,4062.05,4078.46,4061.54,4098.97,4180.51,4142.56,4225.13,4137.95,4127.18,4066.67,0
12_9_11,20,3894.36,4172.82,4135.38,4044.1,4061.03,4071.28,4077.44,4098.97,4185.13,4135.9,4216.41,4134.36,4115.38,4060,0
12_9_11,21,3893.33,4180,4138.97,4043.08,4057.95,4073.85,4093.33,4096.92,4189.23,4127.18,4216.41,4136.92,4110.26,4061.03,0
12_9_11,22,3895.9,4184.62,4136.41,4044.62,4052.82,4074.36,4089.23,4094.87,4176.92,4112.82,4209.74,4134.87,4104.1,4055.38,0
12_9_11,23,3894.36,4171.79,4132.82,4037.44,4049.23,4072.82,4096.41,4095.38,4173.33,4102.05,4191.28,4127.69,4092.31,4044.1,0
12_9_11,24,3891.79,4163.08,4135.38,4036.92,4058.46,4081.54,4112.31,4096.92,4193.85,4112.31,4182.05,4130.77,4087.69,4046.15,0
12_9_11,25,3894.36,4170.26,4137.44,4049.74,4066.15,4097.44,4122.05,4095.38,4212.31,4125.13,4184.1,4145.64,4093.85,4060,0
12_9_11,26,3902.56,4179.49,4138.46,4057.44,4060.51,4093.33,4111.79,4094.87,4197.44,4120,4182.56,4153.85,4108.72,4074.36,0
12_9_11,27,3910.77,4185.13,4142.05,4062.05,4058.46,4072.82,4089.23,4096.41,4185.64,4119.49,4182.05,4152.31,4120,4087.18,0
12_9_11,28,3918.97,4190.77,4144.1,4071.28,4061.54,4076.41,4093.33,4097.95,4196.92,4126.67,4189.23,4155.38,4124.1,4100,0
12_9_11,29,3926.67,4194.36,4139.49,4073.33,4061.54,4089.23,4105.13,4100.51,4196.41,4113.85,4188.72,4156.41,4121.54,4104.1,0
12_9_11,30,3927.18,4188.72,4138.46,4070.26,4060,4083.08,4102.56,4095.9,4193.33,4094.87,4174.87,4152.82,4112.31,4101.54,0
12_9_11,31,3924.62,4184.1,4141.03,4075.38,4056.41,4077.95,4105.13,4092.82,4193.33,4085.64,4163.08,4153.85,4095.9,4100.51,0
12_9_11,32,3929.23,4187.69,4140,4086.15,4055.38,4082.05,4102.05,4098.46,4175.38,4066.67,4145.64,4148.72,4078.97,4096.92,0
12_9_11,33,3929.23,4185.13,4137.95,4095.9,4060,4076.92,4084.1,4102.56,4166.15,4046.67,4123.08,4138.97,4070.77,4089.74,0
12_9_11,34,3923.59,4181.54,4139.49,4104.1,4061.03,4073.85,4090.77,4100,4181.03,4049.23,4115.9,4142.56,4065.13,4088.21,0
12_9_11,35,3933.85,4189.74,4142.56,4111.79,4057.44,4077.44,4103.59,4098.46,4191.79,4061.03,4120.51,4151.28,4064.1,4097.44,0
12_9_11,36,3933.33,4180.51,4141.54,4104.62,4048.72,4071.28,4093.85,4098.97,4190.26,4055.38,4112.82,4145.13,4058.97,4093.85,0
12_9_11,37,3913.85,4153.33,4135.38,4091.28,4040,4065.64,4093.33,4097.95,4185.13,4035.9,4094.87,4130.26,4042.56,4077.44,0
12_9_11,38,3911.79,4151.79,4132.82,4095.38,4048.72,4066.67,4091.28,4097.44,4172.82,4030.77,4088.21,4127.69,4034.87,4075.38,0
12_9_11,39,3924.62,4169.23,4135.38,4109.23,4062.56,4066.15,4073.33,4096.92,4164.1,4035.38,4092.82,4135.38,4045.13,4091.79,0
12_9_11,40,3929.23,4172.31,4134.36,4111.79,4057.95,4069.74,4078.97,4097.95,4177.44,4037.44,4096.92,4138.46,4053.85,4104.62,0
12_9_11,41,3934.36,4169.23,4132.31,4109.23,4048.72,4075.9,4096.92,4100,4194.36,4039.49,4098.97,4142.05,4051.79,4103.08,0
12_9_11,42,3947.69,4184.62,4139.49,4117.95,4051.28,4076.92,4091.79,4099.49,4190.26,4040,4107.18,4152.82,4063.08,4108.21,0
12_9_12,43,3969.74,4197.95,4148.72,4129.74,4053.33,4073.33,4085.64,4098.46,4182.05,4036.92,4109.23,4161.03,4074.87,4122.56,0
12_9_12,44,4009.23,4191.28,4146.67,4135.38,4052.82,4073.85,4097.44,4097.95,4182.05,4028.72,4090.77,4158.97,4060,4123.08,0
12_9_12,45,4047.69,4182.05,4140.51,4137.44,4058.97,4076.92,4097.95,4098.46,4173.33,4011.79,4073.85,4152.31,4037.44,4109.23,0
12_9_12,46,4059.49,4185.13,4138.46,4137.44,4065.13,4069.74,4073.33,4097.44,4161.54,4007.69,4071.79,4142.56,4034.87,4101.54,0
12_9_12,47,4061.03,4189.74,4141.03,4142.56,4063.08,4055.9,4055.38,4097.44,4177.95,4031.28,4073.85,4136.92,4042.05,4106.67,0
12_9_12,48,4070.77,4189.23,4141.03,4143.59,4064.62,4051.79,4061.03,4098.97,4193.85,4050.77,4078.97,4142.05,4043.08,4111.28,0
12_9_12,49,4078.46,4192.31,4137.44,4138.97,4075.38,4066.67,4074.36,4098.97,4182.56,4053.33,4084.62,4143.59,4046.67,4113.85,0
12_9_12,50,4076.41,4194.87,4134.87,4136.92,4075.38,4081.03,4085.13,4097.95,4176.92,4049.74,4073.33,4137.44,4050.26,4109.74,0
12_9_12,51,4072.82,4182.56,4136.41,4130.77,4061.54,4082.56,4092.31,4093.33,4187.69,4044.1,4059.49,4142.05,4051.28,4111.28,0
12_9_12,52,4067.69,4169.23,4137.44,4119.49,4055.9,4084.1,4091.79,4089.74,4188.21,4029.74,4054.36,4151.79,4055.38,4124.62,0
12_9_12,53,4051.28,4158.46,4128.21,4114.87,4057.95,4095.38,4093.33,4093.33,4169.74,4002.05,4038.46,4145.13,4054.36,4126.67,0
12_9_12,54,4043.59,4151.28,4125.13,4126.67,4064.1,4096.92,4094.36,4098.97,4161.54,3977.95,4028.21,4140,4049.74,4123.08,0
12_9_12,55,4058.46,4161.03,4130.26,4145.64,4076.92,4074.87,4072.82,4098.97,4166.15,3983.59,4041.03,4153.85,4059.49,4141.54,0
12_9_12,56,4066.15,4169.74,4128.21,4156.41,4073.33,4061.54,4052.82,4098.97,4167.18,4003.08,4046.67,4154.87,4065.13,4157.44,0
12_9_12,57,4061.03,4160.51,4123.59,4155.38,4067.69,4068.72,4067.69,4096.92,4173.33,4015.9,4041.03,4139.49,4055.9,4146.67,0
12_9_12,58,4059.49,4152.31,4126.67,4149.74,4082.05,4072.31,4074.36,4090.77,4175.38,4022.56,4046.67,4135.9,4062.56,4141.03,0
12_9_12,59,4059.49,4153.33,4127.69,4150.26,4081.54,4076.92,4063.08,4090.26,4166.67,4014.87,4054.87,4140,4073.85,4153.85,0
12_9_12,60,4064.62,4155.38,4126.15,4158.97,4054.36,4091.28,4071.79,4091.79,4174.36,4003.59,4054.87,4140,4077.95,4162.56,0
12_9_12,61,4076.41,4156.41,4125.13,4165.13,4043.59,4090.26,4081.03,4088.72,4180,3993.85,4042.05,4141.03,4085.64,4163.59,0
12_9_12,62,4070.26,4152.31,4124.1,4164.1,4043.08,4077.44,4072.82,4089.23,4160.51,3975.38,4022.05,4139.49,4081.54,4162.56,0
12_9_12,63,4056.41,4140,4122.56,4157.95,4024.1,4077.44,4074.36,4092.31,4154.87,3964.62,4020,4135.9,4069.23,4158.97,0
12_9_12,64,4066.67,4135.9,4125.13,4154.87,4014.36,4079.49,4078.97,4091.28,4175.38,3968.72,4031.79,4136.41,4069.74,4159.49,0
12_9_12,65,4080,4139.49,4124.62,4162.05,4022.05,4074.87,4064.62,4091.28,4166.67,3972.31,4032.31,4138.97,4072.82,4169.23,0
12_9_12,66,4075.9,4138.97,4122.05,4172.31,4014.87,4074.87,4052.31,4091.79,4135.9,3978.97,4021.54,4137.44,4067.18,4170.26,0
12_9_12,67,4077.44,4143.08,4121.54,4172.31,3999.49,4077.95,4055.9,4088.72,4137.95,3995.9,4017.95,4131.79,4058.97,4162.05,0
12_9_12,68,4098.46,4158.97,4126.15,4167.69,4003.08,4076.92,4053.33,4089.23,4153.33,4007.18,4031.28,4136.41,4063.59,4171.28,0
12_9_12,69,4120,4167.69,4136.41,4169.23,4003.08,4079.49,4046.15,4089.74,4159.49,4017.44,4048.21,4153.33,4087.18,4192.82,0
12_9_12,70,4124.1,4164.1,4142.56,4168.21,3979.49,4081.03,4034.36,4085.64,4151.28,4017.95,4045.13,4154.87,4115.38,4197.44,0
12_9_12,71,4110.77,4153.85,4136.41,4155.9,3965.13,4075.38,4018.46,4085.64,4137.95,3996.41,4021.03,4133.85,4125.13,4179.49,0
12_9_12,72,4095.9,4134.36,4128.72,4143.08,3968.21,4076.92,4016.92,4091.28,4144.62,3985.64,4005.64,4118.97,4131.28,4167.69,0
12_9_12,73,4097.44,4123.59,4129.23,4145.64,3963.59,4087.18,4023.08,4092.31,4153.33,4000.51,4007.18,4121.03,4151.28,4171.28,0
12_9_12,74,4106.15,4133.85,4128.72,4150.26,3956.92,4094.87,4024.62,4091.28,4141.54,4003.08,4012.82,4121.03,4176.41,4170.77,0
12_9_12,75,4110.77,4140.51,4128.72,4137.95,3964.62,4098.46,4024.1,4092.31,4141.54,4000,4020.51,4120,4196.92,4170.77,0
12_9_12,76,4117.44,4133.85,4129.74,4128.72,3973.85,4107.18,4024.1,4091.28,4160,4018.97,4035.9,4123.08,4206.15,4180.51,0
12_9_12,77,4133.33,4134.36,4130.26,4135.38,3976.92,4113.85,4017.95,4090.26,4148.21,4026.67,4039.49,4124.1,4202.56,4180.51,0
12_9_12,78,4148.21,4138.46,4130.77,4142.56,3974.36,4109.74,4006.67,4091.28,4134.36,4018.97,4034.36,4128.72,4190.26,4169.23,0
12_9_12,79,4157.95,4136.92,4135.9,4136.92,3963.59,4108.72,3998.46,4091.28,4151.79,4030.77,4042.05,4137.95,4182.05,4173.33,0
12_9_12,80,4168.21,4141.03,4136.92,4130.26,3955.9,4108.21,3986.67,4090.77,4160.51,4045.13,4048.72,4141.54,4191.79,4186.67,0
12_9_12,81,4173.85,4142.56,4132.82,4126.67,3956.41,4097.95,3970.77,4092.31,4147.69,4038.46,4040.51,4138.46,4190.26,4186.15,0
12_9_12,82,4177.44,4135.38,4127.18,4123.08,3955.38,4089.74,3966.15,4091.79,4138.97,4027.18,4030.77,4136.92,4170.77,4177.95,0
12_9_12,83,4183.08,4127.18,4124.62,4117.95,3951.79,4093.85,3987.18,4091.79,4147.69,4029.23,4025.64,4135.9,4169.74,4174.87,0
12_9_12,84,4185.64,4125.64,4126.15,4112.31,3950.26,4095.9,4006.67,4094.87,4149.74,4023.59,4016.92,4133.85,4170.26,4169.23,0
12_9_12,85,4182.56,4121.03,4124.62,4107.69,3945.64,4088.72,3997.95,4093.33,4133.85,4002.05,4004.62,4134.36,4148.21,4158.97,0
12_9_12,86,4185.64,4107.69,4121.54,4104.1,3942.05,4086.67,3986.15,4089.74,4128.72,3983.08,4006.67,4141.54,4132.31,4159.49,0
12_9_12,87,4203.08,4110.26,4124.62,4103.08,3944.62,4088.21,3992.82,4091.79,4139.49,3982.56,4027.69,4154.36,4138.46,4172.82,0
12_9_12,88,4221.03,4125.64,4130.26,4106.67,3945.13,4081.54,3993.85,4093.33,4141.54,3986.67,4041.54,4165.64,4144.1,4185.64,0
12_9_12,89,4233.33,4127.69,4132.82,4108.72,3945.64,4074.87,3973.85,4094.36,4135.9,3986.67,4033.85,4171.79,4142.05,4194.36,0
12_9_12,90,4243.59,4119.49,4133.85,4098.46,3948.72,4086.15,3956.92,4095.9,4134.36,3990.77,4027.69,4171.79,4137.95,4196.41,0
12_9_12,91,4249.74,4113.85,4134.36,4091.28,3935.9,4097.44,3956.92,4093.85,4126.67,3985.64,4026.67,4164.1,4125.13,4190.26,0
12_9_12,92,4254.36,4113.85,4131.28,4105.13,3913.85,4085.64,3956.41,4093.33,4117.44,3971.79,4013.33,4154.36,4112.31,4184.1,0
12_9_12,93,4261.54,4108.72,4125.13,4111.79,3912.82,4070.26,3953.85,4096.41,4126.67,3968.21,4006.15,4154.36,4110.26,4185.64,0
12_9_12,94,4262.56,4092.82,4120.51,4095.38,3906.67,4070.77,3958.46,4095.38,4134.87,3951.79,4003.08,4155.9,4101.03,4185.64,0
12_9_12,95,4264.62,4086.15,4120.51,4085.64,3883.59,4075.38,3954.36,4090.26,4116.92,3913.33,3994.87,4147.18,4090.26,4183.59,0
12_9_12,96,4280,4096.92,4123.08,4092.31,3874.87,4090.77,3961.03,4090.26,4102.56,3892.82,3999.49,4146.15,4095.38,4188.21,0
12_9_12,97,4291.79,4095.9,4119.49,4093.85,3870.26,4110.26,3995.38,4095.9,4108.21,3887.69,4001.54,4148.72,4095.38,4186.67,0
12_9_12,98,4298.46,4084.62,4114.36,4089.23,3847.18,4106.67,4019.49,4098.46,4107.69,3852.82,3986.67,4138.46,4075.38,4179.49,0
12_9_12,99,4319.49,4089.74,4114.87,4091.28,3824.62,4109.23,4018.46,4097.95,4106.15,3817.44,3995.9,4143.59,4070.77,4192.82,0
12_9_12,100,4345.64,4091.79,4117.95,4096.41,3809.23,4132.82,4017.44,4097.95,4106.67,3809.74,4021.03,4168.21,4080,4216.92,0
12_9_12,101,4356.41,4078.97,4116.41,4093.85,3781.54,4147.18,4020.51,4098.46,4082.05,3795.38,4001.54,4162.05,4067.18,4210.26,0
12_9_12,102,4355.38,4074.87,4114.87,4088.72,3767.18,4153.33,4023.08,4095.9,4059.49,3774.87,3966.67,4134.87,4043.59,4192.82,0
12_9_12,103,4363.59,4074.87,4114.87,4083.08,3772.31,4164.1,4032.31,4094.87,4068.72,3781.54,3970.77,4136.92,4038.97,4198.97,0
12_9_12,104,4376.41,4065.13,4113.85,4074.87,3765.13,4176.41,4045.64,4097.95,4054.87,3790.26,3974.87,4144.62,4043.59,4205.13,0
12_9_12,105,4381.54,4054.87,4112.31,4076.92,3814.36,4193.33,4064.62,4098.46,4029.23,3791.28,3967.18,4135.9,4038.97,4197.95,0
12_9_12,106,4391.28,4055.9,4111.79,4093.33,3953.85,4206.67,4078.46,4097.95,4044.1,3808.21,3979.49,4135.9,4038.97,4203.08,0
12_9_12,107,4407.18,4050.77,4109.74,4095.38,4052.82,4198.46,4073.85,4098.46,4051.28,3816.92,3987.18,4137.44,4044.62,4212.82,0
12_9_12,108,4410.77,4029.74,4101.54,4073.33,4032.82,4200,4089.23,4099.49,4025.13,3811.28,3964.62,4126.15,4032.82,4203.08,0
12_9_12,109,4413.85,4017.44,4096.92,4061.03,4011.79,4216.92,4113.85,4099.49,4011.79,3823.08,3948.72,4118.97,4014.36,4193.85,0
12_9_12,110,4444.62,4026.15,4100.51,4076.41,4032.31,4211.79,4102.56,4098.46,4005.64,3837.44,3957.44,4118.46,4011.79,4203.59,0
12_9_12,111,4491.79,4042.05,4107.69,4091.79,3998.97,4204.62,4090.77,4098.46,3994.87,3837.44,3962.05,4117.44,4015.9,4218.97,0
12_9_12,112,4518.46,4048.21,4107.69,4079.49,3945.64,4222.56,4109.23,4097.95,4009.23,3851.79,3960,4122.56,4009.23,4228.21,0
12_9_12,113,4516.92,4034.36,4101.54,4067.18,3880.51,4234.36,4109.74,4096.92,4022.05,3869.74,3956.41,4121.54,3996.41,4227.69,0
12_9_12,114,4514.36,4019.49,4097.44,4093.85,3734.36,4222.05,4087.69,4097.44,4007.69,3869.23,3951.28,4107.18,3990.77,4222.05,0
12_9_12,115,4530.26,4022.56,4103.08,4127.69,3582.05,4222.56,4094.36,4097.95,4002.56,3880.51,3949.74,4101.54,3990.26,4226.15,0
12_9_12,116,4550.77,4030.26,4109.74,4134.36,3534.87,4246.67,4111.28,4097.44,4006.15,3903.59,3951.79,4112.31,3983.08,4244.62,0
12_9_12,117,4555.9,4026.67,4108.21,4123.08,3535.9,4260.51,4109.23,4099.49,3982.05,3893.33,3942.56,4110.77,3974.36,4247.69,0
12_9_12,118,4551.28,4020,4102.56,4109.23,3515.38,4260,4106.67,4102.05,3954.36,3860,3923.59,4090.77,3965.13,4229.23,0
