TIME, ED_COUNTER, AF3, F7, F3, FC5, T7, P7, O1, O2, P8, T8, FC6, F4, F8, AF4, LABEL
19_54_30,72,4117.95,4107.69,4132.82,4114.36,4109.74,4101.03,4106.15,4706.15,4097.95,4078.46,4099.49,4129.74,4091.28,4149.23,0
19_54_30,73,4122.56,4110.77,4134.87,4126.15,4124.1,4124.1,4116.41,4707.69,4105.64,4087.18,4107.69,4129.74,4096.41,4151.79,0
19_54_30,74,4092.31,4091.28,4113.85,4108.21,4104.62,4107.69,4104.1,4690.77,4090.26,4065.13,4080,4109.74,4067.69,4123.59,0
19_54_30,75,4068.21,4072.82,4093.85,4088.72,4084.1,4090.26,4096.41,4675.38,4086.15,4053.33,4062.56,4094.36,4047.69,4103.08,0
19_54_30,76,4078.46,4082.05,4097.44,4100,4091.79,4103.08,4107.18,4677.44,4101.54,4072.82,4082.56,4095.38,4065.13,4114.36,0
19_54_30,77,4078.46,4092.31,4091.79,4104.1,4092.82,4096.41,4106.67,4668.21,4099.49,4076.92,4084.62,4086.67,4074.87,4117.44,0
19_54_30,78,4073.85,4097.44,4075.9,4094.36,4091.28,4090.26,4107.18,4662.56,4102.05,4075.38,4080,4069.74,4074.36,4113.33,0
19_54_30,79,4088.21,4113.85,4083.08,4101.03,4106.67,4123.08,4122.05,4670.77,4113.33,4088.72,4091.28,4071.79,4085.64,4124.1,0
19_54_30,80,4086.15,4122.56,4085.13,4114.87,4120,4134.87,4126.67,4662.05,4108.21,4091.28,4094.36,4069.23,4089.74,4127.18,0
19_54_30,81,4076.41,4114.36,4084.62,4121.03,4123.08,4117.95,4123.59,4648.72,4113.33,4087.18,4093.33,4069.23,4084.62,4125.64,0
19_54_30,82,4083.08,4110.77,4090.26,4119.49,4124.62,4129.23,4125.64,4648.72,4123.08,4094.36,4096.41,4075.9,4082.05,4131.28,0
19_54_30,83,4081.54,4096.92,4094.87,4104.1,4105.13,4126.15,4121.54,4639.49,4102.56,4082.05,4077.95,4083.08,4071.79,4121.54,0
19_54_30,84,4067.69,4077.44,4081.54,4087.69,4083.59,4101.54,4114.36,4624.62,4091.79,4066.67,4062.56,4074.87,4062.05,4100.51,0
19_54_30,85,4070.77,4080,4078.97,4093.33,4093.85,4112.31,4120,4618.46,4105.64,4073.85,4072.82,4074.36,4061.03,4096.41,0
19_54_30,86,4076.41,4081.54,4077.95,4100,4108.21,4139.49,4122.05,4612.31,4106.15,4081.03,4076.41,4066.15,4062.56,4097.95,0
19_54_30,87,4075.38,4068.72,4078.46,4090.77,4095.38,4132.31,4114.36,4600,4097.44,4081.03,4068.21,4066.15,4063.08,4093.33,0
19_54_30,88,4085.13,4083.08,4081.03,4089.74,4094.36,4116.41,4112.82,4591.28,4108.21,4094.87,4086.15,4072.31,4074.87,4099.49,0
19_54_30,89,4102.56,4113.33,4089.74,4103.59,4113.33,4121.54,4117.95,4589.74,4122.05,4110.77,4117.44,4081.03,4101.03,4117.44,0
19_54_30,90,4108.72,4120,4095.9,4113.85,4118.97,4136.41,4128.21,4590.77,4129.74,4114.36,4127.18,4083.08,4122.56,4132.31,0
19_54_30,91,4106.15,4107.18,4097.95,4118.97,4112.31,4146.67,4135.38,4585.13,4132.31,4113.33,4115.38,4083.59,4113.33,4134.87,0
19_54_30,92,4103.08,4096.92,4092.31,4125.64,4111.79,4138.46,4126.15,4568.72,4126.67,4105.64,4107.18,4076.41,4096.41,4125.13,0
19_54_30,93,4099.49,4091.79,4086.15,4120,4108.21,4122.56,4116.92,4555.9,4123.08,4098.46,4102.56,4066.15,4099.49,4115.38,0
19_54_30,94,4098.46,4103.08,4085.13,4108.72,4103.59,4128.72,4128.21,4553.33,4121.54,4103.08,4098.46,4067.69,4104.62,4116.41,0
19_54_30,95,4099.49,4110.26,4083.08,4108.72,4104.1,4138.46,4144.1,4549.23,4121.03,4106.67,4097.95,4068.72,4107.18,4117.95,0
19_54_30,96,4093.33,4099.49,4077.95,4111.28,4106.15,4125.13,4134.36,4533.85,4118.97,4097.44,4093.33,4060.51,4105.64,4109.74,0
19_54_30,97,4090.77,4105.13,4076.41,4116.92,4114.87,4123.08,4119.49,4521.03,4113.85,4095.9,4086.67,4054.36,4095.9,4107.18,0
19_54_30,98,4096.92,4113.33,4082.56,4120.51,4118.97,4139.49,4122.05,4522.05,4116.92,4100.51,4083.59,4065.64,4088.72,4115.38,0
19_54_30,99,4088.72,4097.44,4078.46,4112.31,4104.1,4131.28,4126.67,4514.36,4123.08,4096.41,4084.1,4066.67,4096.41,4113.85,0
19_54_30,100,4077.95,4090.77,4078.97,4104.62,4090.77,4120,4121.54,4505.64,4121.54,4097.95,4091.79,4066.67,4108.21,4110.77,0
19_54_30,101,4083.08,4106.15,4078.97,4102.56,4098.97,4131.28,4123.08,4504.62,4122.56,4108.21,4103.08,4064.1,4106.67,4111.79,0
19_54_30,102,4101.03,4115.9,4085.64,4110.26,4116.92,4135.9,4141.03,4510.26,4136.92,4118.97,4109.23,4070.77,4107.69,4120.51,0
19_54_30,103,4102.05,4114.36,4083.08,4118.46,4118.97,4138.46,4141.03,4509.23,4142.56,4127.18,4109.23,4066.67,4119.49,4122.56,0
19_54_31,104,4089.23,4103.08,4079.49,4118.46,4111.79,4141.03,4126.15,4496.41,4131.79,4122.56,4104.1,4064.62,4116.41,4113.85,0
19_54_31,105,4086.15,4095.38,4076.92,4116.92,4110.26,4130.26,4127.18,4483.08,4121.54,4111.79,4103.59,4063.08,4100.51,4111.28,0
19_54_31,106,4081.54,4085.13,4072.82,4108.72,4094.36,4111.28,4122.56,4463.59,4095.38,4088.72,4096.92,4058.97,4086.15,4103.08,0
19_54_31,107,4067.18,4069.23,4060.51,4093.33,4074.36,4104.1,4106.67,4446.15,4082.56,4071.79,4077.44,4046.67,4078.97,4083.08,0
19_54_31,108,4076.41,4080.51,4069.23,4097.95,4087.69,4123.08,4116.92,4449.74,4109.23,4090.26,4084.62,4054.87,4089.23,4086.15,0
19_54_31,109,4097.95,4097.95,4083.59,4118.46,4109.74,4149.23,4136.41,4461.03,4132.82,4114.36,4118.46,4067.69,4106.67,4104.1,0
19_54_31,110,4081.54,4071.79,4073.33,4101.03,4087.18,4125.64,4118.46,4440.51,4110.26,4097.44,4110.26,4060.51,4087.69,4087.18,0
19_54_31,111,4057.44,4059.49,4062.56,4078.46,4066.15,4084.62,4102.05,4417.44,4088.72,4081.54,4076.92,4054.36,4069.74,4069.74,0
19_54_31,112,4079.49,4097.95,4080,4102.56,4089.74,4100.51,4121.54,4430.77,4107.18,4103.59,4090.77,4069.23,4102.56,4090.77,0
19_54_31,113,4110.26,4108.72,4095.38,4128.72,4109.74,4127.18,4138.97,4442.56,4125.13,4120.51,4122.56,4084.1,4132.82,4110.26,0
19_54_31,114,4115.38,4092.31,4095.9,4128.72,4110.77,4130.77,4139.49,4435.9,4131.79,4129.23,4128.21,4086.15,4129.74,4114.87,0
19_54_31,115,4107.69,4098.46,4091.79,4117.95,4113.85,4132.31,4136.92,4426.67,4132.82,4130.26,4120.51,4083.08,4124.62,4112.31,0
19_54_31,116,4104.1,4125.13,4085.13,4113.33,4111.28,4136.41,4140.51,4418.97,4129.23,4120,4119.49,4075.9,4126.15,4103.59,0
19_54_31,117,4088.72,4108.72,4080,4103.08,4085.13,4117.44,4135.9,4399.49,4110.26,4100.51,4100.51,4070.77,4100.51,4085.64,0
19_54_31,118,4055.9,4047.69,4061.03,4091.28,4060,4085.13,4120,4377.95,4090.77,4080.51,4066.15,4054.36,4064.62,4065.13,0
19_54_31,119,4047.18,4046.15,4053.85,4093.33,4066.67,4077.44,4117.44,4374.87,4098.46,4083.59,4057.44,4053.85,4069.74,4062.56,0
19_54_31,120,4066.67,4104.62,4064.62,4096.92,4084.1,4099.49,4129.23,4382.05,4114.36,4104.62,4075.9,4062.56,4092.82,4074.87,0
19_54_31,121,4086.15,4114.36,4083.59,4102.05,4088.72,4114.87,4131.28,4386.67,4113.33,4111.28,4099.49,4079.49,4101.03,4089.74,0
19_54_31,122,4090.26,4074.36,4083.59,4110.26,4081.54,4104.1,4121.03,4383.08,4105.64,4105.64,4114.36,4081.54,4103.08,4097.44,0
19_54_31,123,4092.82,4065.13,4083.08,4114.36,4074.87,4088.72,4118.97,4375.38,4115.38,4112.31,4117.95,4081.03,4107.18,4102.05,0
19_54_31,124,4104.1,4096.92,4089.74,4120,4086.15,4092.31,4127.69,4372.82,4127.18,4121.03,4124.1,4083.08,4115.9,4108.21,0
19_54_31,125,4107.69,4118.46,4097.44,4120.51,4090.26,4095.9,4123.59,4371.79,4117.95,4107.69,4132.82,4090.26,4118.97,4109.74,0
19_54_31,126,4097.44,4104.1,4093.33,4104.1,4077.95,4089.23,4113.85,4361.54,4115.38,4107.69,4133.33,4088.21,4111.28,4104.1,0
19_54_31,127,4097.44,4076.41,4092.82,4097.44,4075.38,4085.64,4115.9,4343.08,4118.97,4121.54,4122.56,4084.1,4099.49,4100.51,0
19_54_31,128,4101.03,4080.51,4091.28,4109.23,4077.95,4087.18,4113.85,4329.23,4097.95,4107.69,4106.67,4078.97,4097.44,4097.44,0
19_54_31,0,4092.82,4091.28,4084.62,4103.08,4060.51,4085.13,4106.15,4322.56,4074.87,4077.44,4093.85,4074.36,4091.79,4088.72,0
19_54_31,1,4085.64,4089.23,4080.51,4085.64,4058.46,4091.28,4112.82,4325.64,4092.82,4088.21,4096.92,4074.87,4080,4083.08,0
19_54_31,2,4074.36,4084.1,4073.85,4082.05,4074.87,4091.79,4113.85,4322.05,4109.74,4102.05,4092.82,4071.28,4077.95,4073.33,0
19_54_31,3,4053.85,4066.67,4062.05,4078.46,4060,4065.13,4096.41,4300,4081.54,4072.31,4069.23,4060,4070.77,4054.36,0
19_54_31,4,4062.05,4078.97,4068.21,4085.64,4058.46,4075.38,4105.13,4300.51,4072.31,4072.82,4082.56,4062.05,4069.23,4064.62,0
19_54_31,5,4105.13,4128.21,4098.46,4115.9,4102.56,4134.36,4142.05,4331.79,4120.51,4129.23,4130.77,4089.23,4102.56,4106.67,0
19_54_31,6,4110.26,4115.9,4093.85,4118.97,4102.56,4123.08,4143.59,4324.1,4128.72,4130.77,4118.46,4084.62,4118.46,4105.13,0
19_54_32,54,3897.44,4223.08,4137.95,4106.67,3894.36,3892.82,4218.97,4000,4309.74,4124.1,5310.26,4132.82,4216.92,4271.79,0
19_54_32,55,3895.9,4219.49,4140.51,4108.21,3904.62,3898.97,4228.21,4007.18,4306.15,4118.46,5266.15,4136.41,4211.28,4272.31,0
19_54_32,56,3898.97,4219.49,4141.03,4108.72,3909.23,3897.44,4232.31,4011.79,4320.51,4124.1,5240,4147.18,4212.31,4277.44,0
19_54_32,57,3907.18,4220.51,4149.74,4113.33,3915.9,3911.79,4234.36,4017.44,4332.31,4143.08,5202.05,4155.9,4216.92,4289.23,0
19_54_32,58,3902.05,4206.67,4147.69,4106.15,3910.26,3909.23,4235.9,4020,4315.38,4138.46,5122.05,4153.33,4220,4288.21,0
19_54_32,59,3895.38,4208.21,4133.85,4102.56,3902.56,3892.31,4234.87,4018.46,4311.79,4124.62,5065.13,4145.13,4233.85,4282.05,0
19_54_32,60,3910.77,4232.31,4140.51,4120.51,3922.56,3908.72,4235.38,4019.49,4334.36,4135.38,5053.85,4151.79,4251.28,4294.87,0
19_54_32,61,3923.59,4246.67,4146.15,4125.64,3937.44,3920.51,4236.92,4021.03,4338.97,4148.21,5023.08,4154.36,4248.21,4304.62,0
19_54_32,62,3920,4255.9,4144.1,4116.92,3928.72,3896.41,4236.41,4024.62,4324.1,4150.26,4966.67,4159.49,4248.72,4302.56,0
19_54_32,63,3913.33,4265.64,4141.03,4114.87,3925.64,3885.64,4230.77,4025.13,4322.56,4153.85,4920.51,4156.92,4267.69,4304.1,0
19_54_32,64,3898.46,4247.69,4139.49,4106.15,3918.46,3877.95,4218.97,4009.74,4315.9,4144.1,4867.69,4150.77,4266.15,4297.44,0
19_54_32,65,3889.74,4238.46,4133.33,4102.56,3913.33,3856.92,4214.87,3998.97,4305.13,4137.95,4814.87,4144.62,4253.85,4290.26,0
19_54_32,66,3905.13,4263.59,4145.13,4118.46,3932.31,3875.9,4229.74,4013.33,4317.44,4151.28,4789.74,4155.9,4262.05,4303.08,0
19_54_32,67,3922.56,4281.03,4154.87,4131.79,3954.87,3915.38,4249.74,4031.79,4338.97,4162.05,4769.74,4163.59,4274.36,4320.51,0
19_54_32,68,3939.49,4287.69,4164.62,4144.1,3971.28,3928.21,4263.08,4040,4351.28,4173.85,4753.85,4176.41,4285.13,4334.36,0
19_54_32,69,3945.64,4285.13,4164.62,4160.51,3979.49,3931.28,4258.46,4039.49,4346.67,4184.62,4728.72,4172.82,4291.28,4338.46,0
19_54_32,70,3916.41,4254.36,4143.59,4143.59,3946.67,3902.05,4229.23,4013.33,4309.74,4155.38,4657.44,4144.1,4252.82,4307.18,0
19_54_32,89,3924.62,4213.33,4116.92,4105.64,3975.9,3900,4221.03,4024.1,4293.85,4156.92,4137.44,4131.79,4233.33,4283.08,0
19_54_32,90,3911.28,4206.15,4097.95,4098.97,3982.56,3893.33,4213.33,4021.54,4299.49,4162.56,4115.38,4113.85,4245.64,4275.38,0
19_54_32,91,3907.18,4221.03,4083.08,4104.1,3994.36,3886.67,4214.87,4018.97,4296.92,4161.03,4103.59,4097.95,4238.46,4270.77,0
19_54_32,92,3909.23,4229.74,4074.87,4102.56,3998.46,3888.72,4207.69,4014.36,4278.97,4157.95,4085.13,4090.26,4218.46,4264.1,0
19_54_32,93,3894.36,4210.26,4056.41,4089.74,3987.69,3886.15,4193.85,4002.56,4255.9,4149.23,4050.26,4061.03,4207.18,4248.72,0
19_54_32,94,3896.92,4183.08,4097.44,4090.26,3968.72,3867.18,4189.23,3987.69,4228.21,4124.1,4013.85,4100,4185.64,4241.03,0
19_54_32,95,3900,4161.03,4095.38,4087.69,3965.64,3860.51,4181.03,3982.05,4205.64,4105.13,3997.95,4106.15,4148.21,4230.26,0
19_54_33,96,3877.44,4154.36,3998.46,4060.51,3978.97,3872.31,4161.03,3983.59,4206.67,4110.77,3989.23,3974.87,4139.49,4205.13,0
19_54_33,97,3896.41,4147.69,4088.72,4045.13,3957.44,3847.18,4152.82,3976.41,4187.18,4088.21,3936.92,4071.79,4132.31,4205.64,0
19_54_33,98,3923.59,4148.72,4150.26,4054.87,3952.31,3835.38,4161.03,3979.49,4175.9,4080,3897.44,4166.67,4129.74,4212.31,0
19_54_33,99,3923.59,4163.59,4077.95,4074.87,3980,3857.44,4171.79,4001.03,4191.28,4109.23,3901.54,4093.33,4140,4209.23,0
19_54_33,100,3919.49,4189.23,4029.74,4090.26,4001.03,3881.54,4176.92,4011.28,4208.72,4129.74,3907.18,4024.62,4163.08,4206.15,0
19_54_33,101,3937.95,4184.1,4106.67,4090.77,3987.18,3868.72,4178.97,4003.59,4196.92,4107.69,3883.59,4116.92,4156.92,4214.87,0
19_54_33,102,3925.64,4161.03,4082.56,4075.9,3975.9,3850.26,4168.21,3996.41,4186.67,4099.49,3863.59,4095.9,4130.77,4202.05,0
19_54_33,103,3906.15,4139.49,4056.41,4061.03,3957.44,3826.15,4150.77,3980.51,4164.62,4092.31,3832.82,4057.95,4107.69,4178.46,0
19_54_33,104,3907.18,4138.97,4087.18,4056.41,3943.59,3813.33,4146.67,3967.69,4144.1,4070.77,3796.41,4097.44,4107.69,4172.31,0
19_54_33,105,3915.9,4156.92,4085.13,4061.03,3958.46,3830.26,4158.97,3979.49,4159.49,4081.03,3793.33,4089.74,4129.74,4177.95,0
19_54_33,106,3938.46,4163.08,4115.38,4076.41,3974.87,3843.08,4176.41,3999.49,4177.95,4103.08,3809.23,4120.51,4140,4195.38,0
19_54_33,107,3954.36,4163.59,4130.26,4095.9,3987.69,3861.03,4181.54,4008.21,4189.23,4113.85,3818.46,4135.9,4143.59,4210.26,0
19_54_33,108,3947.18,4150.77,4126.15,4093.33,3981.54,3858.46,4166.15,3994.36,4181.54,4100,3781.54,4126.67,4129.23,4199.49,0
19_54_33,109,3923.08,4140,4112.82,4075.38,3963.59,3820,4145.64,3973.33,4155.38,4077.44,3733.33,4114.36,4110.26,4171.79,0
19_54_33,110,3914.87,4152.31,4107.18,4073.85,3961.54,3802.56,4142.05,3973.33,4143.08,4074.87,3730.26,4113.33,4112.82,4165.64,0
19_54_33,111,3934.87,4161.03,4124.1,4086.67,3975.9,3824.62,4154.36,3988.21,4157.95,4095.9,3736.92,4133.85,4125.64,4184.1,0
19_54_33,112,3961.54,4159.49,4133.33,4100,3995.38,3847.18,4168.72,4000,4181.54,4122.56,3730.77,4143.59,4154.87,4201.54,0
19_54_33,113,3975.9,4172.82,4142.05,4107.69,4001.54,3853.85,4175.9,4003.08,4185.13,4128.72,3733.85,4150.26,4177.44,4208.72,0
19_54_33,114,3966.67,4180.51,4137.44,4098.97,3987.69,3852.31,4170.26,3996.92,4171.28,4118.97,3724.1,4141.54,4162.05,4197.44,0
19_54_33,115,3955.38,4163.59,4128.72,4083.59,3970.77,3838.46,4160,3989.23,4164.62,4104.62,3687.69,4135.38,4138.97,4180.51,0
19_54_33,116,3956.41,4148.72,4129.23,4085.13,3972.31,3834.36,4159.49,3987.18,4171.79,4094.87,3668.72,4138.46,4134.36,4178.46,0
19_54_33,117,3958.97,4145.13,4137.44,4088.72,3981.03,3844.1,4164.62,3987.18,4166.15,4098.46,3657.95,4145.64,4125.13,4181.03,0
19_54_33,118,3962.56,4137.44,4140.51,4081.03,3981.03,3837.95,4161.54,3985.64,4157.95,4106.15,3641.54,4149.23,4122.05,4175.9,0
19_54_33,119,3976.41,4128.72,4152.31,4087.18,3980.51,3823.08,4160,3985.64,4161.03,4103.59,3641.54,4158.97,4139.49,4175.38,0
19_54_33,120,3991.79,4146.15,4174.87,4102.05,3986.67,3831.79,4169.23,3987.69,4162.05,4105.13,3636.92,4177.44,4145.64,4183.59,0
19_54_33,121,3998.46,4167.18,4197.44,4098.97,3984.1,3842.05,4170.26,3986.67,4153.85,4106.15,3616.41,4200,4135.38,4190.77,0
19_54_33,122,3997.95,4156.41,4225.13,4090.77,3971.28,3823.08,4156.92,3978.97,4136.92,4085.64,3595.38,4225.13,4126.15,4191.28,0
19_54_33,123,3998.46,4144.62,4245.64,4102.05,3970.26,3814.87,4149.74,3973.33,4129.23,4075.38,3587.18,4242.05,4122.56,4188.21,0
19_54_33,124,4002.56,4140,4250.77,4107.18,3969.74,3824.1,4151.28,3970.26,4124.62,4080,3578.97,4255.38,4113.33,4184.62,0
19_54_33,125,3999.49,4122.05,4241.54,4086.15,3962.56,3814.87,4146.15,3962.56,4121.54,4074.87,3566.67,4251.28,4101.54,4177.44,0
19_54_33,126,3994.87,4116.41,4235.9,4076.41,3962.56,3798.97,4140.51,3960.51,4124.62,4076.92,3562.05,4249.74,4101.54,4174.36,0
19_54_33,127,3997.95,4144.1,4226.15,4087.69,3972.31,3807.18,4143.59,3970.26,4128.21,4091.28,3565.64,4242.56,4125.64,4175.9,0
19_54_33,128,4006.67,4159.49,4222.05,4095.9,3980,3822.05,4143.59,3974.36,4120.51,4089.23,3562.05,4239.49,4140.51,4179.49,0
19_54_33,0,4012.31,4149.23,4225.64,4097.95,3985.64,3825.64,4137.95,3971.28,4115.9,4080,3555.9,4240,4126.67,4182.05,0
19_54_33,1,4012.82,4138.46,4231.79,4094.87,3985.64,3822.56,4140,3972.82,4121.54,4080,3558.97,4250.26,4115.9,4182.56,0
19_54_33,2,4001.54,4139.49,4204.62,4082.56,3980,3824.62,4141.54,3974.36,4118.46,4081.54,3548.72,4230.77,4122.05,4177.44,0
19_54_33,3,3987.69,4151.28,4165.64,4075.38,3983.59,3830.26,4136.41,3972.82,4113.85,4083.08,3529.74,4195.38,4127.69,4171.79,0
19_54_33,4,3993.85,4164.1,4147.69,4089.23,4010.77,3842.05,4144.1,3980,4128.21,4096.92,3533.85,4172.82,4141.03,4173.85,0
19_54_33,5,4006.15,4160,4147.18,4102.05,4029.23,3858.97,4160,3992.82,4146.67,4110.26,3546.67,4169.23,4152.31,4180,0
19_54_33,6,3996.92,4143.59,4135.9,4089.23,4018.46,3864.1,4156.92,3993.33,4149.23,4111.28,3545.13,4163.08,4137.95,4171.79,0
19_54_33,7,3986.15,4149.74,4130.77,4073.33,4010.26,3858.46,4149.74,3989.23,4142.05,4104.62,3527.69,4157.44,4128.72,4163.08,0
19_54_33,8,3996.41,4173.85,4140,4082.05,4028.21,3875.9,4160.51,3998.97,4146.67,4110.77,3516.41,4162.05,4149.23,4173.33,0
19_54_33,9,4000.51,4160.51,4137.44,4089.74,4030.77,3883.59,4157.44,3997.44,4141.54,4110.26,3509.23,4158.97,4152.82,4173.33,0
19_54_33,10,3985.13,4124.62,4120,4080.51,4005.13,3843.59,4131.28,3974.87,4122.56,4093.33,3491.79,4141.54,4135.9,4146.67,0
19_54_33,11,3982.05,4120.51,4115.38,4081.54,3997.44,3829.23,4132.31,3973.33,4125.13,4088.72,3482.56,4134.87,4125.13,4140.51,0
19_54_33,12,3995.38,4138.46,4125.13,4091.79,4010.77,3863.59,4155.9,3991.28,4136.92,4097.44,3484.1,4147.18,4120,4158.97,0
19_54_33,13,3996.92,4146.15,4122.56,4092.31,4018.46,3874.36,4158.46,3992.31,4131.79,4101.03,3480,4141.54,4130.77,4162.56,0
19_54_33,14,3991.28,4136.41,4117.95,4085.64,4015.9,3861.54,4149.23,3983.08,4122.05,4097.95,3470.77,4132.82,4144.62,4156.92,0
19_54_33,15,3984.62,4116.92,4115.38,4080,4007.18,3861.54,4148.21,3982.56,4121.54,4095.38,3468.21,4128.21,4132.82,4152.31,0
19_54_33,16,3971.28,4121.54,4110.77,4071.79,3995.9,3848.21,4143.59,3977.95,4116.41,4088.72,3461.54,4124.62,4112.31,4142.05,0
19_54_33,17,3973.33,4160.51,4108.72,4073.85,4010.77,3852.31,4145.64,3984.1,4131.28,4103.59,3464.1,4123.08,4133.85,4148.72,0
19_54_33,18,4004.62,4166.15,4126.15,4093.85,4042.56,3899.49,4162.56,4008.72,4166.67,4144.62,3484.62,4140.51,4181.54,4172.82,0
19_54_33,19,4000.51,4129.74,4113.85,4088.21,4033.33,3892.31,4156.92,3999.49,4156.92,4135.38,3473.33,4128.21,4171.28,4160,0
19_54_33,20,3967.18,4121.03,4089.74,4063.08,4005.64,3834.87,4138.97,3971.79,4119.49,4080.51,3435.9,4105.13,4125.64,4129.74,0
19_54_33,21,3981.03,4149.74,4095.9,4074.87,4025.64,3851.28,4148.21,3984.62,4128.21,4087.69,3440.51,4109.23,4137.44,4143.08,0
19_54_33,22,4016.41,4157.44,4121.54,4101.54,4052.82,3895.38,4162.05,4006.15,4150.77,4137.44,3462.05,4130.26,4173.33,4169.23,0
19_54_33,23,4011.79,4144.62,4116.41,4096.92,4043.59,3882.56,4151.28,3995.9,4146.67,4134.87,3456.92,4122.05,4169.23,4164.1,0
19_54_33,24,4002.56,4139.49,4102.56,4082.05,4036.92,3874.87,4149.23,3987.69,4145.13,4111.28,3448.72,4110.26,4151.28,4151.28,0
19_54_33,25,4010.77,4143.08,4101.03,4083.08,4050.26,3904.1,4166.15,3990.26,4147.69,4117.95,3442.56,4111.79,4142.05,4148.72,0
19_54_33,26,4012.82,4153.85,4103.08,4086.15,4054.36,3907.69,4167.18,3987.18,4138.46,4119.49,3427.18,4111.28,4136.41,4150.26,0
19_54_33,27,4009.74,4155.38,4098.97,4082.05,4050.26,3886.67,4158.46,3993.33,4141.54,4115.9,3431.79,4105.13,4148.72,4153.33,0
19_54_33,28,4000.51,4145.64,4087.69,4073.33,4051.79,3883.59,4155.38,3994.87,4144.62,4123.59,3435.9,4098.46,4158.97,4147.18,0
19_54_33,29,3985.64,4136.92,4078.97,4067.69,4051.28,3888.72,4158.97,3984.62,4133.33,4126.15,3409.23,4094.36,4144.62,4131.28,0
19_54_33,30,3988.72,4135.9,4078.97,4070.77,4050.77,3887.18,4165.64,3989.23,4137.44,4122.56,3397.44,4090.26,4132.82,4127.69,0
19_54_33,31,4003.59,4146.15,4089.74,4076.92,4054.87,3885.13,4169.23,4003.59,4154.87,4123.59,3410.77,4093.85,4137.44,4138.46,0
19_54_33,32,4003.08,4147.18,4089.23,4073.33,4058.46,3889.74,4162.05,3998.46,4152.31,4125.64,3407.69,4089.74,4149.74,4139.49,0
19_54_33,33,4002.05,4129.23,4089.74,4076.92,4071.28,3903.08,4161.03,3988.21,4140.51,4125.64,3401.54,4090.26,4161.54,4139.49,0
19_54_33,34,4011.79,4130.77,4093.85,4092.82,4087.69,3920.51,4172.82,3993.85,4147.18,4132.31,3418.97,4090.26,4162.05,4146.67,0
19_54_33,35,4003.08,4146.15,4087.69,4083.08,4072.31,3911.79,4162.56,3990.77,4142.56,4126.67,3413.85,4085.13,4139.49,4138.97,0
19_54_33,36,3980.51,4143.59,4061.54,4055.38,4048.72,3887.69,4144.62,3980.51,4128.21,4113.33,3381.03,4062.56,4125.64,4118.46,0
19_54_33,37,3988.21,4143.08,4058.97,4073.33,4063.59,3902.05,4158.97,3993.85,4140.51,4123.59,3384.62,4060.51,4147.69,4125.13,0
19_54_33,38,4007.69,4152.31,4066.15,4106.15,4093.33,3935.38,4173.85,4012.82,4164.1,4147.69,3413.85,4065.13,4167.69,4144.62,0
19_54_33,39,4006.15,4155.9,4049.74,4090.26,4093.85,3937.44,4166.67,4011.79,4173.33,4155.9,3413.33,4050.26,4165.64,4143.08,0
19_54_33,40,3994.36,4162.56,4018.46,4063.59,4087.18,3928.72,4162.56,4009.74,4177.95,4160.51,3411.28,4016.92,4175.9,4132.82,0
19_54_33,41,3992.31,4163.08,4029.74,4070.26,4085.64,3927.69,4163.08,4009.74,4170.26,4158.97,3413.33,4019.49,4183.08,4131.28,0
19_54_33,42,4001.54,4146.15,4070.77,4086.15,4082.05,3922.56,4159.49,3996.41,4154.36,4142.05,3395.9,4054.87,4169.74,4135.9,0
19_54_33,43,4014.36,4137.95,4087.69,4093.33,4081.03,3915.9,4161.54,3992.31,4152.31,4134.36,3388.72,4073.33,4161.54,4145.13,0
19_54_33,44,4014.36,4149.23,4075.9,4094.36,4086.15,3924.1,4166.15,4004.1,4157.95,4140,3398.97,4063.59,4163.59,4148.72,0
19_54_33,45,4003.08,4153.85,4074.87,4086.15,4085.64,3929.23,4162.05,4004.1,4155.38,4135.9,3394.36,4059.49,4158.46,4140.51,0
19_54_33,46,3996.41,4146.15,4069.23,4078.97,4081.03,3922.56,4158.97,3998.97,4154.87,4135.38,3387.69,4055.38,4145.13,4132.82,0
19_54_33,47,3997.44,4145.64,4037.44,4087.69,4092.82,3930.26,4164.62,4011.28,4168.21,4151.28,3402.56,4025.13,4152.82,4133.85,0
19_54_33,48,4001.03,4164.1,4020,4093.33,4101.03,3943.59,4170.77,4023.59,4173.33,4160.51,3408.21,4006.15,4183.08,4136.92,0
19_54_33,49,4006.67,4166.67,4041.03,4089.74,4088.72,3937.95,4169.74,4012.82,4161.54,4153.85,3397.44,4024.1,4191.79,4139.49,0
19_54_33,50,4015.9,4147.18,4080,4087.69,4081.03,3928.21,4165.64,4000.51,4155.38,4144.62,3391.79,4062.05,4168.72,4145.13,0
19_54_33,51,4025.64,4150.77,4101.54,4091.79,4086.67,3940,4170.77,4011.28,4160,4144.1,3403.08,4083.08,4160.51,4154.87,0
19_54_33,52,4034.36,4162.56,4114.36,4096.41,4090.26,3948.72,4175.9,4017.95,4149.23,4140,3411.79,4096.41,4170.26,4163.08,0
19_54_33,53,4032.31,4149.23,4113.85,4088.72,4082.56,3931.79,4169.74,4001.54,4134.36,4128.72,3394.87,4091.79,4166.15,4151.79,0
19_54_33,54,4020.51,4136.92,4109.23,4072.82,4067.18,3906.67,4156.92,3986.67,4126.15,4118.46,3370.26,4086.67,4151.28,4134.36,0
19_54_33,55,4019.49,4148.21,4107.69,4078.46,4065.13,3907.69,4152.31,3991.79,4123.08,4116.92,3374.36,4089.74,4157.95,4139.49,0
19_54_33,56,4032.82,4144.62,4116.92,4094.87,4073.85,3918.46,4153.33,3992.31,4119.49,4113.33,3389.74,4101.03,4172.31,4150.26,0
19_54_33,57,4022.56,4113.85,4106.15,4076.41,4058.46,3895.38,4132.31,3972.31,4096.41,4092.31,3371.79,4093.33,4149.23,4126.15,0
19_54_33,58,4007.69,4102.56,4100,4051.79,4033.85,3861.54,4107.69,3958.97,4067.69,4065.13,3345.64,4092.31,4116.41,4101.03,0
19_54_33,59,4029.74,4125.64,4120.51,4066.67,4046.15,3880,4113.85,3969.23,4074.87,4064.1,3363.08,4113.85,4141.03,4120.51,0
19_54_33,60,4058.97,4131.79,4144.62,4084.62,4061.03,3901.54,4123.59,3977.95,4087.18,4079.49,3391.28,4137.95,4169.74,4143.08,0
19_54_33,61,4049.74,4117.95,4142.56,4068.72,4043.08,3866.67,4109.74,3969.23,4066.15,4075.38,3383.08,4134.87,4150.26,4124.1,0
19_54_33,62,4039.49,4117.44,4139.49,4052.31,4028.72,3842.56,4099.49,3963.59,4049.74,4063.59,3376.92,4131.28,4128.72,4109.23,0
19_54_33,63,4057.95,4114.87,4145.13,4058.97,4042.05,3864.62,4109.23,3974.36,4061.54,4071.28,3399.49,4144.62,4131.28,4123.59,0
19_54_33,64,4063.08,4093.85,4144.62,4060,4047.18,3863.59,4109.74,3984.1,4069.74,4072.31,3402.05,4147.69,4127.69,4121.54,0
19_54_33,65,4052.31,4090.77,4144.1,4061.54,4046.15,3849.23,4102.56,3987.18,4070.77,4063.08,3393.33,4141.03,4119.49,4109.23,0
19_54_33,66,4062.05,4109.23,4155.38,4075.9,4065.13,3875.9,4113.85,3992.31,4081.03,4074.36,3414.36,4147.69,4126.67,4122.05,0
19_54_33,67,4072.82,4115.9,4160.51,4074.87,4073.85,3891.79,4124.1,3994.36,4081.54,4085.13,3425.64,4158.46,4123.08,4129.74,0
19_54_33,68,4066.67,4116.41,4151.79,4061.54,4064.1,3873.85,4117.44,3990.77,4073.33,4078.97,3409.23,4148.72,4108.21,4112.82,0
19_54_33,69,4070.77,4115.38,4155.9,4070.26,4065.64,3883.59,4114.87,3993.33,4077.95,4085.13,3408.72,4152.31,4105.13,4109.74,0
19_54_33,70,4078.46,4107.69,4156.92,4078.97,4074.36,3908.21,4122.56,3996.92,4084.62,4098.97,3414.87,4154.87,4109.23,4114.36,0
19_54_33,71,4066.67,4099.49,4147.18,4066.67,4068.21,3894.87,4118.46,3988.21,4073.85,4085.64,3397.44,4147.69,4099.49,4100,0
19_54_33,72,4058.46,4091.79,4138.97,4064.62,4062.05,3873.85,4107.18,3981.03,4066.67,4064.1,3389.74,4140,4088.21,4086.67,0
19_54_33,73,4072.31,4096.41,4155.38,4077.95,4068.21,3885.64,4109.23,3989.74,4077.95,4076.92,3412.31,4155.38,4092.31,4097.95,0
19_54_33,74,4081.03,4098.97,4166.67,4078.46,4069.23,3896.92,4113.85,3994.87,4085.13,4097.95,3427.69,4163.08,4100.51,4106.67,0
19_54_33,75,4073.33,4080.51,4169.74,4072.82,4060.51,3883.59,4107.69,3985.13,4074.87,4084.62,3408.72,4167.69,4095.38,4096.92,0
19_54_33,76,4065.13,4077.95,4172.31,4077.44,4058.46,3871.28,4107.69,3981.54,4071.79,4067.18,3391.28,4171.28,4076.41,4090.26,0
19_54_33,77,4082.05,4110.26,4190.77,4085.64,4068.21,3883.08,4127.18,3993.33,4085.64,4083.59,3408.72,4187.18,4072.31,4102.56,0
19_54_33,78,4108.21,4118.46,4202.56,4096.92,4086.67,3911.79,4143.08,4004.1,4093.33,4108.21,3431.28,4197.95,4098.46,4120,0
19_54_33,79,4100,4085.13,4187.18,4094.87,4083.59,3908.21,4134.36,3997.95,4073.85,4089.23,3409.74,4183.59,4101.54,4110.77,0
19_54_33,80,4072.82,4087.18,4161.03,4078.46,4068.72,3888.72,4121.03,3986.67,4062.56,4072.31,3389.23,4159.49,4082.05,4089.23,0
19_54_33,81,4073.33,4117.95,4155.9,4076.92,4075.38,3896.41,4122.05,3987.69,4077.44,4091.79,3407.69,4158.97,4085.13,4088.72,0
19_54_33,82,4072.31,4109.74,4152.31,4080.51,4080.51,3898.97,4122.56,3992.31,4083.59,4096.41,3414.36,4158.46,4092.31,4089.74,0
19_54_33,83,4057.95,4075.9,4146.15,4073.33,4067.69,3877.95,4115.38,3987.69,4073.33,4076.41,3397.44,4148.21,4081.54,4082.56,0
19_54_33,84,4071.79,4085.64,4158.97,4081.54,4077.44,3885.64,4122.56,3990.77,4078.97,4084.1,3409.23,4158.97,4090.77,4096.41,0
19_54_33,85,4096.41,4121.03,4165.13,4096.41,4106.67,3926.67,4138.97,4004.62,4098.46,4110.26,3444.1,4166.67,4123.08,4115.38,0
19_54_33,86,4084.1,4121.54,4144.62,4086.15,4100,3926.67,4131.28,4000.51,4094.36,4103.08,3441.54,4147.69,4121.03,4106.15,0
19_54_33,87,4055.9,4105.13,4116.41,4078.46,4081.54,3897.95,4112.31,3984.62,4076.41,4088.21,3418.97,4117.44,4080,4082.56,0
19_54_33,88,4054.87,4088.72,4113.33,4095.9,4092.31,3908.21,4120,3983.59,4075.38,4089.74,3416.41,4115.38,4064.1,4078.97,0
19_54_33,89,4060,4084.1,4107.18,4091.28,4093.33,3917.95,4124.1,3984.1,4075.9,4087.69,3415.9,4108.72,4097.44,4080.51,0
19_54_33,90,4055.38,4112.31,4100,4069.74,4081.54,3894.87,4108.72,3975.38,4063.08,4085.13,3416.41,4101.03,4111.28,4074.87,0
19_54_34,91,4058.97,4141.54,4099.49,4074.87,4100,3906.67,4116.92,3982.05,4069.74,4099.49,3441.03,4099.49,4094.87,4077.95,0
19_54_34,92,4066.15,4118.97,4105.64,4091.28,4115.9,3938.97,4131.79,3992.82,4087.69,4115.9,3456.41,4106.15,4114.87,4087.69,0
19_54_34,93,4053.85,4082.05,4087.69,4080,4092.82,3913.85,4112.82,3983.59,4081.03,4106.15,3432.82,4088.21,4126.15,4074.36,0
19_54_34,94,4043.08,4081.54,4074.36,4056.41,4069.23,3880,4096.92,3976.41,4068.21,4082.05,3408.72,4074.36,4082.56,4056.41,0
19_54_34,95,4055.38,4096.92,4082.56,4055.38,4081.03,3902.05,4114.36,3986.67,4075.38,4083.08,3418.46,4077.44,4073.33,4063.08,0
19_54_34,96,4066.67,4103.59,4092.31,4069.74,4096.92,3924.1,4123.08,3988.21,4078.46,4094.36,3443.08,4083.59,4106.67,4075.9,0
19_54_34,97,4069.23,4101.54,4090.77,4082.05,4100.51,3924.1,4111.79,3985.13,4074.36,4093.33,3454.36,4084.62,4110.77,4080,0
19_54_34,98,4066.67,4100.51,4089.74,4080,4093.85,3915.38,4105.13,3985.13,4073.33,4094.87,3441.03,4083.59,4097.95,4082.05,0
19_54_34,99,4052.31,4104.1,4083.08,4063.59,4083.08,3897.44,4103.59,3977.44,4065.64,4090.77,3425.64,4070.77,4090.77,4068.21,0
19_54_34,100,4057.95,4109.23,4086.67,4071.28,4101.54,3919.49,4115.38,3980.51,4069.74,4085.64,3447.69,4072.82,4097.95,4067.69,0
19_54_34,101,4080.51,4108.72,4096.92,4092.82,4122.56,3957.95,4126.15,3996.41,4088.72,4101.03,3474.36,4088.21,4116.92,4090.77,0
19_54_34,102,4074.36,4104.62,4088.72,4085.13,4103.08,3941.03,4117.44,3994.87,4088.21,4109.23,3462.05,4081.03,4116.41,4092.82,0
19_54_34,103,4060,4115.38,4081.54,4073.85,4085.13,3911.28,4110.77,3986.15,4074.36,4097.95,3449.23,4073.85,4111.28,4081.03,0
19_54_34,104,4065.64,4131.79,4089.23,4086.15,4101.03,3921.54,4118.97,3990.77,4071.28,4097.44,3466.15,4081.03,4133.85,4087.69,0
19_54_34,105,4067.69,4132.82,4095.38,4089.74,4105.13,3928.72,4121.54,3989.74,4074.87,4102.05,3483.59,4085.64,4151.28,4097.95,0
19_54_34,106,4074.87,4140,4095.38,4091.79,4098.97,3923.08,4120.51,3989.74,4084.1,4108.72,3500,4083.08,4171.28,4110.26,0
19_54_34,107,4105.13,4172.31,4111.79,4117.95,4120.51,3932.31,4129.23,4004.62,4097.44,4123.59,3526.67,4099.49,4216.92,4139.49,0
19_54_34,108,4121.54,4195.9,4116.41,4129.23,4130.77,3936.41,4128.21,4006.67,4097.95,4129.23,3542.05,4102.05,4237.44,4150.77,0
19_54_34,109,4121.54,4198.46,4110.77,4120,4114.36,3933.85,4122.05,3999.49,4095.38,4132.31,3538.97,4097.44,4231.79,4144.62,0
19_54_34,110,4131.79,4211.79,4108.21,4129.23,4115.38,3944.62,4122.56,4002.05,4094.36,4134.87,3540,4090.77,4245.64,4149.23,0
19_54_34,111,4130.77,4216.92,4108.21,4131.79,4112.31,3929.23,4118.46,3988.72,4068.72,4106.15,3523.08,4084.1,4244.62,4140.51,0
19_54_34,112,4106.67,4197.95,4088.72,4107.18,4089.74,3902.56,4107.18,3960.51,4043.08,4081.03,3497.95,4068.21,4220.51,4112.31,0
19_54_34,113,4088.72,4186.15,4075.9,4094.36,4074.87,3895.9,4092.82,3953.85,4039.49,4082.56,3496.92,4064.1,4206.67,4097.95,0
19_54_34,114,4091.79,4186.67,4078.46,4102.56,4086.67,3900,4093.85,3965.64,4053.33,4080,3506.15,4066.67,4200.51,4101.54,0
19_54_34,115,4108.21,4178.46,4092.82,4112.82,4112.82,3916.92,4117.95,3978.97,4074.36,4087.18,3509.23,4074.36,4192.82,4113.33,0
19_54_34,116,4113.85,4171.28,4092.82,4116.41,4129.23,3944.62,4130.77,3989.74,4089.74,4113.33,3507.18,4072.31,4196.41,4117.44,0
19_54_34,117,4091.28,4156.41,4072.31,4097.95,4106.67,3933.85,4112.82,3983.08,4075.38,4106.15,3487.69,4057.95,4180,4093.33,0
19_54_34,118,4061.54,4128.21,4051.79,4075.38,4077.95,3896.41,4101.54,3966.67,4051.28,4076.41,3466.67,4044.62,4138.46,4065.13,0
19_54_34,119,4059.49,4117.44,4052.82,4086.15,4094.36,3911.28,4120.51,3976.92,4066.15,4083.08,3474.87,4041.54,4126.15,4073.33,0
19_54_34,120,4066.67,4117.44,4056.92,4100,4116.92,3945.13,4130.26,3998.46,4089.74,4108.72,3486.67,4038.97,4134.87,4089.23,0
19_54_34,121,4060,4105.64,4056.92,4089.74,4112.82,3941.03,4115.9,3994.36,4084.1,4107.69,3480,4038.46,4117.44,4079.49,0
19_54_34,122,4061.03,4090.77,4071.28,4090.26,4110.26,3932.82,4108.72,3986.15,4077.44,4101.03,3481.03,4055.38,4104.62,4075.38,0
19_54_34,123,4075.9,4102.05,4082.05,4106.67,4123.08,3947.69,4121.54,3999.49,4103.08,4124.1,3494.36,4066.15,4133.85,4092.31,0
19_54_34,124,4088.72,4128.72,4085.64,4112.31,4134.87,3967.69,4131.28,4013.85,4124.1,4146.15,3505.13,4071.79,4153.85,4104.1,0
19_54_34,125,4093.85,4131.28,4088.72,4110.26,4136.92,3975.9,4126.67,4010.26,4112.82,4140.51,3513.33,4073.33,4137.44,4102.56,0
19_54_34,126,4099.49,4103.08,4104.1,4112.31,4128.21,3970.26,4124.62,4002.56,4093.85,4127.18,3504.62,4085.13,4126.15,4100,0
19_54_34,127,4092.31,4085.64,4104.1,4110.26,4121.54,3954.36,4123.59,3994.87,4086.67,4117.44,3482.05,4084.1,4116.92,4091.28,0
19_54_34,128,4077.44,4089.74,4099.49,4097.95,4115.38,3944.1,4118.46,3985.13,4080,4105.64,3468.72,4082.56,4092.31,4082.56,0
19_54_34,0,4074.36,4090.77,4101.03,4094.36,4103.08,3949.74,4117.44,3982.56,4072.31,4104.62,3469.74,4077.95,4084.1,4080.51,0
19_54_34,1,4079.49,4083.59,4109.74,4102.56,4101.54,3953.33,4120,3987.69,4074.36,4111.28,3473.33,4081.03,4087.69,4082.56,0
19_54_34,2,4074.87,4089.74,4103.08,4103.59,4115.9,3951.79,4121.03,3990.77,4091.28,4112.31,3472.31,4079.49,4087.18,4081.54,0
19_54_34,3,4071.28,4099.49,4099.49,4100.51,4120,3959.49,4124.1,3990.26,4095.9,4113.33,3468.21,4080.51,4095.38,4083.59,0
19_54_34,4,4070.26,4088.21,4099.49,4099.49,4113.85,3971.79,4128.21,3991.79,4082.05,4113.33,3473.85,4075.9,4099.49,4081.54,0
19_54_34,5,4063.59,4071.79,4093.33,4090.26,4112.82,3966.67,4128.21,3989.23,4076.92,4105.64,3476.92,4072.31,4078.97,4067.69,0
19_54_34,6,4060.51,4075.9,4080.51,4082.05,4114.36,3959.49,4122.05,3985.64,4083.08,4105.64,3470.26,4069.74,4067.18,4057.44,0
19_54_34,7,4068.72,4084.62,4082.05,4089.74,4107.18,3962.56,4112.82,3990.26,4081.54,4115.9,3470.77,4071.79,4083.08,4064.1,0
19_54_34,8,4070.77,4081.03,4091.28,4093.85,4104.62,3961.03,4110.77,3990.77,4074.87,4114.36,3480,4073.33,4091.79,4069.74,0
19_54_34,9,4060.51,4070.26,4092.31,4087.69,4110.77,3956.41,4112.82,3979.49,4068.72,4102.05,3473.85,4069.74,4080,4060.51,0
19_54_34,10,4058.46,4072.31,4092.82,4091.79,4107.18,3956.41,4113.85,3980,4068.72,4098.97,3466.67,4073.85,4071.79,4058.46,0
19_54_34,11,4074.87,4095.38,4102.56,4106.15,4103.08,3964.62,4120,3993.85,4083.08,4109.74,3482.56,4085.64,4087.69,4071.79,0
19_54_34,12,4089.23,4107.18,4116.92,4112.82,4111.79,3967.18,4123.08,3994.87,4094.36,4124.1,3503.08,4095.38,4097.44,4083.08,0
19_54_34,13,4080.51,4086.67,4114.36,4106.67,4110.26,3958.97,4111.28,3991.28,4084.1,4127.18,3508.21,4088.21,4084.62,4075.9,0
19_54_34,14,4066.15,4064.62,4109.74,4099.49,4092.31,3953.33,4104.1,3989.74,4071.28,4110.26,3492.31,4086.15,4077.44,4061.54,0
19_54_34,15,4066.67,4061.54,4102.56,4096.92,4087.18,3954.36,4106.67,3980.51,4069.23,4096.41,3471.28,4082.05,4082.05,4055.38,0
19_54_34,16,4074.36,4070.26,4102.05,4092.82,4089.74,3950.77,4108.21,3977.95,4068.21,4097.44,3472.82,4085.64,4086.67,4058.46,0
19_54_34,17,4076.41,4089.23,4102.56,4088.72,4091.79,3951.28,4109.23,3987.69,4075.38,4106.67,3499.49,4088.72,4088.21,4064.1,0
19_54_34,18,4072.82,4091.28,4107.69,4087.69,4096.41,3962.05,4109.74,3990.26,4082.56,4113.33,3514.36,4093.33,4086.67,4065.13,0
19_54_34,19,4072.31,4079.49,4106.15,4090.26,4099.49,3966.67,4109.23,3987.18,4078.46,4110.26,3508.21,4088.72,4096.92,4062.56,0
19_54_34,20,4078.46,4070.77,4109.23,4092.31,4093.85,3949.74,4107.69,3985.13,4072.31,4101.54,3500,4089.74,4106.67,4062.56,0
19_54_34,21,4085.13,4077.44,4114.36,4097.44,4097.44,3946.67,4111.79,3991.28,4081.54,4115.9,3505.13,4092.82,4109.23,4071.79,0
19_54_34,22,4093.33,4096.41,4122.05,4104.62,4109.74,3972.31,4124.62,4002.05,4088.21,4138.46,3524.1,4101.03,4116.41,4086.15,0
19_54_34,23,4101.54,4102.05,4122.56,4110.26,4115.38,3989.23,4129.23,4003.59,4086.67,4138.46,3535.9,4105.13,4124.1,4092.82,0
19_54_34,24,4100.51,4092.82,4118.46,4111.79,4107.69,3967.69,4117.95,3991.79,4083.59,4118.97,3528.21,4102.05,4116.92,4086.67,0
19_54_34,25,4092.82,4095.9,4113.85,4108.21,4095.9,3948.72,4114.36,3988.21,4076.41,4110.77,3521.03,4094.36,4105.64,4078.97,0
19_54_34,26,4100,4107.18,4118.97,4111.28,4101.03,3967.69,4121.54,4001.54,4078.97,4126.15,3529.23,4097.95,4109.74,4086.15,0
19_54_34,27,4108.21,4104.1,4121.03,4114.87,4113.85,3982.05,4115.9,4004.62,4086.15,4132.82,3533.33,4101.54,4115.38,4088.72,0
19_54_34,28,4096.92,4092.82,4111.79,4110.26,4108.21,3974.87,4104.62,3991.28,4078.46,4120.51,3527.18,4094.36,4108.72,4074.36,0
19_54_34,29,4078.97,4081.54,4104.1,4092.82,4094.87,3962.05,4100.51,3981.54,4061.54,4106.15,3515.38,4089.74,4094.36,4061.03,0
19_54_34,30,4062.56,4064.62,4095.38,4069.74,4089.74,3943.08,4087.69,3971.28,4046.15,4087.69,3502.05,4078.97,4077.95,4049.23,0
19_54_34,31,4052.31,4049.74,4089.23,4061.54,4083.59,3922.05,4069.74,3958.46,4029.23,4065.13,3491.79,4071.79,4058.97,4035.38,0
19_54_34,32,4055.9,4053.33,4085.64,4070.26,4082.56,3922.05,4067.69,3960,4027.18,4065.13,3498.97,4073.33,4049.23,4031.28,0
19_54_34,33,4069.23,4071.79,4094.87,4079.49,4096.92,3934.87,4075.9,3972.82,4041.54,4081.03,3518.97,4085.13,4057.44,4041.03,0
19_54_34,34,4075.9,4075.38,4098.46,4084.1,4111.28,3946.67,4078.97,3980,4049.74,4089.74,3533.33,4085.13,4071.28,4048.21,0
19_54_34,35,4083.08,4063.59,4099.49,4093.85,4110.77,3952.82,4078.46,3983.59,4044.1,4089.23,3541.03,4091.28,4071.28,4048.21,0
19_54_34,36,4084.1,4068.21,4093.85,4091.79,4107.18,3941.54,4074.36,3984.62,4032.31,4080,3545.13,4090.77,4056.41,4041.03,0
19_54_34,37,4082.56,4080,4095.9,4074.87,4107.18,3933.85,4076.92,3983.08,4022.56,4070.26,3550.77,4088.21,4042.56,4036.92,0
19_54_34,38,4096.92,4085.13,4101.54,4076.92,4117.44,3955.9,4086.67,3993.85,4040,4082.56,3567.69,4089.23,4051.79,4047.69,0
19_54_34,39,4115.9,4086.67,4109.74,4092.82,4124.1,3966.67,4083.59,4003.59,4056.92,4093.33,3584.1,4097.95,4073.85,4060,0
19_54_34,40,4112.31,4072.31,4110.26,4090.26,4113.33,3949.23,4075.9,3995.38,4044.62,4080,3586.67,4093.85,4075.9,4055.9,0
19_54_34,41,4108.72,4058.46,4112.31,4074.87,4100.51,3934.87,4077.44,3991.79,4034.87,4071.79,3580,4094.87,4060,4046.15,0
19_54_34,42,4123.59,4069.23,4114.36,4081.03,4101.54,3942.05,4077.44,4004.1,4049.23,4088.72,3583.08,4102.05,4057.95,4048.21,0
19_54_34,43,4130.77,4073.33,4116.92,4089.74,4104.62,3944.1,4075.9,4007.18,4052.82,4092.31,3591.28,4106.67,4071.28,4052.82,0
19_54_34,44,4113.33,4057.44,4113.33,4076.41,4096.41,3920.51,4076.41,3993.33,4036.41,4074.36,3588.72,4100,4063.59,4041.03,0
19_54_34,45,4103.08,4050.77,4110.26,4071.79,4085.13,3905.64,4071.28,3987.69,4030.26,4071.79,3582.05,4096.92,4042.56,4031.79,0
19_54_34,46,4120.51,4065.64,4118.97,4091.28,4095.38,3931.28,4077.44,3999.49,4037.95,4091.28,3593.33,4107.69,4053.85,4047.18,0
19_54_34,47,4133.33,4077.44,4125.64,4100,4114.87,3962.56,4094.87,4007.69,4045.64,4100,3604.1,4110.26,4075.38,4061.54,0
19_54_34,48,4122.05,4074.36,4121.54,4089.23,4113.33,3957.44,4092.82,4003.08,4047.69,4089.23,3592.82,4104.62,4066.67,4050.77,0
19_54_34,49,4110.77,4071.79,4111.79,4084.1,4104.62,3941.03,4081.54,3998.97,4046.15,4081.03,3592.82,4098.46,4058.46,4043.59,0
19_54_34,50,4107.69,4063.59,4108.72,4078.97,4094.36,3931.28,4080,3997.44,4036.92,4074.36,3595.9,4096.92,4057.95,4041.54,0
19_54_34,51,4102.05,4050.77,4101.54,4068.21,4077.95,3924.1,4075.38,3987.18,4027.18,4063.59,3586.15,4086.15,4047.69,4027.69,0
19_54_34,52,4109.74,4064.1,4107.18,4074.36,4080.51,3931.79,4075.9,3991.28,4035.9,4063.59,3594.36,4094.36,4047.18,4029.74,0
19_54_34,53,4125.64,4088.72,4119.49,4090.77,4107.18,3956.41,4092.31,4013.33,4058.46,4086.67,3625.13,4108.72,4069.23,4055.38,0
19_54_34,54,4129.23,4082.56,4128.21,4092.31,4110.26,3960,4099.49,4018.97,4064.62,4103.08,3635.9,4114.87,4080.51,4064.62,0
19_54_34,55,4129.23,4080,4126.15,4091.79,4098.97,3950.26,4093.85,4009.74,4065.13,4107.18,3632.82,4106.15,4086.15,4056.92,0
19_54_34,56,4137.95,4100.51,4127.69,4104.1,4106.67,3956.41,4093.33,4009.23,4067.18,4108.21,3640,4106.15,4094.87,4062.05,0
19_54_34,57,4131.28,4094.87,4116.92,4102.05,4110.77,3956.41,4089.23,4008.72,4062.56,4101.03,3643.59,4097.44,4088.21,4063.08,0
19_54_34,58,4111.28,4073.85,4107.18,4089.23,4100.51,3952.31,4088.21,4005.13,4065.13,4093.33,3636.41,4091.28,4078.97,4053.85,0
19_54_34,59,4110.77,4094.36,4109.23,4098.97,4110.26,3971.79,4091.79,4011.79,4080,4101.54,3643.08,4091.79,4087.69,4055.9,0
19_54_34,60,4131.79,4119.49,4118.46,4110.77,4127.69,3991.79,4091.79,4017.95,4083.08,4114.36,3660.51,4097.95,4097.44,4067.18,0
19_54_34,61,4130.77,4107.69,4111.79,4103.59,4122.56,3984.1,4096.41,4017.44,4073.33,4113.85,3663.08,4093.85,4098.46,4065.64,0
19_54_34,62,4113.85,4086.15,4105.64,4098.97,4109.74,3966.67,4100.51,4015.9,4072.82,4106.15,3653.85,4090.26,4103.08,4054.87,0
19_54_34,63,4116.92,4084.62,4113.85,4107.69,4117.44,3965.64,4096.92,4015.9,4077.95,4110.77,3657.44,4097.95,4107.69,4057.95,0
19_54_34,64,4125.64,4088.72,4121.54,4107.69,4122.05,3975.9,4099.49,4015.38,4075.9,4114.36,3663.59,4102.56,4100.51,4064.62,0
19_54_34,65,4116.92,4075.38,4117.44,4101.54,4107.69,3977.44,4098.46,4010.77,4068.21,4102.05,3658.46,4100.51,4088.72,4056.92,0
19_54_34,66,4114.36,4066.15,4113.33,4102.05,4109.74,3971.28,4090.26,4008.72,4071.79,4095.9,3657.95,4098.46,4084.1,4052.31,0
19_54_34,67,4127.18,4085.13,4123.59,4109.23,4126.15,3981.03,4099.49,4014.36,4081.03,4107.69,3669.23,4106.67,4083.08,4063.08,0
19_54_34,68,4128.21,4102.05,4127.69,4110.26,4124.62,3990.26,4106.67,4014.87,4072.31,4113.33,3668.72,4105.64,4085.64,4068.72,0
19_54_34,69,4123.08,4085.64,4122.56,4099.49,4109.74,3976.92,4091.79,4007.18,4058.46,4097.95,3651.28,4102.05,4088.21,4058.46,0
19_54_34,70,4123.59,4066.67,4109.23,4087.18,4101.54,3966.67,4081.54,3995.38,4052.82,4081.54,3645.64,4094.87,4082.05,4046.15,0
19_54_34,71,4117.95,4054.36,4105.13,4082.56,4094.87,3962.56,4082.56,3989.23,4042.56,4073.33,3651.28,4094.36,4071.79,4035.9,0
19_54_34,72,4106.67,4049.74,4103.59,4085.64,4094.36,3963.59,4085.64,3996.41,4044.1,4082.56,3651.79,4090.77,4067.69,4030.77,0
19_54_34,73,4110.77,4065.13,4109.74,4087.18,4104.62,3978.97,4091.79,4008.72,4066.15,4095.9,3654.36,4100,4068.72,4038.46,0
19_54_34,74,4113.33,4071.79,4111.28,4084.1,4106.15,3985.64,4093.33,4009.74,4073.85,4091.28,3660.51,4103.59,4070.77,4043.59,0
19_54_34,75,4102.56,4051.79,4111.28,4084.62,4096.92,3967.18,4091.28,4002.56,4060,4081.54,3655.9,4104.1,4068.72,4035.9,0
19_54_34,76,4102.05,4052.31,4111.79,4092.82,4100.51,3965.64,4093.85,4004.1,4060,4088.21,3659.49,4098.97,4067.18,4036.92,0
19_54_34,77,4113.33,4070.26,4118.97,4095.38,4108.72,3980,4093.85,4008.72,4062.56,4095.38,3669.74,4101.03,4069.74,4048.72,0
19_54_34,78,4115.9,4068.21,4117.44,4087.69,4104.62,3977.95,4095.38,4009.23,4063.08,4090.77,3664.1,4102.56,4075.38,4050.77,0
19_54_34,79,4117.44,4064.1,4117.44,4094.87,4101.54,3976.41,4104.1,4005.13,4068.21,4086.67,3660,4106.67,4083.59,4050.77,0
19_54_34,80,4125.13,4071.79,4120.51,4111.79,4111.28,3988.72,4104.1,4003.59,4069.23,4090.77,3675.9,4109.23,4084.1,4056.92,0
19_54_34,81,4124.1,4062.56,4115.38,4103.59,4109.23,3989.74,4090.26,4004.1,4062.56,4086.15,3674.87,4106.15,4066.15,4055.38,0
19_54_34,82,4115.9,4044.1,4110.26,4083.08,4092.31,3983.08,4084.1,3998.46,4056.92,4072.82,3655.9,4102.05,4054.87,4045.64,0
19_54_34,83,4110.77,4057.44,4112.31,4084.1,4090.26,3978.46,4093.85,3992.31,4055.38,4075.9,3657.95,4102.56,4064.1,4043.08,0
19_54_34,84,4104.1,4072.31,4109.23,4089.23,4096.92,3973.33,4096.41,3993.85,4051.28,4086.67,3657.95,4101.03,4070.26,4038.97,0
19_54_34,85,4101.54,4067.69,4104.62,4086.15,4095.9,3975.9,4087.18,4000,4054.36,4087.18,3649.74,4092.31,4070.26,4032.31,0
19_54_34,86,4111.79,4073.85,4112.82,4091.79,4102.56,3989.74,4093.33,4006.67,4069.23,4086.67,3664.62,4097.44,4076.92,4037.44,0
19_54_34,87,4109.74,4084.62,4112.31,4093.33,4117.44,3996.92,4104.1,4007.18,4077.95,4089.74,3680,4098.97,4082.56,4040.51,0
19_54_34,88,4098.46,4081.54,4112.31,4092.82,4120,3996.92,4096.41,4004.62,4075.38,4092.31,3675.9,4100.51,4086.15,4039.49,0
19_54_34,89,4095.38,4073.85,4110.77,4096.92,4114.87,3998.97,4087.69,4008.72,4075.38,4096.41,3677.44,4097.44,4094.36,4042.56,0
19_54_35,90,4085.13,4068.72,4104.62,4083.59,4105.64,3985.13,4083.59,4004.1,4071.28,4087.69,3674.36,4092.31,4083.08,4035.9,0
19_54_35,91,4074.36,4070.26,4096.41,4075.38,4102.56,3976.92,4081.54,3993.33,4065.13,4083.08,3665.64,4081.54,4070.26,4025.13,0
19_54_35,92,4093.33,4078.46,4107.69,4092.82,4111.79,3998.97,4096.92,4000,4066.15,4097.95,3676.41,4094.87,4088.72,4036.92,0
19_54_35,93,4111.28,4080.51,4109.74,4099.49,4113.85,4010.26,4110.77,4007.69,4066.67,4105.64,3687.69,4099.49,4103.59,4049.74,0
19_54_35,94,4101.54,4080,4101.54,4087.18,4103.08,3994.36,4099.49,4000.51,4063.08,4098.46,3679.49,4090.77,4085.13,4041.54,0
19_54_35,95,4091.28,4087.18,4100,4088.21,4109.74,3997.95,4090.26,4001.54,4070.77,4098.97,3678.97,4087.69,4072.82,4037.95,0
19_54_35,96,4101.03,4079.49,4109.74,4093.85,4120,4007.69,4092.31,4004.62,4075.9,4097.95,3692.82,4096.41,4079.49,4047.18,0
19_54_35,97,4106.67,4061.54,4105.64,4087.18,4108.21,3992.31,4086.15,3995.38,4065.64,4088.72,3688.21,4090.26,4081.54,4044.62,0
19_54_35,98,4107.18,4061.03,4102.56,4086.67,4104.62,3988.21,4086.15,3996.92,4057.95,4092.82,3687.18,4088.21,4086.67,4043.59,0
19_54_35,99,4107.69,4073.33,4108.72,4090.77,4113.33,3997.95,4091.28,4004.1,4061.03,4101.54,3707.18,4097.95,4088.21,4052.82,0
19_54_35,100,4107.69,4070.26,4112.31,4091.28,4116.92,3994.36,4089.23,4002.05,4071.79,4101.54,3712.31,4101.03,4089.23,4058.97,0
19_54_35,101,4115.9,4062.56,4112.82,4096.41,4117.44,3993.85,4092.31,4002.56,4074.87,4103.59,3702.56,4100.51,4104.1,4061.03,0
19_54_35,102,4122.56,4072.82,4110.77,4096.92,4111.79,3994.87,4093.33,4004.62,4060,4098.97,3707.69,4095.38,4105.13,4057.44,0
19_54_35,103,4112.82,4082.56,4107.69,4085.64,4102.56,3987.18,4082.56,4000,4049.23,4092.82,3713.33,4091.28,4084.1,4046.67,0
19_54_35,104,4101.54,4074.87,4104.1,4081.03,4104.1,3987.69,4079.49,3998.97,4056.92,4101.54,3702.56,4088.21,4082.56,4040.51,0
19_54_35,105,4107.69,4075.38,4106.67,4090.26,4106.67,3997.95,4091.79,4003.08,4062.56,4104.1,3695.38,4093.85,4094.87,4044.1,0
19_54_35,106,4106.15,4087.69,4101.54,4091.79,4104.1,4004.62,4096.41,4001.03,4055.9,4086.15,3690.26,4086.67,4083.08,4036.41,0
19_54_35,107,4095.9,4079.49,4098.46,4087.18,4107.69,4003.59,4090.26,4000.51,4053.85,4077.95,3684.1,4084.1,4066.15,4026.15,0
19_54_35,108,4098.46,4064.1,4096.92,4088.21,4112.82,3999.49,4089.23,4005.64,4066.15,4093.85,3690.77,4084.1,4077.95,4033.33,0
19_54_35,109,4107.69,4064.62,4103.59,4093.85,4111.79,3997.95,4092.31,4007.18,4077.44,4105.13,3703.59,4089.23,4094.87,4044.62,0
19_54_35,110,4106.67,4067.69,4107.69,4095.9,4115.9,4007.69,4092.82,4007.18,4078.46,4111.28,3718.46,4086.67,4095.9,4046.67,0
19_54_35,111,4098.46,4071.28,4105.13,4086.15,4109.74,4005.13,4090.77,4004.1,4064.1,4104.62,3715.9,4087.18,4086.15,4041.03,0
19_54_35,112,4097.44,4083.59,4097.44,4078.97,4101.03,4000.51,4089.74,4001.03,4056.41,4095.38,3704.62,4081.54,4092.31,4035.38,0
19_54_35,113,4111.28,4082.05,4102.56,4090.26,4108.72,4011.79,4092.31,4003.59,4067.69,4101.03,3713.33,4084.1,4108.72,4041.03,0
19_54_35,114,4118.46,4077.44,4106.67,4098.97,4120.51,4022.05,4094.87,4008.72,4078.97,4107.69,3725.13,4086.15,4113.33,4050.77,0
19_54_35,115,4109.74,4077.95,4102.56,4091.28,4114.36,4014.87,4095.9,4004.62,4073.33,4101.54,3718.97,4084.62,4097.44,4045.13,0
19_54_35,116,4095.38,4060,4093.33,4083.59,4102.05,4002.56,4091.79,3998.46,4059.49,4088.72,3710.77,4080,4076.92,4030.77,0
19_54_35,117,4091.28,4059.49,4095.9,4089.23,4105.64,4006.67,4092.31,4005.13,4063.59,4088.21,3712.82,4083.59,4080.51,4033.33,0
19_54_35,118,4090.77,4088.72,4100,4093.33,4110.26,4015.38,4097.44,4016.41,4080,4100,3716.92,4088.72,4091.79,4041.54,0
19_54_35,119,4081.03,4085.64,4096.41,4086.67,4098.46,4010.77,4091.79,4012.31,4080,4100,3713.33,4082.05,4082.56,4032.82,0
19_54_35,120,4082.56,4060,4096.41,4083.08,4093.85,4006.15,4082.05,4002.56,4070.26,4088.21,3711.79,4077.95,4082.05,4028.21,0
19_54_35,121,4102.05,4067.69,4100.51,4095.9,4104.1,4007.18,4084.62,4006.15,4074.87,4094.87,3725.64,4082.56,4101.54,4041.54,0
19_54_35,122,4111.79,4071.28,4104.1,4110.77,4110.77,4010.26,4097.95,4017.44,4087.18,4115.38,3747.18,4090.26,4101.54,4050.26,0
19_54_35,123,4100.51,4048.21,4101.03,4106.15,4108.72,4015.38,4103.08,4017.95,4089.74,4117.44,3749.23,4085.13,4090.77,4043.08,0
19_54_35,124,4091.28,4049.74,4098.97,4090.26,4098.46,4010.26,4093.85,4010.77,4085.13,4100,3731.79,4081.54,4089.74,4033.85,0
19_54_35,125,4086.67,4067.18,4092.82,4087.18,4089.74,4005.13,4088.21,4006.67,4077.95,4087.69,3725.64,4076.92,4084.1,4030.26,0
19_54_35,126,4086.15,4068.72,4098.97,4096.41,4098.46,4016.41,4089.23,4002.05,4071.28,4086.15,3733.33,4082.05,4084.1,4035.9,0
19_54_35,127,4091.79,4070.26,4101.54,4094.87,4105.64,4021.54,4085.13,3999.49,4067.18,4093.33,3741.54,4082.05,4092.82,4041.03,0
19_54_35,128,4085.13,4065.64,4095.9,4080,4085.64,3999.49,4076.92,4000.51,4053.33,4096.41,3733.85,4082.56,4079.49,4032.82,0
19_54_35,0,4069.23,4048.21,4087.69,4076.41,4078.97,3989.23,4072.31,4003.08,4053.85,4093.33,3719.49,4076.92,4066.67,4022.05,0
19_54_35,1,4069.74,4057.95,4094.36,4086.67,4092.31,4002.56,4077.44,4002.05,4071.79,4088.21,3716.41,4080,4075.38,4022.05,0
19_54_35,2,4085.13,4087.18,4100.51,4091.28,4096.92,4010.26,4088.21,4003.08,4079.49,4089.74,3729.23,4081.03,4080,4028.72,0
19_54_35,3,4101.03,4089.23,4108.21,4091.28,4098.97,4013.85,4089.74,4009.74,4070.77,4101.54,3754.36,4085.64,4080.51,4042.05,0
19_54_35,4,4103.59,4077.95,4109.23,4094.87,4110.26,4024.1,4087.69,4012.31,4071.79,4110.77,3766.15,4088.21,4096.92,4048.72,0
19_54_35,5,4096.41,4073.33,4102.56,4095.9,4115.38,4027.18,4089.74,4008.21,4080,4107.69,3754.36,4086.67,4112.82,4039.49,0
19_54_35,6,4090.77,4077.44,4096.92,4092.31,4117.44,4025.64,4087.69,4004.1,4076.92,4105.64,3748.72,4081.03,4108.21,4030.26,0
19_54_35,7,4094.87,4086.67,4102.05,4093.85,4127.69,4033.85,4089.23,4006.67,4066.15,4107.18,3762.05,4082.05,4089.74,4033.85,0
19_54_35,8,4093.85,4081.54,4101.54,4096.92,4122.05,4026.67,4083.08,4001.54,4054.87,4094.87,3760.51,4082.05,4068.21,4031.28,0
19_54_35,9,4074.87,4060.51,4083.59,4076.92,4095.9,3990.77,4053.33,3979.49,4037.95,4068.21,3736.92,4066.15,4046.67,4012.31,0
19_54_35,10,4057.44,4043.08,4068.72,4050.26,4083.59,3964.62,4032.82,3964.62,4017.95,4048.21,3720.51,4055.9,4031.79,3995.38,0
19_54_35,11,4056.41,4038.46,4068.72,4054.87,4090.77,3965.13,4033.85,3972.82,4011.28,4041.03,3723.08,4057.95,4029.74,3991.79,0
19_54_35,12,4074.36,4048.72,4077.44,4070.77,4094.36,3971.79,4035.38,3985.64,4013.85,4041.54,3734.87,4065.64,4030.77,4000,0
19_54_35,13,4086.15,4046.15,4076.41,4063.59,4089.23,3969.23,4035.9,3983.59,4014.36,4041.54,3747.18,4063.08,4030.26,4005.64,0
19_54_35,14,4085.64,4028.72,4081.03,4060.51,4088.21,3964.1,4040,3983.08,4020,4042.05,3761.54,4065.64,4026.15,4006.67,0
19_54_35,15,4093.33,4041.54,4091.28,4078.97,4101.03,3981.54,4045.13,4000.51,4034.36,4055.9,3788.21,4071.79,4031.28,4018.46,0
19_54_35,16,4107.18,4056.41,4100.51,4085.13,4112.31,3998.97,4050.26,4014.36,4035.9,4068.21,3809.23,4081.03,4043.08,4032.31,0
19_54_35,17,4108.21,4047.69,4094.36,4074.36,4107.69,3991.79,4048.72,4007.18,4028.72,4063.59,3803.08,4070.26,4047.69,4026.67,0
19_54_35,18,4109.74,4063.59,4097.95,4080,4108.21,3991.79,4052.31,4003.08,4033.85,4062.05,3795.38,4069.74,4049.74,4024.1,0
19_54_35,19,4116.41,4077.44,4097.95,4092.82,4121.03,4003.59,4063.08,4009.23,4039.49,4070.26,3797.44,4073.85,4054.87,4029.74,0
19_54_35,20,4109.74,4043.08,4085.13,4080,4106.15,3987.69,4055.38,4000.51,4027.69,4063.59,3783.59,4069.74,4048.21,4018.46,0
19_54_35,21,4100.51,4036.41,4072.82,4060,4087.18,3969.74,4044.62,3994.36,4026.67,4057.95,3776.41,4060,4042.05,4006.15,0
19_54_35,22,4097.95,4061.54,4080,4063.59,4091.79,3979.49,4049.74,4002.05,4030.77,4060.51,3785.13,4064.1,4036.92,4008.21,0
19_54_35,23,4082.05,4048.21,4074.87,4073.33,4092.82,3983.59,4046.67,3998.46,4017.44,4054.87,3772.31,4058.97,4023.08,4000,0
19_54_35,24,4070.77,4029.74,4065.13,4069.74,4081.03,3970.26,4030.77,3989.23,4006.67,4046.15,3747.69,4050.77,4016.92,3990.26,0
19_54_35,25,4086.15,4050.26,4075.9,4072.31,4085.13,3969.74,4032.31,3999.49,4019.49,4056.41,3766.15,4060,4023.59,4005.13,0
19_54_35,26,4099.49,4060.51,4084.62,4077.95,4091.28,3973.85,4045.13,4010.26,4029.74,4064.1,3795.9,4066.67,4025.64,4019.49,0
19_54_35,27,4089.74,4037.44,4070.77,4064.62,4076.92,3963.59,4043.08,4005.13,4025.64,4051.79,3785.13,4057.44,4026.67,4008.21,0
19_54_35,28,4087.69,4023.08,4060,4050.77,4063.59,3954.36,4035.9,4002.56,4018.97,4047.69,3774.87,4049.23,4033.33,3998.46,0
19_54_35,29,4098.46,4027.18,4068.72,4065.64,4073.33,3964.1,4047.18,4005.64,4016.92,4057.44,3784.62,4055.38,4034.87,4006.15,0
19_54_35,30,4099.49,4041.03,4073.85,4082.05,4092.31,3984.62,4061.03,4007.18,4029.74,4056.92,3788.21,4056.41,4034.87,4014.36,0
19_54_35,31,4092.82,4045.64,4069.74,4066.15,4086.15,3985.64,4049.23,4001.54,4024.1,4038.46,3777.44,4053.85,4028.72,4006.67,0
19_54_35,32,4085.13,4035.38,4064.62,4050.77,4073.85,3970.26,4032.82,3996.92,4002.05,4031.28,3767.69,4048.21,4013.33,3995.9,0
19_54_35,33,4081.54,4026.15,4073.33,4064.62,4081.54,3969.23,4046.67,4005.13,4010.77,4046.15,3766.67,4054.87,4007.69,3999.49,0
19_54_35,34,4080,4024.62,4072.82,4072.31,4082.56,3979.49,4060,4010.26,4035.38,4058.97,3773.33,4054.36,4020,4002.05,0
19_54_35,35,4087.69,4030.26,4072.31,4066.67,4074.36,3978.97,4052.31,4003.08,4031.28,4060,3785.13,4056.41,4026.67,3996.92,0
19_54_35,36,4101.03,4041.03,4075.9,4074.87,4086.67,3984.62,4053.33,4006.67,4025.64,4063.59,3804.62,4057.95,4024.1,3997.44,0
19_54_35,37,4106.67,4046.67,4081.54,4086.15,4099.49,3999.49,4060.51,4016.41,4040.51,4068.21,3811.79,4065.13,4034.87,4003.08,0
19_54_35,38,4102.05,4038.46,4076.41,4075.9,4093.33,3993.85,4053.85,4011.28,4049.23,4070.77,3801.54,4062.56,4055.9,4004.1,0
19_54_35,39,4101.03,4036.41,4078.97,4066.67,4087.69,3978.46,4047.69,4003.59,4040,4074.36,3804.1,4064.62,4061.03,4007.69,0
19_54_35,40,4099.49,4036.92,4079.49,4070.26,4083.59,3981.54,4048.72,4004.62,4023.59,4073.85,3811.79,4065.64,4051.28,4008.21,0
19_54_35,41,4088.72,4014.87,4071.28,4063.08,4065.64,3971.28,4043.59,3999.49,4018.46,4063.59,3795.9,4061.54,4041.54,3994.87,0
19_54_35,42,4085.13,4015.38,4068.21,4051.28,4061.03,3955.9,4040,3993.33,4032.31,4062.56,3792.31,4060.51,4044.62,3990.77,0
19_54_35,43,4098.97,4045.64,4076.41,4061.03,4082.56,3977.44,4053.33,4000.51,4036.92,4072.31,3809.23,4069.23,4048.72,4005.13,0
19_54_35,44,4109.74,4047.69,4080.51,4072.82,4097.95,4000,4062.05,4006.67,4029.74,4074.87,3811.79,4071.28,4048.72,4014.87,0
19_54_35,45,4102.05,4024.62,4077.44,4063.08,4084.62,3981.54,4053.33,4002.05,4027.18,4065.13,3802.56,4063.08,4044.62,4005.64,0
19_54_35,46,4090.26,4023.08,4077.95,4063.59,4079.49,3973.33,4048.21,4000,4023.08,4059.49,3794.36,4063.59,4041.54,3995.9,0
19_54_35,47,4093.33,4042.56,4082.05,4077.95,4091.28,3987.69,4054.87,4004.62,4020,4062.56,3793.33,4068.72,4044.62,4001.03,0
19_54_35,48,4097.44,4055.9,4082.05,4071.28,4088.21,3982.05,4055.9,4006.15,4025.64,4068.72,3805.13,4069.74,4046.15,4002.56,0
19_54_35,49,4089.23,4050.26,4079.49,4062.05,4077.95,3973.33,4052.82,4003.08,4026.67,4072.82,3810.26,4064.62,4042.56,3993.85,0
19_54_35,50,4090.77,4033.33,4087.18,4074.36,4087.69,3986.67,4060,4006.15,4029.23,4068.72,3808.21,4070.77,4037.95,3996.41,0
19_54_35,51,4097.44,4028.72,4086.15,4078.46,4094.87,3990.26,4060.51,4009.23,4032.82,4062.05,3817.44,4069.74,4043.08,4002.05,0
19_54_35,52,4096.92,4030.26,4080.51,4068.72,4077.95,3972.82,4051.28,4006.67,4020.51,4063.08,3821.54,4067.69,4050.26,3998.97,0
19_54_35,53,4103.08,4033.33,4081.03,4072.31,4081.54,3990.26,4057.44,4014.36,4024.62,4080,3830.26,4068.21,4068.72,4006.67,0
19_54_35,54,4116.92,4042.05,4095.38,4081.54,4104.62,4028.21,4080,4029.23,4047.69,4095.9,3857.44,4081.54,4090.26,4025.13,0
19_54_35,55,4115.9,4039.49,4093.33,4081.03,4104.1,4031.79,4092.82,4033.33,4055.9,4100,3874.36,4078.97,4101.03,4027.18,0
19_54_35,56,4107.18,4022.05,4088.72,4077.44,4091.28,4023.59,4086.67,4033.33,4055.38,4102.05,3869.23,4077.44,4101.03,4021.54,0
19_54_35,57,4093.33,4003.08,4076.41,4068.72,4082.05,4014.87,4059.49,4023.59,4045.13,4087.69,3849.74,4064.1,4075.38,4006.15,0
19_54_35,58,4078.97,4000,4065.64,4057.44,4060.51,3982.05,4039.49,4000.51,4018.97,4063.08,3826.15,4054.87,4045.13,3986.15,0
19_54_35,59,4089.23,4017.44,4071.28,4062.56,4057.44,3976.92,4057.95,4003.59,4022.56,4074.87,3828.72,4062.05,4058.46,3992.82,0
19_54_35,60,4113.85,4031.79,4088.21,4078.97,4091.79,4015.9,4081.54,4028.72,4057.44,4108.21,3853.33,4075.38,4092.31,4015.38,0
19_54_35,61,4103.08,4026.15,4082.56,4078.46,4091.28,4014.36,4072.31,4020,4048.21,4094.36,3848.21,4069.23,4084.1,4007.69,0
19_54_35,62,4069.23,4007.18,4067.69,4056.92,4042.56,3972.82,4060,3997.95,4008.72,4056.41,3815.9,4054.36,4047.69,3981.03,0
19_54_35,63,4068.21,3995.9,4071.28,4050.26,4041.03,3978.97,4070.77,4010.77,4017.95,4056.92,3804.1,4055.38,4036.92,3982.05,0
19_54_35,64,4081.54,4005.13,4073.33,4058.46,4073.85,4009.74,4080.51,4024.62,4044.62,4069.23,3816.92,4057.95,4042.05,3995.38,0
19_54_35,65,4068.21,4011.28,4065.13,4056.41,4068.21,4009.74,4079.49,4012.31,4032.82,4063.59,3823.59,4056.92,4034.36,3989.23,0
19_54_35,66,4055.9,4002.56,4060.51,4050.26,4051.79,3998.97,4073.85,4007.18,4022.05,4068.72,3810.26,4049.74,4025.13,3980,0
19_54_35,67,4064.1,4007.18,4063.08,4048.72,4053.85,3988.21,4067.69,4013.33,4032.31,4076.41,3802.05,4048.21,4036.41,3986.15,0
19_54_35,68,4066.67,4027.18,4061.03,4050.26,4060.51,3974.87,4067.69,4013.85,4044.1,4073.85,3820,4050.77,4061.54,3997.95,0
19_54_35,69,4068.72,4037.95,4069.23,4060.51,4063.59,3977.44,4072.31,4014.87,4040.51,4073.85,3836.41,4065.64,4062.56,4006.15,0
19_54_35,70,4085.13,4048.72,4080.51,4075.9,4074.87,3998.97,4075.38,4017.95,4021.54,4088.72,3844.1,4070.77,4059.49,4017.44,0
19_54_35,71,4091.28,4040.51,4084.62,4076.41,4081.54,4006.67,4076.92,4016.41,4016.41,4094.87,3849.23,4070.26,4072.82,4025.13,0
19_54_35,72,4088.72,4031.28,4084.1,4071.79,4092.31,4017.95,4082.56,4020.51,4058.97,4095.9,3853.85,4068.72,4081.54,4026.15,0
19_54_35,73,4091.79,4046.67,4088.72,4074.87,4091.79,4017.44,4077.95,4019.49,4081.03,4094.36,3850.77,4072.31,4070.77,4025.13,0
19_54_35,74,4070.77,4032.82,4068.72,4060,4051.28,3970.26,4046.67,3990.77,4018.46,4065.13,3818.46,4050.26,4048.72,4000.51,0
19_54_35,75,4054.87,4002.56,4053.85,4040.51,4026.67,3951.28,4028.72,3972.82,3963.59,4041.03,3794.36,4040,4035.9,3982.05,0
19_54_35,76,4073.85,4019.49,4063.08,4050.77,4053.33,3990.26,4045.13,3988.72,4002.05,4058.97,3817.95,4052.31,4043.08,3993.85,0
19_54_35,77,4092.82,4042.05,4079.49,4076.41,4081.54,4014.36,4062.05,4005.64,4046.15,4081.54,3844.1,4064.62,4065.64,4013.33,0
19_54_35,78,4095.38,4040.51,4080.51,4077.95,4078.97,4009.23,4065.64,4006.15,4029.74,4083.59,3841.54,4061.03,4086.67,4020,0
19_54_35,79,4106.15,4055.9,4085.64,4070.77,4079.49,4009.23,4072.82,4013.33,4025.64,4095.9,3845.64,4066.15,4092.31,4026.15,0
19_54_35,80,4111.79,4070.26,4092.31,4078.97,4093.85,4019.49,4083.08,4027.18,4062.56,4113.33,3856.41,4075.9,4092.31,4027.69,0
19_54_35,81,4093.33,4050.26,4085.64,4081.54,4089.23,4023.08,4082.56,4022.56,4053.85,4101.03,3845.64,4067.18,4084.62,4016.41,0
19_54_35,82,4082.56,4049.74,4078.97,4081.54,4087.69,4016.92,4083.08,4015.9,4023.08,4088.72,3847.18,4060.51,4079.49,4018.46,0
19_54_35,83,4095.38,4068.21,4084.62,4094.36,4103.08,4025.64,4092.31,4027.18,4048.72,4103.08,3876.41,4067.18,4083.08,4033.33,0
19_54_35,84,4094.87,4045.13,4089.23,4094.36,4102.56,4038.46,4093.33,4030.77,4069.23,4104.1,3881.54,4067.18,4083.08,4030.77,0
19_54_35,85,4070.26,4012.82,4072.31,4073.33,4075.38,4010.77,4069.23,4009.74,4023.08,4073.33,3844.62,4047.18,4066.67,4005.64,0
19_54_35,86,4069.23,4036.92,4067.18,4069.74,4066.67,3980.51,4055.9,4003.08,3991.28,4063.08,3827.18,4049.23,4057.95,3999.49,0
19_54_35,87,4091.79,4076.92,4077.44,4084.1,4086.67,4003.08,4075.38,4017.95,4018.46,4080.51,3846.15,4058.97,4066.67,4017.95,0
19_54_35,88,4090.77,4066.67,4085.13,4084.62,4088.72,4024.1,4088.21,4021.54,4037.95,4075.9,3851.79,4062.56,4057.44,4023.08,0
19_54_36,89,4089.23,4055.9,4091.79,4091.28,4093.85,4026.67,4088.72,4024.62,4047.18,4080,3860.51,4069.23,4058.97,4031.79,0
19_54_36,90,4104.1,4064.62,4104.1,4101.54,4107.18,4025.64,4090.77,4027.18,4048.72,4106.67,3881.54,4082.56,4083.08,4048.21,0
19_54_36,91,4095.38,4056.41,4093.85,4089.74,4097.44,4018.46,4089.74,4023.59,4036.41,4111.79,3876.92,4070.77,4093.85,4039.49,0
19_54_36,92,4096.92,4060,4095.9,4094.36,4095.9,4032.31,4097.95,4038.46,4061.03,4112.82,3874.87,4077.44,4098.46,4040.51,0
19_54_36,93,4115.9,4064.62,4105.64,4111.28,4105.64,4050.77,4098.97,4044.1,4102.05,4120.51,3891.79,4088.72,4104.1,4060,0
19_54_36,94,4104.62,4046.67,4096.92,4094.36,4087.18,4030.26,4076.41,4017.95,4065.64,4100.51,3884.1,4076.92,4087.18,4049.23,0
19_54_36,95,4076.41,4045.13,4073.33,4064.62,4063.59,3997.44,4057.44,3995.9,4000,4071.79,3854.36,4053.33,4056.41,4016.41,0
19_54_36,96,4065.13,4051.28,4063.08,4055.38,4050.77,3983.59,4059.49,3989.23,3990.77,4056.92,3828.72,4048.72,4036.41,4000.51,0
19_54_36,97,4065.64,4039.49,4065.13,4061.03,4049.23,4003.59,4074.87,3991.79,4006.15,4055.9,3828.21,4053.85,4047.18,4007.69,0
19_54_36,98,4080.51,4038.97,4081.54,4075.9,4076.41,4030.26,4093.85,4012.82,4017.95,4074.87,3853.33,4068.21,4068.72,4031.28,0
19_54_36,99,4090.77,4054.36,4090.26,4085.13,4088.21,4012.31,4086.67,4023.08,4035.38,4093.85,3865.64,4075.38,4058.46,4042.56,0
19_54_36,100,4079.49,4061.54,4083.59,4076.92,4066.67,3989.23,4071.28,4013.85,4043.08,4094.87,3855.38,4070.77,4050.26,4033.85,0
19_54_36,101,4085.64,4067.69,4088.21,4079.49,4075.9,4018.46,4090.77,4024.1,4042.56,4097.95,3863.08,4077.44,4080.51,4040,0
19_54_36,102,4088.72,4046.15,4082.05,4076.92,4077.44,4013.33,4092.31,4026.15,4035.38,4082.56,3859.49,4070.26,4076.92,4035.38,0
19_54_36,103,4066.15,4022.05,4070.26,4062.05,4051.79,3979.49,4071.79,4008.21,4033.85,4064.1,3836.92,4060,4046.67,4016.92,0
19_54_36,104,4069.74,4043.08,4080,4071.28,4073.33,4014.36,4080.51,4014.36,4034.87,4086.15,3860.51,4068.21,4053.85,4029.23,0
19_54_36,105,4074.36,4041.03,4084.1,4073.33,4086.15,4028.21,4080,4015.9,4009.23,4088.21,3868.72,4069.74,4054.36,4029.23,0
19_54_36,106,4045.13,4009.74,4057.95,4052.31,4049.23,3978.46,4048.21,3993.33,3986.67,4056.92,3821.03,4042.05,4030.77,3994.36,0
19_54_36,107,4033.33,4006.15,4048.72,4042.56,4034.87,3955.38,4032.82,3991.79,3995.9,4051.79,3804.62,4037.44,4019.49,3985.13,0
19_54_36,108,4044.62,4009.23,4051.79,4040,4052.31,3972.31,4046.15,4009.74,4006.15,4058.97,3832.82,4044.62,4011.28,3997.95,0
19_54_36,109,4041.54,3994.87,4047.18,4024.1,4045.13,3963.59,4041.03,4004.62,3993.85,4037.44,3832.31,4041.03,3993.33,3988.21,0
19_54_36,110,4041.54,3992.82,4042.56,4026.15,4038.97,3946.67,4018.97,3996.41,3983.08,4032.82,3824.1,4033.33,3997.44,3982.56,0
19_54_36,111,4066.67,4000,4058.97,4046.15,4060.51,3967.18,4029.23,4013.33,3987.69,4056.92,3849.74,4048.21,4018.46,4004.1,0
19_54_36,112,4078.97,4011.79,4067.18,4045.13,4070.26,3984.62,4049.74,4022.56,3985.64,4056.41,3875.38,4055.38,4022.56,4015.38,0
19_54_36,113,4081.03,4026.15,4070.77,4039.49,4064.1,3979.49,4038.97,4012.82,3980,4049.23,3889.23,4056.41,4019.49,4012.82,0
19_54_36,114,4088.21,4022.05,4070.26,4048.72,4065.64,3978.46,4026.15,4006.15,3980.51,4064.62,3889.23,4052.31,4026.67,4011.28,0
19_54_36,115,4089.23,4007.18,4067.18,4051.79,4062.05,3971.28,4031.28,4006.15,3962.56,4064.1,3883.59,4048.21,4021.54,4008.21,0
19_54_36,116,4083.59,4011.79,4066.67,4047.69,4057.44,3961.03,4034.87,4009.74,3958.46,4042.05,3892.82,4049.23,4003.08,4009.23,0
19_54_36,117,4080,4024.1,4072.82,4050.26,4066.67,3977.44,4037.95,4018.46,3996.41,4042.56,3894.36,4054.36,4008.72,4017.44,0
19_54_36,118,4069.74,4011.28,4066.15,4041.54,4062.05,3978.97,4033.33,4017.95,3995.9,4048.21,3883.59,4047.18,4014.36,4007.18,0
19_54_36,119,4056.41,3988.72,4049.74,4026.67,4036.41,3937.95,4019.49,4005.64,3960,4033.33,3882.56,4033.85,3995.38,3986.15,0
19_54_36,120,4060.51,3998.46,4052.82,4031.79,4035.38,3930.77,4028.72,4009.74,3967.18,4041.54,3883.08,4039.49,4001.03,3989.74,0
19_54_36,121,4061.54,4014.87,4053.33,4032.82,4047.18,3950.77,4037.95,4017.95,3981.03,4060,3875.38,4041.03,4022.56,3997.95,0
19_54_36,122,4050.77,3991.79,4047.18,4023.59,4040.51,3938.46,4024.62,4012.31,3967.18,4049.23,3876.41,4038.97,4015.38,3988.21,0
19_54_36,123,4060.51,3985.13,4054.87,4040.51,4051.28,3943.08,4029.23,4018.97,3978.46,4048.21,3891.28,4045.13,4017.44,3990.26,0
19_54_36,124,4075.38,4018.97,4067.18,4058.97,4069.74,3970.26,4045.64,4028.21,3987.69,4060,3896.41,4055.38,4031.79,4001.54,0
19_54_36,125,4074.36,4039.49,4060,4051.28,4068.72,3973.85,4048.72,4026.15,3974.87,4066.67,3902.05,4048.72,4028.21,3997.95,0
19_54_36,126,4070.26,4028.72,4055.9,4042.05,4055.38,3964.62,4045.64,4023.59,3970.26,4068.72,3903.59,4046.15,4023.08,3986.15,0
19_54_36,127,4068.21,4022.56,4056.92,4042.56,4051.79,3964.62,4045.13,4022.56,3985.64,4065.13,3894.36,4044.1,4038.97,3980.51,0
19_54_36,128,4085.64,4045.64,4070.26,4054.87,4072.82,3981.03,4060,4029.23,4025.64,4067.69,3898.46,4058.97,4052.82,3998.97,0
19_54_36,0,4105.64,4058.46,4076.92,4066.15,4091.79,4000,4066.15,4034.87,4041.03,4086.15,3915.9,4064.62,4054.36,4018.46,0
19_54_36,1,4090.77,4028.21,4065.13,4051.28,4061.03,3969.74,4035.9,4021.03,3990.26,4076.41,3898.97,4049.23,4042.05,4000,0
19_54_36,2,4080.51,4029.23,4060.51,4048.72,4045.13,3947.69,4029.23,4017.95,3968.72,4060.51,3883.59,4041.03,4047.18,3991.79,0
19_54_36,3,4092.31,4059.49,4069.23,4062.05,4065.13,3965.13,4053.85,4029.74,3997.95,4064.1,3894.36,4051.79,4045.64,4005.64,0
19_54_36,4,4072.31,4036.92,4053.85,4043.08,4049.23,3954.87,4045.13,4017.44,3987.18,4047.69,3886.67,4043.08,4010.77,3988.21,0
19_54_36,5,4068.72,4021.03,4057.44,4043.59,4044.62,3957.95,4042.05,4017.95,3970.77,4053.85,3894.36,4048.21,4029.74,3987.18,0
19_54_36,6,4113.85,4070.77,4088.72,4087.18,4094.87,4017.95,4076.41,4045.64,4012.31,4096.92,3933.85,4071.79,4095.38,4029.23,0
19_54_36,7,4127.18,4086.67,4090.26,4093.85,4114.36,4041.03,4082.05,4044.62,4040.51,4093.33,3933.33,4068.72,4092.82,4033.33,0
19_54_36,8,4087.69,4028.21,4061.54,4055.38,4064.62,3979.49,4050.77,4013.85,4001.54,4046.15,3879.49,4044.62,4024.62,3983.59,0
19_54_36,9,4065.64,4001.54,4050.77,4038.46,4029.23,3936.41,4034.87,4002.56,3954.36,4042.05,3858.46,4035.38,3997.95,3960.51,0
19_54_36,10,4067.69,4027.18,4055.38,4041.03,4032.82,3944.1,4029.74,4006.67,3953.85,4057.44,3876.41,4038.46,4016.41,3967.69,0
19_54_36,11,4063.08,4034.87,4048.21,4038.46,4040.51,3948.21,4027.18,4004.62,3981.54,4043.59,3872.31,4030.77,4014.87,3965.64,0
19_54_36,12,4074.36,4031.28,4054.36,4048.72,4056.92,3953.85,4043.59,4012.82,4001.03,4045.13,3868.72,4040,4019.49,3975.38,0
19_54_36,13,4089.74,4050.77,4065.64,4057.95,4068.72,3967.69,4056.92,4020.51,3983.59,4066.15,3893.85,4048.72,4043.59,3992.82,0
19_54_36,14,4097.44,4073.85,4072.31,4063.59,4070.26,3981.03,4060.51,4021.54,3967.18,4069.74,3915.9,4055.38,4059.49,4000,0
19_54_36,15,4107.69,4081.03,4074.36,4077.44,4082.05,3991.79,4064.1,4031.28,4002.56,4076.92,3926.67,4057.95,4069.74,4009.23,0
19_54_36,16,4112.82,4083.08,4081.03,4083.08,4092.31,3992.31,4055.9,4037.44,4024.62,4090.26,3940.51,4063.59,4076.41,4021.03,0
19_54_36,17,4090.26,4070.77,4068.21,4064.1,4070.26,3969.23,4035.38,4017.44,3974.36,4073.85,3929.74,4048.72,4056.41,4003.08,0
19_54_36,18,4078.97,4061.03,4062.05,4055.38,4064.62,3969.74,4041.03,4006.15,3944.62,4058.97,3912.31,4044.62,4039.49,3987.69,0
19_54_36,19,4094.87,4077.95,4072.82,4076.92,4102.56,4020,4066.67,4031.28,4000.51,4074.36,3936.92,4053.85,4054.87,4004.62,0
19_54_36,20,4083.08,4064.62,4072.31,4075.38,4091.79,4017.44,4060,4036.41,4025.64,4064.1,3944.62,4052.31,4038.97,4004.1,0
19_54_36,21,4073.85,4047.69,4065.64,4059.49,4065.64,3984.1,4057.44,4022.56,4000,4059.49,3926.15,4047.69,4031.28,3995.38,0
19_54_36,22,4086.67,4073.85,4071.79,4064.62,4087.69,4001.54,4070.77,4028.72,3997.95,4084.62,3923.59,4057.44,4069.23,4002.05,0
19_54_36,23,4078.46,4090.77,4063.59,4065.13,4094.87,4017.95,4061.03,4033.85,3998.46,4085.64,3918.97,4050.26,4079.49,3992.82,0
19_54_36,24,4070.77,4078.46,4058.46,4061.03,4074.87,4000.51,4056.92,4030.26,4001.54,4074.87,3916.92,4044.1,4062.56,3985.13,0
19_54_36,25,4097.44,4081.03,4076.41,4077.95,4089.23,4009.23,4077.95,4040,4026.67,4093.33,3943.59,4060,4063.08,4008.21,0
19_54_36,26,4115.9,4088.21,4088.72,4095.9,4112.82,4034.36,4082.56,4046.15,4030.26,4099.49,3952.31,4069.23,4065.64,4024.1,0
19_54_36,27,4104.62,4090.26,4083.08,4087.69,4101.54,4020.51,4070.77,4032.82,4009.74,4088.21,3926.67,4063.08,4072.31,4017.95,0
19_54_36,28,4111.79,4121.03,4085.64,4091.28,4104.62,4024.1,4083.08,4035.9,4034.36,4114.36,3928.72,4068.72,4108.72,4028.21,0
19_54_36,29,4126.15,4136.92,4096.41,4105.13,4126.15,4057.44,4101.03,4061.03,4074.36,4135.9,3941.03,4079.49,4119.49,4040.51,0
19_54_36,30,4105.13,4104.62,4083.59,4087.69,4121.54,4049.23,4084.1,4047.69,4043.59,4105.13,3916.41,4057.95,4085.13,4015.38,0
19_54_36,31,4082.05,4091.28,4071.28,4074.87,4109.74,4027.69,4056.41,3997.95,4001.54,4083.08,3906.15,4048.21,4070.26,3990.77,0
19_54_36,32,4087.69,4103.59,4073.85,4081.03,4110.26,4035.38,4057.95,3989.23,4023.08,4106.15,3922.05,4058.97,4075.9,4002.05,0
19_54_36,33,4103.08,4097.44,4082.05,4074.87,4089.74,4020,4071.79,4023.08,4070.77,4125.64,3918.46,4070.77,4079.49,4015.38,0
19_54_36,34,4114.87,4103.59,4082.56,4080.51,4078.97,3991.28,4077.44,4036.41,4092.82,4136.92,3928.72,4071.28,4102.05,4015.38,0
19_54_36,35,4117.44,4135.9,4087.69,4103.59,4111.28,4005.64,4089.74,4027.18,4066.15,4131.28,3927.18,4079.49,4104.1,4015.38,0
19_54_36,36,4103.08,4155.9,4083.59,4104.62,4132.82,4034.87,4090.26,4024.62,4031.28,4103.08,3870.77,4076.41,4081.54,4006.67,0
19_54_36,37,4101.54,4165.13,4084.62,4101.03,4121.03,4042.05,4070.77,4021.03,4037.95,4097.44,3837.95,4076.92,4091.79,3998.97,0
19_54_36,38,4106.67,4174.36,4081.54,4115.38,4122.56,4038.46,4069.74,4022.56,4068.21,4109.23,3849.74,4075.9,4101.03,3992.31,0
19_54_36,39,4096.92,4176.41,4072.82,4118.46,4137.44,4035.38,4075.9,4027.18,4059.49,4096.92,3841.03,4073.85,4072.82,3976.41,0
19_54_36,40,4101.54,4191.28,4072.82,4123.59,4151.79,4061.54,4069.74,4015.9,4034.87,4093.33,3837.44,4077.95,4074.36,3980,0
19_54_36,41,4100.51,4180,4074.36,4125.13,4132.31,4074.87,4069.74,4009.74,4031.28,4087.18,3840,4077.95,4066.67,3985.13,0
19_54_36,42,4067.69,4129.74,4055.9,4096.41,4080.51,4018.46,4063.08,4014.87,4021.03,4048.72,3802.05,4061.54,4020.51,3954.36,0
19_54_36,43,4058.46,4126.67,4047.18,4076.92,4061.03,3948.72,4038.46,3995.9,4002.56,4031.79,3775.9,4060,4018.46,3943.59,0
19_54_36,44,4076.41,4175.38,4057.95,4096.41,4079.49,3944.62,4031.28,3979.49,3990.77,4054.87,3804.1,4072.31,4046.15,3968.72,0
19_54_36,45,4085.64,4197.44,4071.79,4134.87,4101.03,3987.18,4064.62,4021.03,4019.49,4081.03,3825.64,4085.64,4053.33,3986.15,0
19_54_36,46,4073.33,4172.82,4072.31,4148.21,4104.1,3982.05,4086.67,4054.36,4031.79,4073.33,3781.03,4096.41,4032.31,3990.26,0
19_54_36,47,4036.41,4152.31,4045.64,4142.05,4086.15,3914.87,4043.08,4015.9,3956.41,4031.79,3751.28,4077.44,4000,3996.92,0
19_54_36,48,4010.26,4158.46,4029.74,4153.33,4084.1,3885.13,4005.64,3989.74,3895.38,4021.03,3814.87,4061.03,4002.05,4015.9,0
19_54_36,49,4013.33,4160.51,4038.97,4157.44,4109.23,3928.72,4037.95,4020,3917.44,4049.23,3898.97,4069.23,4031.28,4044.1,0
19_54_36,50,4009.23,4136.41,4048.21,4144.1,4108.72,3958.97,4070.77,4030.77,3921.54,4040,3927.69,4083.59,4005.64,4072.82,0
19_54_36,51,3982.56,4107.69,4034.36,4133.33,4084.62,3952.31,4053.33,3992.31,3867.69,4002.05,3922.56,4070.26,3951.79,4100.51,0
19_54_36,52,3974.36,4088.72,4030.77,4126.67,4083.08,3964.1,4041.03,3956.41,3844.1,3998.97,3899.49,4063.59,3954.87,4132.82,0
19_54_36,53,3975.9,4069.74,4026.67,4113.85,4077.44,3982.56,4039.49,3942.05,3847.69,4003.08,3861.03,4053.85,3965.13,4145.64,0
19_54_36,54,3987.18,4086.67,4033.33,4118.46,4072.31,3995.38,4038.97,3946.67,3856.41,4007.18,3848.72,4055.38,3958.97,4154.36,0
19_54_36,55,4009.23,4104.62,4048.72,4129.74,4091.28,4010.26,4056.92,3962.05,3881.03,4022.05,3860.51,4066.15,3959.49,4171.28,0
19_54_36,56,4010.77,4069.74,4048.72,4115.38,4090.77,4003.08,4055.38,3955.9,3868.72,4008.72,3852.82,4063.59,3950.26,4163.59,0
19_54_36,57,3989.74,4052.31,4026.67,4093.85,4070.77,3986.15,4036.41,3935.38,3840.51,3985.13,3825.64,4035.38,3943.59,4140.51,0
19_54_36,58,3979.49,4087.18,4025.64,4088.72,4070.77,3990.77,4045.13,3936.92,3854.36,3989.23,3809.23,4026.67,3963.59,4142.05,0
19_54_36,59,3989.74,4113.33,4044.1,4102.05,4094.87,4015.38,4063.59,3946.67,3889.74,4006.67,3820,4037.44,3991.28,4164.62,0
19_54_36,60,4007.18,4111.79,4061.54,4119.49,4115.9,4036.41,4065.64,3942.05,3897.95,4015.9,3835.9,4051.79,3999.49,4183.59,0
19_54_36,61,4023.59,4116.41,4071.79,4130.77,4127.69,4053.33,4067.69,3955.9,3912.82,4032.82,3855.9,4057.95,4017.44,4196.41,0
19_54_36,62,4024.62,4117.95,4075.38,4129.74,4125.13,4057.44,4070.26,3984.1,3935.9,4049.74,3876.41,4057.44,4032.82,4198.97,0
19_54_36,63,4017.44,4109.23,4074.36,4126.67,4120,4066.15,4075.38,4000.51,3949.23,4058.46,3885.13,4055.9,4032.82,4195.9,0
19_54_36,64,4030.77,4108.21,4085.13,4131.28,4129.74,4090.77,4093.33,4015.38,3982.56,4075.38,3898.46,4064.62,4045.64,4205.64,0
19_54_36,65,4042.05,4112.31,4095.9,4131.28,4135.9,4098.46,4097.44,4013.85,4002.05,4084.1,3912.82,4069.74,4057.95,4213.33,0
19_54_36,66,4026.15,4102.05,4089.23,4124.62,4126.15,4088.21,4080.51,3982.05,3975.9,4067.69,3906.15,4058.97,4045.13,4197.95,0
19_54_36,67,4010.77,4083.08,4084.1,4121.03,4118.97,4089.74,4082.56,3969.74,3963.08,4050.77,3900.51,4064.1,4030.26,4187.18,0
19_54_36,68,4024.62,4104.1,4094.36,4127.18,4136.41,4118.46,4108.21,4001.03,4008.21,4074.87,3930.77,4083.59,4055.9,4206.15,0
19_54_36,69,4031.28,4131.79,4106.15,4130.77,4144.62,4125.64,4111.28,4016.41,4035.9,4095.9,3950.26,4101.54,4076.41,4217.44,0
19_54_36,70,4014.87,4112.82,4102.05,4122.05,4120,4097.95,4088.72,4001.03,4007.69,4075.9,3934.87,4108.21,4055.38,4201.03,0
19_54_36,71,4023.59,4101.03,4117.44,4128.21,4113.33,4100.51,4088.21,4001.54,3995.38,4070.26,3935.9,4129.74,4047.69,4206.15,0
19_54_36,72,4038.97,4107.69,4129.74,4143.08,4131.28,4117.44,4097.95,4010.77,4011.28,4081.03,3950.26,4135.9,4067.18,4222.56,0
19_54_36,73,4008.72,4070.77,4110.77,4118.46,4101.54,4076.92,4072.82,3989.23,3983.59,4045.13,3919.49,4114.87,4037.44,4193.85,0
19_54_36,74,3978.97,4039.49,4081.03,4084.62,4060,4033.33,4044.1,3967.69,3953.33,4025.64,3886.67,4084.62,3997.44,4161.54,0
19_54_36,75,3994.36,4058.97,4081.54,4088.21,4076.92,4049.23,4048.72,3982.56,3985.13,4068.21,3903.08,4077.95,4022.05,4177.44,0
19_54_36,76,3987.18,4056.41,4072.31,4079.49,4089.74,4061.54,4056.92,3992.31,4004.62,4070.77,3911.28,4055.38,4036.41,4180,0
19_54_36,77,3959.49,4018.97,4054.87,4055.38,4067.18,4048.72,4054.87,3983.08,3979.49,4034.36,3894.87,4035.9,4003.08,4155.9,0
19_54_36,78,3973.33,4014.87,4056.41,4065.64,4075.38,4063.59,4061.03,3995.38,3991.28,4055.38,3915.38,4042.56,4007.69,4162.56,0
19_54_36,79,3997.95,4033.85,4068.21,4076.41,4097.95,4088.21,4069.23,4013.85,4022.05,4085.13,3942.56,4052.31,4035.9,4182.56,0
19_54_36,80,3993.33,4040.51,4066.67,4066.67,4097.95,4089.74,4071.28,4007.69,4010.77,4074.36,3940,4043.08,4036.41,4175.38,0
19_54_36,81,3988.21,4040.51,4062.05,4064.1,4092.31,4068.21,4064.62,4000.51,3993.33,4065.13,3933.85,4041.54,4030.26,4168.21,0
19_54_36,82,3984.1,4028.21,4057.95,4063.59,4081.03,4042.05,4053.85,4003.08,3997.44,4056.41,3927.18,4038.46,4022.56,4166.15,0
19_54_36,83,3984.1,4022.05,4058.97,4066.15,4074.36,4043.08,4056.92,4005.13,4009.23,4054.87,3921.54,4033.85,4025.13,4168.21,0
19_54_37,84,3989.23,4023.59,4062.56,4067.69,4079.49,4057.44,4067.18,4004.62,4014.36,4063.08,3920,4037.95,4032.31,4176.41,0
19_54_37,85,3978.46,4006.67,4053.85,4057.95,4074.87,4050.77,4063.59,4001.03,4005.64,4054.87,3907.69,4031.28,4016.41,4168.72,0
19_54_37,86,3972.31,4001.54,4050.77,4051.79,4067.18,4037.95,4058.97,3999.49,4010.26,4051.79,3894.36,4024.1,4018.46,4152.82,0
19_54_37,87,3994.36,4035.9,4063.59,4062.56,4082.56,4048.21,4064.62,4010.26,4033.85,4074.87,3902.05,4033.33,4048.21,4163.59,0
19_54_37,95,4022.05,4031.79,4066.15,4071.79,4101.03,4066.67,4056.92,4018.97,4042.56,4084.1,3929.23,4030.77,4060,4147.69,0
19_54_37,96,4006.67,4022.05,4052.31,4061.54,4085.64,4026.67,4040,3991.28,4026.15,4069.23,3907.18,4015.9,4030.26,4125.64,0
19_54_37,97,4004.1,4030.26,4050.26,4057.95,4074.87,4015.38,4051.79,3984.1,4017.95,4072.82,3894.87,4015.9,4026.67,4123.08,0
19_54_37,98,4037.44,4064.62,4069.23,4078.46,4108.21,4067.18,4075.38,4013.85,4053.33,4101.54,3923.59,4032.82,4067.18,4150.77,0
19_54_37,99,4046.15,4080,4077.95,4088.21,4128.72,4095.38,4076.92,4023.59,4070.77,4098.97,3932.31,4033.85,4062.05,4155.38,0
19_54_37,100,3997.44,4031.79,4053.33,4049.74,4074.36,4033.33,4046.67,3985.64,4017.95,4046.67,3874.36,4008.72,4004.62,4111.28,0
19_54_37,101,3968.72,4001.54,4037.44,4021.03,4036.41,3982.56,4032.82,3960,3976.92,4021.03,3838.46,3997.44,3981.54,4084.1,0
19_54_37,102,4008.21,4045.64,4064.62,4061.03,4089.74,4028.72,4063.59,3993.85,4011.28,4066.67,3886.15,4024.62,4025.13,4122.56,0
19_54_37,103,4050.77,4091.79,4091.28,4107.69,4147.69,4092.82,4099.49,4031.28,4058.97,4108.21,3928.21,4052.31,4075.38,4164.1,0
19_54_37,104,4033.33,4065.64,4072.82,4081.03,4118.97,4071.79,4089.23,4015.38,4049.23,4074.36,3887.18,4036.41,4052.31,4137.95,0
19_54_37,105,4017.95,4028.72,4063.59,4049.74,4082.05,4037.95,4070.26,3997.95,4022.56,4050.26,3863.59,4030.26,4020,4109.74,0
19_54_37,106,4067.18,4066.67,4094.87,4091.28,4121.54,4073.33,4090.77,4023.59,4049.74,4103.08,3928.72,4059.49,4077.44,4155.9,0
19_54_37,107,4094.36,4103.59,4107.69,4113.85,4138.46,4077.44,4095.9,4031.28,4074.87,4125.13,3956.41,4070.26,4115.9,4182.05,0
19_54_37,108,4065.64,4080,4084.1,4073.33,4091.28,4027.69,4063.59,4013.85,4046.15,4086.67,3913.85,4050.26,4078.97,4146.15,0
19_54_37,109,4061.03,4066.67,4083.59,4061.03,4074.36,4025.13,4062.05,4016.41,4014.87,4078.97,3909.23,4059.49,4078.46,4140,0
19_54_37,110,4080,4085.13,4098.97,4089.74,4102.56,4054.87,4087.69,4029.23,4037.44,4108.72,3946.15,4074.87,4111.28,4169.23,0
19_54_37,111,4073.33,4074.36,4101.03,4085.64,4100.51,4050.77,4084.1,4027.69,4067.18,4101.54,3944.62,4073.85,4095.38,4165.64,0
19_54_37,112,4060,4046.15,4087.69,4058.97,4073.85,4043.59,4068.21,4022.56,4059.49,4080,3924.62,4065.64,4075.38,4143.08,0
19_54_37,113,4057.44,4037.44,4084.62,4060,4068.21,4035.9,4072.82,4025.64,4045.13,4091.79,3923.08,4067.69,4086.15,4140.51,0
19_54_37,114,4055.9,4050.26,4087.18,4074.87,4077.44,4017.95,4081.54,4030.26,4046.15,4111.79,3929.74,4066.67,4098.46,4144.62,0
19_54_37,115,4073.33,4082.05,4103.59,4094.87,4106.15,4046.15,4096.92,4045.64,4067.18,4128.72,3951.79,4081.54,4123.59,4164.62,0
19_54_37,116,4080,4087.18,4106.15,4100,4115.38,4076.41,4103.59,4053.85,4084.62,4133.33,3966.67,4086.15,4135.9,4179.49,0
19_54_37,117,4054.36,4058.46,4088.72,4079.49,4071.79,4031.28,4083.59,4035.38,4073.85,4120.51,3949.23,4065.13,4107.18,4163.59,0
19_54_37,118,4050.77,4055.9,4082.56,4077.95,4053.85,4001.03,4068.72,4015.9,4058.46,4111.79,3935.9,4052.31,4094.36,4151.79,0
19_54_37,119,4067.18,4076.92,4088.21,4090.77,4079.49,4026.15,4073.85,4015.38,4048.21,4104.1,3935.9,4051.28,4107.18,4152.82,0
19_54_37,120,4050.77,4055.9,4078.97,4075.9,4070.26,4024.1,4083.08,4028.21,4034.87,4091.79,3924.1,4041.54,4093.85,4139.49,0
19_54_37,121,4034.87,4028.72,4072.82,4067.18,4051.28,4018.97,4095.9,4035.9,4053.33,4101.03,3917.95,4035.38,4070.77,4129.74,0
19_54_37,122,4052.82,4054.87,4081.54,4084.62,4077.95,4034.87,4100.51,4030.26,4074.87,4113.33,3927.69,4036.92,4078.97,4135.9,0
19_54_37,123,4044.1,4057.44,4069.74,4078.97,4077.95,4016.92,4083.59,4015.38,4031.28,4085.64,3910.77,4017.95,4077.44,4117.44,0
19_54_37,124,4027.69,4039.49,4066.15,4072.82,4062.56,4026.15,4082.05,4023.59,4018.97,4084.1,3896.41,4019.49,4072.82,4106.67,0
19_54_37,125,4033.33,4052.31,4071.79,4074.87,4067.69,4049.23,4085.13,4029.74,4059.49,4097.95,3894.36,4031.28,4073.85,4108.72,0
19_54_37,126,4031.79,4062.56,4070.26,4068.72,4059.49,4011.79,4073.85,4019.49,4035.9,4074.87,3885.13,4027.18,4065.64,4095.38,0
19_54_37,127,4033.33,4057.44,4069.74,4075.9,4057.44,4002.56,4075.38,4022.56,3997.95,4075.38,3897.44,4022.56,4080,4096.92,0
19_54_37,128,4043.08,4066.67,4075.38,4083.59,4069.74,4031.28,4076.41,4018.97,4028.21,4092.31,3913.85,4031.79,4094.36,4112.31,0
19_54_37,0,4066.67,4103.59,4086.67,4092.82,4083.59,4030.77,4076.92,4025.13,4075.9,4101.03,3924.62,4046.15,4108.21,4133.85,0
19_54_37,1,4080,4113.33,4095.38,4102.05,4068.72,4004.62,4078.97,4038.46,4056.92,4100,3930.26,4060,4133.33,4142.05,0
19_54_37,2,4075.9,4110.77,4089.74,4097.44,4052.82,3993.85,4067.18,4025.64,4030.26,4089.74,3937.44,4062.56,4153.33,4134.87,0
19_54_37,3,4076.92,4122.56,4091.28,4086.15,4058.97,3991.28,4066.15,4002.56,4034.87,4087.69,3937.95,4069.23,4149.74,4136.41,0
19_54_37,4,4077.44,4118.97,4095.38,4077.95,4053.85,3977.95,4067.18,3994.87,4022.05,4095.9,3922.56,4080.51,4147.69,4138.97,0
19_54_37,5,4078.46,4113.33,4108.21,4076.41,4037.95,3973.33,4050.77,4002.05,4009.74,4087.18,3917.44,4113.85,4165.13,4141.03,0
19_54_37,6,4106.15,4142.56,4137.95,4094.87,4068.21,4014.36,4074.36,4031.79,4042.05,4095.9,3948.21,4170.26,4196.92,4173.33,0
19_54_37,7,4141.03,4164.1,4161.03,4115.9,4104.1,4046.67,4115.38,4058.46,4061.54,4136.41,3987.18,4202.56,4225.64,4213.33,0
19_54_37,8,4113.85,4132.31,4138.46,4094.36,4068.72,4001.54,4089.74,4038.97,4027.69,4123.08,3981.54,4179.49,4195.38,4191.79,0
19_54_37,9,4093.85,4130.26,4133.33,4090.26,4064.62,3989.23,4069.23,4029.23,4023.08,4111.28,3981.54,4181.54,4170.26,4178.46,0
19_54_37,10,4105.13,4136.92,4144.62,4108.21,4097.95,4017.95,4097.95,4045.64,4048.72,4143.59,3989.74,4196.41,4180.51,4191.79,0
19_54_37,11,4087.18,4104.62,4126.67,4094.87,4083.08,3996.41,4108.21,4055.9,4069.23,4144.1,3971.28,4163.08,4162.56,4173.33,0
19_54_37,12,4082.05,4112.82,4121.03,4098.46,4089.23,3993.85,4109.74,4074.36,4090.26,4147.18,3985.13,4144.62,4157.44,4173.33,0
19_54_37,13,4080.51,4114.87,4114.87,4104.62,4103.59,4009.74,4107.18,4067.69,4070.26,4152.31,3994.36,4134.87,4152.82,4173.33,0
19_54_37,14,4050.77,4075.38,4090.77,4078.97,4077.95,3990.26,4091.79,4041.03,4040.51,4127.18,3953.85,4112.31,4107.69,4138.46,0
19_54_37,15,4037.44,4066.15,4081.03,4069.74,4067.18,3981.03,4094.36,4038.46,4038.46,4114.36,3929.74,4104.1,4085.64,4125.13,0
19_54_37,16,4052.31,4078.97,4093.33,4086.67,4080.51,3994.36,4109.74,4052.82,4047.69,4124.1,3941.03,4116.41,4102.56,4143.59,0
19_54_37,17,4054.36,4078.97,4093.33,4091.79,4078.97,3995.9,4115.38,4066.15,4058.97,4126.67,3946.67,4116.92,4102.05,4146.15,0
19_54_37,18,4056.41,4089.74,4096.41,4101.54,4084.62,3993.85,4108.21,4064.62,4062.05,4133.85,3948.21,4126.15,4095.9,4149.23,0
19_54_37,19,4062.05,4094.87,4096.41,4112.82,4092.31,4001.03,4104.1,4050.77,4050.77,4135.38,3955.38,4130.77,4104.1,4157.95,0
19_54_37,20,4034.87,4062.56,4081.54,4102.05,4072.82,4016.92,4126.15,4046.67,4023.08,4096.92,3930.26,4114.36,4078.97,4138.97,0
19_54_37,21,4030.77,4049.74,4074.36,4107.18,4080,4011.79,4125.64,4052.31,4018.46,4085.64,3905.64,4104.62,4061.54,4128.21,0
19_54_37,22,4092.31,4069.23,4087.69,4121.54,4122.56,3977.95,4093.33,4057.95,4045.64,4127.18,3953.85,4114.87,4094.36,4165.13,0
19_54_37,23,4124.62,4064.1,4081.03,4100,4128.21,3947.69,4092.82,4054.36,4042.05,4128.21,4001.03,4108.72,4100.51,4193.85,0
19_54_37,24,4115.38,4063.59,4077.95,4102.05,4127.18,3954.87,4126.67,4047.18,4031.28,4106.15,3994.36,4104.1,4082.05,4192.31,0
19_54_37,25,4136.92,4100.51,4100,4150.26,4173.33,3981.54,4138.97,4058.97,4072.82,4143.59,4009.74,4125.13,4111.28,4205.13,0
19_54_37,26,4134.87,4105.13,4104.1,4168.72,4198.97,3988.21,4133.33,4069.23,4091.28,4177.95,4041.03,4126.15,4135.38,4215.9,0
19_54_37,27,4087.18,4087.18,4092.82,4168.72,4189.74,3996.92,4148.21,4058.97,4062.05,4158.46,4027.18,4102.05,4115.9,4210.77,0
19_54_37,28,4058.46,4073.33,4084.1,4182.05,4170.26,3969.74,4134.87,4043.59,4041.54,4127.18,3986.67,4084.1,4090.26,4194.87,0
19_54_37,29,4075.9,4067.69,4092.31,4212.82,4166.67,3954.36,4112.82,4051.28,4056.92,4132.31,4008.21,4093.33,4103.08,4200,0
19_54_37,30,4092.82,4100,4107.18,4271.28,4206.67,4018.97,4126.15,4064.62,4080,4161.03,4051.79,4100.51,4137.44,4223.08,0
19_54_37,31,4034.87,4096.41,4084.62,4318.97,4203.08,4055.9,4095.9,4032.82,4035.9,4130.26,4034.36,4072.82,4100,4185.64,0
19_54_37,32,3936.92,4014.87,4039.49,4328.72,4116.41,4055.38,4012.31,3980,3961.54,4048.21,4114.87,4033.85,4001.54,4105.64,0
19_54_37,33,3936.92,3996.41,4054.36,4357.95,4088.21,4141.54,4000.51,3983.08,3980.51,4051.79,4445.13,4049.74,3991.79,4111.28,0
19_54_37,34,4000.51,4057.95,4087.18,4397.95,4130.26,4244.1,4047.69,4017.44,4027.69,4119.49,4798.46,4070.77,4054.87,4172.31,0
19_54_37,35,3985.13,4050.77,4066.67,4375.38,4093.33,4208.72,4044.62,4008.21,4009.23,4111.79,4934.87,4043.08,4041.54,4164.62,0
19_54_37,36,3941.54,4009.74,4044.62,4337.44,4019.49,4134.87,4021.54,3992.82,3987.18,4075.9,4978.46,4012.82,3998.46,4135.38,0
19_54_37,37,3956.92,4017.44,4057.44,4330.26,4015.38,4136.41,4027.18,3994.36,3976.92,4089.74,5021.54,4023.08,4005.64,4143.59,0
19_54_37,38,3991.28,4035.9,4070.77,4331.79,4055.38,4167.69,4040,4001.03,3980,4116.41,5027.69,4040.51,4030.77,4159.49,0
19_54_37,39,4020,4056.41,4084.62,4338.97,4078.46,4178.46,4055.9,4026.67,4023.59,4134.36,5017.44,4058.97,4050.77,4183.08,0
19_54_37,40,4027.18,4072.31,4089.74,4336.92,4064.62,4152.82,4058.46,4029.74,4027.18,4129.74,4971.28,4073.85,4050.77,4194.36,0
19_54_37,41,4000.51,4049.23,4082.56,4314.36,4029.74,4118.97,4039.49,3987.18,3971.28,4090.26,4875.9,4083.59,4030.77,4167.69,0
19_54_37,42,3981.54,4011.79,4080,4299.49,4006.67,4098.97,4030.26,3956.41,3946.67,4063.59,4785.13,4090.77,4028.21,4139.49,0
19_54_37,43,4009.74,4038.97,4096.41,4313.33,4034.87,4112.31,4052.82,3989.23,3998.97,4097.44,4750.77,4106.67,4049.23,4152.82,0
19_54_37,44,4032.82,4107.69,4105.64,4335.9,4085.13,4143.08,4094.36,4026.15,4032.82,4131.79,4761.03,4118.97,4064.1,4169.74,0
19_54_37,45,3995.38,4092.82,4080.51,4320,4061.03,4089.23,4082.56,3991.79,3965.64,4091.79,4729.23,4098.97,4040,4130.26,0
19_54_37,46,3972.82,4036.92,4068.21,4286.67,4012.82,4008.72,4042.05,3971.79,3953.33,4060,4676.92,4091.28,4019.49,4097.44,0
19_54_37,55,3989.74,4051.79,4005.13,4253.33,4040,3995.9,4037.95,4016.92,3977.95,4056.92,4544.62,3934.36,4013.33,4066.67,0
19_54_37,56,4022.56,4071.79,4032.82,4270.77,4067.18,4004.62,4050.77,4040,4005.13,4076.92,4552.82,3964.62,4053.85,4101.03,0
19_54_37,57,4049.74,4103.08,4051.79,4289.74,4105.13,4048.21,4074.87,4061.54,4028.72,4117.95,4573.85,3986.67,4100.51,4139.49,0
19_54_37,58,4016.92,4076.92,4015.9,4264.62,4089.23,4049.23,4080.51,4036.92,4003.59,4112.82,4516.92,3933.85,4077.44,4120.51,0
19_54_37,59,3978.97,4030.77,3984.62,4230.77,4044.62,3993.33,4057.44,3998.97,3970.77,4075.38,4474.36,3896.41,4033.85,4098.97,0
19_54_37,60,4013.85,4045.64,4023.59,4246.15,4058.97,4003.08,4060,4024.62,4008.72,4094.87,4549.74,3958.46,4059.49,4147.18,0
19_54_37,61,4062.56,4083.59,4065.64,4275.38,4098.97,4060,4091.28,4068.21,4052.82,4143.08,4607.69,4022.05,4101.03,4202.05,0
19_54_38,78,4132.31,4141.03,4094.36,4277.44,4136.92,4091.28,4111.28,4069.74,4106.67,4183.59,4211.79,4053.33,4154.87,4165.64,0
19_54_38,79,4150.77,4145.13,4098.97,4280,4145.13,4093.85,4123.59,4072.31,4109.23,4202.56,4168.21,4058.46,4170.77,4174.87,0
19_54_38,80,4169.23,4159.49,4111.79,4280,4167.18,4116.41,4141.54,4085.13,4158.97,4223.08,4176.92,4058.46,4184.1,4184.62,0
19_54_38,81,4167.69,4171.28,4126.15,4282.56,4188.72,4126.67,4148.72,4110.77,4182.56,4234.87,4149.23,4062.56,4193.85,4196.92,0
19_54_38,82,4143.59,4163.59,4122.56,4271.28,4174.36,4097.44,4130.26,4097.95,4151.28,4223.59,4114.36,4060,4182.56,4186.67,0
19_54_38,83,4115.9,4143.08,4105.13,4244.62,4139.49,4085.13,4107.18,4057.95,4111.28,4188.21,4086.15,4043.59,4143.08,4154.36,0
19_54_38,84,4117.95,4156.92,4110.26,4248.21,4133.33,4120,4107.69,4063.59,4094.36,4181.54,4068.72,4050.77,4139.49,4151.28,0
19_54_38,85,4123.59,4172.82,4111.79,4265.13,4141.54,4132.31,4113.33,4081.54,4095.9,4181.54,4064.62,4054.87,4154.36,4152.82,0
19_54_38,86,4121.54,4171.28,4103.59,4268.21,4149.23,4133.33,4110.26,4079.49,4123.59,4159.49,4063.08,4048.72,4148.72,4146.67,0
19_54_38,87,4122.56,4175.38,4102.05,4266.15,4152.31,4148.21,4106.15,4078.97,4118.97,4146.15,4051.28,4046.67,4141.54,4151.79,0
19_54_38,88,4101.03,4157.44,4090.26,4251.28,4127.18,4134.36,4102.56,4065.64,4052.82,4130.77,4021.54,4036.92,4114.36,4130.26,0
19_54_38,89,4091.28,4147.69,4077.95,4245.13,4123.08,4133.85,4109.23,4056.92,4060,4120,4000,4026.67,4100.51,4109.23,0
19_54_38,90,4104.62,4158.46,4079.49,4250.26,4132.31,4132.31,4100.51,4064.62,4110.26,4116.41,3987.18,4037.95,4107.18,4112.31,0
19_54_38,107,4133.33,4101.03,4085.13,4117.44,6822.56,4152.82,4090.77,4055.38,4061.54,4143.08,5837.44,4036.92,4125.13,4307.69,0
19_54_38,108,4074.87,4036.92,4035.38,4066.15,7880,4093.85,4056.92,4008.72,3988.21,4051.79,5714.36,3983.59,4043.08,4233.85,0
19_54_38,109,4072.82,4044.1,4023.08,4049.74,7435.38,4105.13,4076.92,4015.9,4015.9,4048.21,5651.28,3965.64,4031.28,4211.79,0
19_54_38,110,4106.15,4103.59,4017.44,4089.74,7166.15,4165.64,4115.9,4056.92,4067.69,4125.64,5666.15,3937.95,4106.67,4237.95,0
19_54_38,111,4086.15,4092.31,3977.44,4088.72,7134.36,4157.95,4100.51,4052.31,4043.59,4125.64,5611.79,3873.85,4115.9,4213.85,0
19_54_38,112,4068.72,4064.62,3969.23,4055.9,6789.74,4121.03,4081.54,4036.41,4030.77,4095.38,5516.41,3856.41,4080.51,4189.23,0
19_54_38,113,4113.33,4092.31,4023.08,4062.56,6583.59,4146.67,4117.44,4062.56,4081.03,4131.79,5497.95,3907.18,4115.38,4241.54,0
19_54_38,114,4146.15,4103.59,4049.74,4072.82,6472.82,4168.72,4147.18,4083.59,4101.03,4150.26,5487.18,3925.64,4154.36,4278.97,0
19_54_38,115,4129.23,4060,4033.33,4037.44,6278.97,4111.28,4116.41,4063.59,4066.15,4112.31,5401.03,3910.26,4115.9,4249.23,0
19_54_38,3,7694.36,5025.13,6374.36,4061.03,8005.13,4417.44,4402.05,4325.13,4349.23,4171.28,3892.82,4273.33,4484.1,4473.33,0
19_54_38,12,7634.36,6584.62,3264.62,4023.59,3695.9,3165.64,3557.44,3594.87,3306.15,3846.15,4070.26,3867.69,3540.51,7671.28,0
19_54_38,21,3264.62,4066.67,2628.21,4054.87,3668.21,2380,3069.23,2909.23,2452.82,3965.13,3998.97,1779.49,3382.05,6528.72,0
19_54_38,22,3393.85,4063.59,2963.59,4053.85,3683.08,2386.15,3197.44,3167.69,2545.64,4317.44,4285.64,1445.13,4894.36,5443.59,0
19_54_38,23,3961.54,4072.82,2955.9,4067.69,3708.21,3571.28,4307.18,4199.49,3741.54,4143.08,4134.87,2026.67,4158.46,5594.87,0
19_54_38,24,4144.1,4075.9,2936.41,4073.33,3722.05,4491.28,5188.72,4981.03,4762.56,4055.9,4068.72,2174.36,3997.44,3632.82,0
19_54_38,25,4161.54,4069.23,3181.03,4053.85,3730.77,4871.79,5477.95,5179.49,5098.46,3986.15,4044.62,1613.33,4365.13,495.897,0
19_54_38,26,4330.26,4054.36,3345.13,4039.49,3729.23,5611.79,5967.18,5626.67,5755.38,3940,4042.05,1324.62,4189.74,213.846,0
19_54_38,27,4276.92,4046.67,3289.23,4049.23,3729.74,5636.41,6022.56,5889.23,6080.51,4152.82,4198.46,1547.18,4248.72,1428.21,0
19_54_38,28,4018.97,4053.33,3319.49,4049.23,3752.82,4515.9,5730.77,5794.36,6035.38,4215.9,4246.15,1627.18,4324.62,1670.77,0
19_54_38,29,3907.69,4050.77,3525.13,4048.72,3760,3392.82,5715.38,5693.33,6418.97,3889.23,4058.46,1585.64,4134.87,2111.28,0
19_54_38,30,3760.51,4020.51,3651.28,4055.38,3775.9,2664.1,5622.56,5472.31,6455.38,3763.08,3983.08,1570.26,4107.69,2940.51,0
19_54_38,31,3572.82,3973.85,3708.72,4051.79,3915.9,2833.33,5421.54,5192.82,5978.97,4022.56,4127.69,1800,4215.38,3627.18,0
19_54_38,32,3469.23,3952.82,3796.41,4037.95,4030.26,2988.72,5430.77,4971.79,5798.97,4063.08,4145.13,2163.08,4165.64,3818.46,0
19_54_38,33,3424.1,4010.26,3828.72,4057.95,3928.72,2845.13,5341.03,4729.23,5783.59,4061.03,4160,2611.28,4143.59,3713.85,0
19_54_38,34,3388.72,4063.59,3741.03,4077.44,3786.15,3304.1,5184.1,4666.67,5710.77,4102.56,4146.67,2985.64,4172.82,3611.28,0
19_54_38,35,3392.31,4056.41,3687.18,4072.31,3807.18,3889.23,4972.31,4496.41,5509.23,4073.85,4096.41,3126.15,4155.38,3535.38,0
19_54_38,36,3423.08,4028.21,3745.13,4068.21,3857.95,4060.51,4960.51,4360.51,5206.67,4051.28,4095.9,3221.03,4133.33,3529.74,0
19_54_38,45,3197.95,3914.87,3396.41,3785.13,3447.69,3288.72,6242.56,6385.13,3768.21,4296.92,3984.1,4124.1,4136.92,3730.77,0
19_54_38,46,3273.85,3903.08,3396.92,3772.31,3474.87,3171.28,6092.31,6392.31,3873.85,4114.36,4076.92,4078.97,4117.95,3598.97,0
19_54_38,47,3274.36,3791.28,3216.92,3814.87,3382.05,3279.49,5881.54,6048.72,4167.69,4094.87,4116.41,4116.41,4116.41,3493.85,0
19_54_38,48,3141.54,3710.26,2972.31,3918.46,3289.23,3445.13,6298.46,6329.74,4161.54,4139.49,4098.46,3998.97,4141.03,3525.64,0
19_54_38,49,3126.67,3526.15,2716.92,3914.87,3263.08,3532.82,6904.62,7146.67,3341.54,4097.95,4111.28,3732.31,4120.51,3546.67,0
19_54_38,50,3492.31,3332.31,2491.79,3742.56,3294.36,3401.54,6984.62,7166.15,2726.15,4048.72,4199.49,3584.1,4153.33,3418.46,0
19_54_38,51,3896.92,3540.51,2631.79,3658.46,3278.46,3276.41,6697.95,6549.74,2990.26,4032.31,4266.15,3535.38,4256.92,3411.28,0
19_54_38,52,3781.54,3888.21,3071.79,3740.51,3147.18,3587.18,6776.92,5914.36,3085.64,4013.33,4148.72,3665.64,4262.56,3719.49,0
19_54_38,53,3423.59,3890.26,3439.49,3772.31,3277.44,4038.46,6352.31,5701.03,2857.44,4013.33,3935.38,3950.26,4195.9,3955.38,0
19_54_38,54,3507.69,3887.18,3825.13,3790.26,3725.64,4160.51,4804.1,5368.72,3281.54,3996.41,3896.92,4062.05,4217.95,3978.97,0
19_54_38,55,4033.85,4133.33,4251.79,3825.13,3917.44,4108.72,3297.44,4740.51,3971.79,3905.64,3976.41,4012.82,4277.95,4105.64,0
19_54_38,56,4361.54,4261.03,4692.82,3803.08,3800,4092.31,2561.54,4373.33,4029.74,3830.77,3951.79,4058.97,4302.56,4270.26,0
19_54_38,57,4200,4170.26,5103.59,3800.51,3733.33,4067.69,2298.46,4546.15,3836.92,3826.15,3988.21,4056.41,4272.31,4098.46,0
19_54_38,58,4069.23,4032.82,5136.41,3893.33,3521.03,4054.87,2527.18,4680.51,3890.77,3773.85,4167.18,4015.38,4201.03,3779.49,0
19_54_38,59,3868.72,3926.67,4956.41,3994.36,3131.79,4067.69,3240,4451.28,4005.13,3651.28,4212.82,4089.23,4140,3658.97,0
19_54_38,60,3273.85,3915.38,5097.95,4070.26,3160,4110.77,3705.64,4570.77,4011.28,3542.05,4109.23,4171.79,4056.41,3790.26,0
19_54_38,61,2959.49,3958.46,5550.77,4151.28,3582.05,4203.08,4026.15,4137.95,4045.13,3556.92,4058.46,4235.38,4022.05,3963.59,0
19_54_38,62,2150.77,3920.51,6723.59,4107.69,3715.9,4186.67,3406.67,3902.56,4044.62,3725.13,4095.38,4284.1,4025.64,3754.36,0
19_54_38,63,904.103,3953.85,7869.74,4094.36,3612.82,4180,1871.28,5298.46,4012.82,3895.38,4158.97,4346.15,4011.28,3578.46,0
19_54_38,64,2234.87,4176.41,7253.85,4312.31,3842.05,4394.36,402.564,6010.77,4139.49,3991.79,4217.95,4522.05,4227.18,4243.59,0
19_54_38,65,5218.46,4100.51,5353.33,4271.28,3985.13,4386.67,733.846,4875.38,4133.85,4008.21,4093.33,4356.92,4504.62,4937.44,0
19_54_38,66,6511.79,3945.13,4454.87,4164.1,3753.85,4335.9,3271.28,2942.05,4101.03,4043.59,4006.67,4409.74,4529.23,4632.31,0
19_54_38,67,6610.26,4250.26,4892.82,4692.31,3971.79,4793.33,5307.18,1368.21,4407.69,4148.21,4209.23,4868.72,4480.51,4014.36,0
19_54_38,68,6321.54,4433.85,5030.26,5123.08,4538.46,5081.03,4839.49,199.487,4591.79,4180,4293.33,4724.62,4506.67,4154.87,0
19_54_38,69,4816.92,4010.26,4313.33,4387.18,4424.1,4589.74,3823.59,1258.46,4073.33,4016.41,4182.56,5147.18,4176.41,3835.38,0
19_54_38,70,3705.13,3887.18,3792.82,3589.23,3994.87,4244.1,4012.31,3404.1,3595.38,3832.31,4149.23,6849.23,3829.23,2499.49,0
19_54_38,71,3923.59,4207.18,3945.64,3840.51,3884.62,4358.97,4138.97,3257.95,3859.49,3830.77,3958.97,7146.67,4064.1,2577.44,0
19_54_38,72,3807.18,4161.03,4024.62,4237.95,3558.97,4236.41,3856.41,2918.46,4097.44,3983.59,3847.69,5599.49,4275.38,4320,0
19_54_38,73,3392.82,3905.13,3863.59,4142.56,3472.31,4032.82,3794.36,5197.44,3934.87,4025.13,4043.59,4817.95,4155.38,5111.28,0
19_54_38,74,3421.03,4002.56,3980.51,4034.87,3781.03,4071.79,3825.64,6544.1,4042.56,3927.69,4104.1,4687.18,4081.54,4515.9,0
19_54_38,75,3707.18,4229.23,4141.54,4101.03,3545.13,4183.08,4023.59,4469.74,4388.72,4040.51,4268.21,4199.49,4062.56,4112.31,0
19_54_38,76,3799.49,4163.59,4153.85,4037.95,3536.41,4249.23,4132.31,3213.33,4303.08,4330.26,4655.38,4146.67,3876.41,3801.54,0
19_54_38,77,3675.38,4098.97,4115.9,3869.74,4177.95,4248.21,4091.79,3903.59,4052.82,4342.05,4576.41,4532.31,3816.41,3382.05,0
19_54_38,78,3641.54,4195.9,4026.67,3929.74,4162.05,4203.08,4065.13,3932.82,4156.92,4162.56,4231.79,4762.56,4032.82,3601.03,0
19_54_38,79,3694.36,4133.85,3928.21,4190.77,3654.36,4198.97,4038.46,3597.95,4218.46,4158.97,4216.92,4892.31,4151.79,3944.62,0
19_54_38,80,3735.38,4007.18,3920.51,4245.64,3756.41,4261.03,4016.92,3806.67,4125.64,4202.05,4188.72,4946.15,4139.49,3834.36,0
19_54_39,81,3764.62,4100.51,4074.87,4081.03,3964.62,4325.13,4027.69,3815.9,4132.31,4177.44,3979.49,4835.9,4169.74,3659.49,0
19_54_39,82,3736.92,4130.77,4205.13,4084.1,3841.03,4333.85,4050.77,3748.21,4152.31,4115.38,4075.9,4682.56,4198.97,3790.77,0
19_54_39,83,3709.74,4044.62,4249.74,4170.77,3861.54,4333.33,4057.44,3766.67,4169.23,4072.31,4130.77,4517.95,4141.54,3761.03,0
19_54_39,84,3695.9,4126.15,4285.13,4037.44,3899.49,4374.87,4105.64,3821.54,4222.56,4237.44,3667.18,4245.13,4159.49,3457.44,0
19_54_39,85,3712.31,4186.67,4291.79,3997.44,3900.51,4350.26,4114.36,3936.92,4179.49,4264.1,3414.87,3957.44,4336.92,3699.49,0
19_54_39,86,3871.79,4177.95,4204.1,4217.44,3802.56,4198.97,3991.79,3962.56,4129.23,4044.62,3861.03,3969.23,4473.33,4329.74,0
19_54_39,87,3939.49,4213.85,4093.85,4357.44,3596.92,4110.77,3914.87,3940,4207.18,3917.44,4083.59,4202.56,4487.69,4396.41,0
19_54_39,88,3878.97,4168.21,4084.1,4311.28,3585.64,4178.97,4019.49,3949.23,4094.36,3739.49,3817.95,4438.46,4428.72,4129.23,0
19_54_39,89,3918.97,4054.36,4113.33,4177.95,3680,4233.33,4090.77,3884.62,3891.79,3522.56,4033.33,4723.59,4308.72,4113.85,0
19_54_39,90,3878.46,4051.28,4170.77,4049.74,3761.03,4236.92,4050.77,3766.15,3996.92,3753.33,4461.03,4947.18,4180.51,3876.92,0
19_54_39,91,3557.95,4130.26,4215.9,4053.85,3868.21,4272.82,4064.62,3833.85,4152.82,4070.26,4313.33,4899.49,4026.67,3370.26,0
19_54_39,92,3283.59,4162.05,4183.59,4147.69,3969.23,4303.08,4110.26,4031.79,4148.72,3953.85,3968.21,4639.49,3960,3351.28,0
19_54_39,93,3308.72,4103.59,4120,4153.85,4060,4294.87,4096.41,4047.69,4223.08,3954.36,3830.26,4425.13,4157.95,3664.62,0
19_54_39,94,3451.79,4011.79,4048.21,4095.38,4136.41,4309.74,4109.23,3917.95,4263.59,4099.49,3986.67,4301.03,4322.05,3765.13,0
19_54_39,95,3563.08,3992.82,3962.56,4047.18,4084.1,4337.44,4163.59,3881.03,4086.67,4008.72,4232.31,4145.13,4224.1,3840,0
19_54_39,96,3648.21,4014.87,3924.62,4004.1,3952.82,4331.79,4166.15,3906.67,4065.64,3996.92,4191.28,4267.69,4137.95,3927.18,0
19_54_39,97,3682.05,4013.85,3896.41,4029.23,3955.38,4327.69,4117.95,3873.85,4205.64,4094.87,3991.79,4639.49,4180,3806.15,0
19_54_39,98,3625.13,4055.38,3915.9,4096.41,4000,4326.15,4090.77,3868.72,4138.97,4070.77,4032.31,4858.46,4104.1,3655.9,0
19_54_39,99,3465.13,4108.72,4015.38,4118.97,3953.85,4293.33,4096.41,3918.46,4090.26,4078.97,4092.82,4890.77,4022.05,3557.44,0
19_54_39,100,3376.92,4094.36,4169.74,4124.1,3910.77,4260,4095.9,3895.38,4193.85,4156.92,3981.54,4757.95,4101.03,3576.92,0
19_54_39,101,3489.74,4068.72,4291.79,4134.87,3927.69,4257.44,4091.28,3857.95,4208.72,4120.51,3970.77,4392.31,4116.92,3625.64,0
19_54_39,102,3650.26,4072.82,4230.26,4114.87,3950.26,4268.72,4096.92,3888.21,4164.62,4095.9,3957.95,4095.9,4084.62,3613.33,0
19_54_39,103,3591.79,4064.62,4000.51,4091.28,3935.9,4267.69,4093.33,3885.64,4167.18,4153.33,3970.26,4159.49,4130.26,3854.87,0
19_54_39,104,3492.31,4025.13,3911.28,4082.05,3923.59,4265.64,4088.21,3841.03,4121.03,4135.9,4168.21,4306.67,4183.08,4154.87,0
19_54_39,105,3600,4008.21,4028.21,4061.03,3935.38,4269.23,4092.31,3830.77,4083.59,4093.33,4218.46,4350.77,4184.62,4017.44,0
19_54_39,106,3680,4042.56,4096.92,4060,3946.15,4263.08,4087.18,3837.44,4142.56,4121.54,4059.49,4437.95,4123.59,3701.03,0
19_54_39,107,3515.38,4086.67,4126.67,4095.38,3939.49,4237.44,4066.15,3843.59,4176.41,4120,4020.51,4587.69,4026.67,3676.92,0
19_54_39,108,3386.15,4087.18,4181.54,4107.18,3921.03,4217.95,4049.74,3864.62,4163.08,4084.1,4002.56,4669.74,4036.92,3706.15,0
19_54_39,109,3487.18,4046.67,4189.23,4109.74,3916.41,4227.18,4055.9,3885.13,4146.67,4096.92,3969.23,4608.72,4115.38,3629.23,0
19_54_39,110,3637.95,4041.54,4149.74,4123.59,3928.72,4235.38,4065.64,3866.67,4114.36,4101.54,4080.51,4445.13,4093.85,3632.31,0
19_54_39,111,3720.51,4076.41,4060.51,4104.62,3944.62,4233.85,4065.64,3834.36,4121.03,4096.92,4101.54,4362.05,4091.79,3710.26,0
19_54_39,112,3709.74,4078.97,3927.69,4076.41,3954.36,4232.82,4054.87,3817.44,4156.41,4117.95,4010.26,4397.44,4156.41,3837.95,0
19_54_39,113,3682.05,4054.87,3895.38,4078.97,3956.41,4222.05,4038.46,3825.64,4131.28,4117.44,4067.69,4468.72,4172.82,3910.77,0
19_54_39,114,3664.1,4060.51,3971.79,4073.33,3956.41,4205.13,4013.33,3835.9,4115.38,4100,4129.74,4521.03,4173.85,3841.03,0
19_54_39,115,3620.51,4087.69,4053.33,4062.56,3958.46,4207.69,4001.54,3840,4151.28,4095.9,4083.08,4612.82,4164.1,3732.31,0
19_54_39,116,3573.85,4084.62,4112.31,4080,3947.18,4219.49,4010.77,3863.59,4166.15,4098.97,4050.77,4681.03,4094.87,3686.67,0
19_54_39,117,3585.13,4061.54,4150.77,4098.46,3927.18,4232.31,4035.9,3896.92,4155.9,4091.28,4053.85,4666.67,4058.97,3700.51,0
19_54_39,118,3644.1,4043.59,4136.92,4089.23,3936.92,4256.92,4073.33,3914.87,4145.64,4085.64,4060,4587.69,4109.23,3694.36,0
19_54_39,119,3691.28,4037.95,4085.64,4089.23,3955.9,4269.74,4103.08,3922.56,4150.77,4098.46,4069.23,4483.59,4134.87,3708.21,0
19_54_39,120,3725.64,4044.1,4032.31,4100,3959.49,4266.67,4117.44,3926.67,4167.18,4118.46,4061.03,4402.56,4110.26,3746.67,0
19_54_39,121,3717.95,4050.77,3986.67,4089.23,3967.18,4271.28,4136.92,3932.31,4167.69,4118.97,4053.33,4397.95,4111.28,3756.41,0
19_54_39,122,3668.72,4047.69,3980,4078.97,3976.41,4273.33,4152.82,3940,4165.64,4112.82,4057.95,4456.92,4133.85,3713.85,0
19_54_39,123,3637.95,4043.08,4010.26,4083.59,3977.44,4266.67,4147.18,3943.59,4173.85,4115.9,4063.08,4506.15,4124.1,3650.26,0
19_54_39,124,3627.18,4054.87,4064.62,4083.08,3982.56,4265.64,4141.03,3945.13,4168.72,4108.21,4057.95,4555.38,4081.03,3608.72,0
19_54_39,125,3616.41,4048.72,4097.44,4077.44,3985.64,4263.59,4136.92,3940,4164.62,4096.92,4041.03,4587.69,4055.38,3628.72,0
19_54_39,126,3620.51,4025.64,4095.9,4087.69,3985.13,4256.92,4122.05,3932.31,4175.38,4097.44,4027.69,4580,4050.26,3691.28,0
19_54_39,127,3641.54,4037.44,4084.1,4093.33,3985.13,4249.23,4108.21,3931.28,4164.1,4098.97,4035.9,4536.92,4052.82,3693.85,0
19_54_39,128,3683.08,4052.82,4053.33,4081.54,3980.51,4243.59,4100.51,3934.87,4145.13,4100,4060,4491.79,4094.87,3701.54,0
19_54_39,0,3733.85,4027.69,4019.49,4086.15,3979.49,4235.9,4085.13,3928.21,4153.33,4102.05,4045.13,4469.23,4127.69,3739.49,0
19_54_39,1,3743.08,4034.36,4072.31,4146.67,3955.9,4221.54,4068.72,3919.49,4144.1,4100.51,4076.92,4463.08,4092.82,3752.82,0
19_54_39,2,3720.51,4098.46,4167.18,4203.08,3915.9,4193.85,4034.36,3914.87,4109.23,4085.64,4187.69,4421.03,4066.15,3781.03,0
19_54_39,3,3723.59,4091.79,4231.28,4169.23,3921.03,4175.9,4021.54,3921.03,4114.36,4068.21,4191.28,4355.9,4108.72,3816.41,0
19_54_39,4,3706.67,3996.41,4251.79,4116.92,3957.95,4186.15,4065.64,3926.15,4162.56,4083.59,4092.82,4328.21,4103.59,3798.97,0
19_54_39,5,3646.15,3956.92,4225.13,4119.49,3965.13,4195.38,4095.9,3917.95,4160.51,4078.46,4071.28,4391.28,4044.1,3787.69,0
19_54_39,6,3590.26,4006.15,4153.33,4093.33,3950.77,4193.33,4080,3916.41,4124.62,4023.08,4087.69,4496.41,4096.92,3805.13,0
19_54_39,7,3592.31,4065.64,4092.82,4046.67,3957.95,4213.85,4071.79,3924.1,4136.41,4026.15,4062.05,4547.18,4180.51,3747.18,0
19_54_39,8,3643.08,4032.82,4072.82,4066.67,3967.69,4230.77,4077.44,3917.44,4165.13,4092.31,4049.23,4517.44,4147.18,3736.92,0
19_54_39,9,3720.51,3906.15,4075.9,4119.49,3935.38,4220,4073.33,3896.92,4171.79,4107.18,4039.49,4469.74,4112.31,3874.36,0
19_54_39,10,3833.33,3892.82,4085.64,4136.92,3868.21,4224.1,4075.9,3894.87,4171.28,4088.72,4022.05,4478.46,4137.95,3848.72,0
19_54_39,11,3916.92,4056.92,4074.87,4136.41,3802.05,4220.51,4066.15,3906.15,4170.77,4093.85,4037.44,4528.72,4120.51,3601.54,0
19_54_39,12,3891.79,4117.44,4081.03,4132.82,3826.67,4210.26,4073.85,3922.05,4164.1,4090.26,4043.59,4565.13,4086.15,3482.05,0
19_54_39,13,3851.28,3986.15,4090.26,4130.77,3948.72,4251.79,4103.08,3925.13,4147.69,4089.74,4042.05,4550.26,4095.38,3511.79,0
19_54_39,14,3864.62,3929.23,4083.59,4127.69,4033.85,4291.28,4108.72,3909.74,4147.69,4103.59,4092.31,4524.1,4084.62,3503.59,0
19_54_39,15,3849.23,4007.69,4069.23,4120,4015.38,4257.95,4088.21,3897.44,4157.95,4102.05,4125.64,4519.49,4058.97,3497.44,0
19_54_39,16,3812.31,4047.18,4082.05,4130.26,3995.9,4235.38,4085.64,3906.15,4151.28,4100,4073.85,4543.08,4070.26,3547.18,0
19_54_39,17,3808.21,4030.26,4096.92,4131.28,4023.59,4255.38,4089.23,3914.36,4141.03,4115.38,4052.82,4543.59,4095.38,3556.92,0
19_54_39,18,3788.72,4035.9,4104.62,4114.87,4025.64,4248.21,4083.08,3908.72,4150.77,4126.67,4131.79,4518.97,4087.69,3561.03,0
19_54_39,19,3777.95,4058.97,4101.54,4108.72,4002.05,4219.49,4073.33,3901.03,4157.95,4113.33,4163.08,4513.33,4069.74,3588.21,0
19_54_39,20,3824.1,4067.18,4094.87,4105.13,3992.82,4211.28,4068.21,3910.26,4145.13,4102.56,4110.26,4544.1,4081.54,3602.56,0
19_54_39,21,3840,4059.49,4102.05,4077.95,3992.82,4210.26,4072.31,3924.1,4143.59,4113.33,4104.62,4562.56,4092.31,3596.92,0
19_54_39,22,3788.21,4056.41,4129.23,4050.77,3993.33,4205.13,4078.97,3916.41,4146.15,4106.15,4153.33,4552.82,4085.64,3616.92,0
19_54_39,23,3741.03,4061.54,4143.08,4057.95,3990.26,4197.44,4075.38,3895.9,4137.44,4097.44,4148.21,4522.56,4088.21,3714.36,0
19_54_39,24,3744.62,4067.18,4130.77,4086.67,3991.28,4191.79,4066.67,3897.95,4141.03,4115.9,4071.28,4500,4101.03,3772.31,0
19_54_39,25,3754.87,4066.15,4126.67,4091.28,3994.36,4193.85,4069.23,3924.62,4162.56,4117.95,4002.05,4475.9,4098.46,3710.77,0
19_54_39,26,3764.62,4060,4122.05,4083.08,3994.36,4198.46,4072.82,3941.54,4161.03,4102.05,4002.56,4466.15,4102.05,3697.95,0
19_54_39,27,3801.54,4055.38,4105.64,4091.28,4013.85,4209.23,4072.31,3937.95,4134.36,4111.28,4034.87,4493.85,4111.28,3764.62,0
19_54_39,28,3817.44,4050.26,4076.92,4092.82,4043.59,4226.15,4073.33,3930.26,4120,4121.54,4067.18,4536.41,4101.54,3802.56,0
19_54_39,29,3786.15,4042.05,4071.28,4096.41,4038.97,4233.33,4079.49,3926.15,4126.15,4107.18,4114.36,4553.33,4091.28,3790.26,0
19_54_39,30,3747.18,4023.59,4105.13,4133.85,4005.64,4216.41,4073.33,3918.46,4131.28,4095.9,4134.87,4552.31,4108.21,3774.87,0
19_54_39,31,3740,4015.38,4129.74,4158.97,3991.28,4204.1,4075.9,3918.97,4133.33,4086.67,4111.79,4552.82,4123.59,3758.46,0
19_54_39,32,3749.23,4035.38,4093.85,4126.67,3988.21,4194.87,4077.44,3927.69,4136.41,4082.56,4102.05,4570.77,4115.9,3769.74,0
19_54_39,33,3769.23,4064.1,4078.46,4092.31,3985.64,4182.56,4068.72,3937.44,4140,4091.79,4102.05,4593.33,4108.72,3792.31,0
19_54_39,34,3796.41,4087.18,4098.46,4084.1,3990.26,4171.79,4059.49,3940,4141.54,4101.54,4088.72,4584.62,4116.92,3784.1,0
19_54_39,35,3820,4100.51,4090.26,4082.56,3996.41,4169.74,4065.64,3944.62,4135.9,4106.67,4080.51,4582.05,4122.56,3773.33,0
19_54_39,36,3833.85,4097.95,4068.72,4080.51,4001.54,4170.77,4064.62,3944.62,4135.38,4113.33,4081.03,4599.49,4127.18,3778.46,0
19_54_39,37,3831.28,4090.26,4086.67,4082.56,4011.28,4179.49,4061.03,3938.97,4144.1,4113.85,4081.03,4613.33,4125.64,3807.18,0
19_54_39,38,3814.87,4084.1,4101.54,4092.82,4008.72,4186.67,4065.13,3932.31,4142.05,4106.15,4085.13,4613.33,4125.64,3840.51,0
19_54_39,39,3802.05,4076.41,4104.62,4107.18,3992.82,4187.18,4077.44,3933.85,4131.28,4098.46,4097.44,4626.67,4131.28,3859.49,0
19_54_39,40,3805.64,4076.92,4103.08,4109.23,3989.74,4189.23,4076.41,3939.49,4131.79,4098.97,4105.13,4627.18,4126.15,3849.23,0
19_54_39,41,3822.05,4081.03,4102.56,4103.59,3992.82,4185.64,4065.13,3946.15,4133.85,4098.97,4109.23,4621.03,4121.03,3840,0
19_54_39,42,3823.59,4072.31,4093.85,4102.05,3992.82,4178.97,4062.56,3949.74,4126.67,4098.46,4110.26,4618.97,4122.56,3833.33,0
19_54_39,43,3815.38,4067.69,4084.1,4101.03,3989.74,4174.36,4068.21,3942.05,4126.15,4103.08,4113.33,4625.64,4126.67,3827.18,0
19_54_39,44,3818.97,4076.92,4074.87,4096.41,3989.74,4174.36,4066.67,3930.26,4132.31,4104.1,4116.92,4628.21,4120,3806.67,0
19_54_39,45,3833.85,4081.03,4068.21,4084.62,3977.44,4164.1,4058.46,3927.18,4132.82,4100.51,4118.46,4625.13,4120.51,3796.41,0
19_54_39,46,3829.23,4073.33,4073.33,4080.51,3957.44,4153.85,4064.62,3932.31,4136.41,4099.49,4113.85,4621.03,4122.05,3803.08,0
19_54_39,47,3814.36,4071.28,4073.85,4084.62,3959.49,4155.38,4061.54,3937.44,4136.92,4101.54,4108.21,4617.95,4125.13,3813.33,0
19_54_39,48,3822.05,4074.87,4068.72,4079.49,3981.54,4158.46,4048.72,3941.03,4134.87,4100.51,4099.49,4615.9,4117.95,3808.72,0
19_54_39,49,3835.38,4077.95,4051.79,4060,3988.72,4150.26,4041.03,3938.97,4140.51,4104.1,4090.77,4607.69,4109.74,3807.18,0
19_54_39,50,3824.1,4075.38,4047.18,4061.54,3991.79,4154.36,4044.1,3940.51,4143.59,4109.23,4090.26,4603.59,4105.64,3816.41,0
19_54_39,51,3801.54,4065.13,4049.74,4080.51,4009.74,4166.15,4037.95,3938.97,4137.95,4109.23,4094.87,4600,4107.18,3826.67,0
19_54_39,52,3797.95,4057.44,4054.36,4087.69,4017.44,4169.23,4034.87,3935.9,4137.44,4105.13,4094.36,4602.05,4106.15,3828.21,0
19_54_39,53,3807.18,4056.92,4047.69,4081.54,4006.15,4163.08,4030.26,3931.28,4141.54,4104.1,4089.74,4603.59,4106.15,3820,0
19_54_39,54,3808.72,4049.74,4043.08,4085.13,4004.62,4161.03,4028.21,3933.85,4138.46,4101.03,4097.44,4610.26,4107.69,3812.82,0
19_54_39,55,3803.08,4043.08,4036.41,4087.69,4010.26,4151.79,4023.08,3935.9,4134.87,4100,4105.13,4617.44,4115.38,3817.44,0
19_54_39,56,3802.56,4052.31,4034.36,4075.9,4006.67,4143.08,4019.49,3937.44,4135.9,4104.62,4101.03,4621.03,4120.51,3821.03,0
19_54_39,57,3806.67,4055.9,4022.56,4066.15,3999.49,4134.87,4008.21,3935.38,4140.51,4112.31,4097.95,4616.92,4124.1,3813.33,0
19_54_39,58,3808.21,4044.1,4015.38,4066.15,3997.95,4124.1,3994.87,3930.26,4144.1,4115.9,4101.54,4616.41,4122.56,3810.26,0
19_54_39,59,3795.9,4033.85,4012.31,4057.44,3992.82,4110.26,3982.56,3928.21,4144.62,4112.82,4104.62,4620,4119.49,3826.15,0
19_54_39,60,3781.03,4032.31,4013.33,4049.74,3993.85,4103.59,3982.05,3930.26,4145.13,4111.28,4107.69,4630.26,4127.69,3854.87,0
19_54_39,61,3778.46,4022.05,4020.51,4063.08,4003.59,4111.28,3986.67,3927.18,4143.08,4110.77,4110.77,4638.46,4132.82,3862.05,0
19_54_39,62,3763.59,4002.56,4024.1,4084.1,4007.69,4115.38,3983.08,3927.69,4142.56,4108.72,4114.36,4653.33,4139.49,3873.85,0
19_54_39,63,3742.05,3993.85,4028.21,4091.28,3989.74,4104.1,3978.46,3940.51,4145.64,4107.69,4118.46,4666.15,4147.69,3893.33,0
19_54_39,64,3738.97,3996.92,4031.28,4070.26,3960,4070.77,3953.33,3947.69,4152.31,4112.31,4126.15,4682.05,4166.15,3928.21,0
19_54_39,65,3744.1,3997.95,4042.05,4059.49,3945.13,4055.9,3947.18,3943.59,4153.85,4110.26,4122.05,4687.18,4162.56,3935.38,0
19_54_39,66,3741.03,3997.95,4042.05,4061.54,3923.59,4035.38,3938.46,3941.54,4153.85,4113.33,4125.64,4694.87,4169.23,3945.64,0
19_54_39,67,3759.49,4014.87,4054.87,4060.51,3915.38,4020.51,3929.74,3942.05,4151.79,4115.38,4133.85,4690.77,4173.85,3946.15,0
19_54_39,68,3777.44,4033.33,4061.54,4038.46,3897.95,3982.05,3896.92,3939.49,4154.36,4114.87,4140.51,4687.18,4177.95,3958.97,0
19_54_39,69,3780.51,4040.51,4050.26,4033.33,3897.95,3970.26,3891.79,3943.08,4156.92,4119.49,4138.46,4695.9,4172.31,3965.64,0
19_54_39,70,3787.69,4033.33,4008.21,4020.51,3879.49,3948.21,3866.15,3946.15,4165.13,4136.92,4140,4714.87,4179.49,3968.21,0
19_54_39,71,3795.9,4027.69,3991.79,4000,3860.51,3916.41,3836.92,3949.23,4172.82,4146.15,4144.62,4730.77,4183.08,3967.18,0
19_54_39,72,3777.44,4020,3992.31,3987.18,3838.46,3878.46,3809.74,3945.64,4174.36,4146.67,4148.21,4731.28,4187.69,3983.08,0
19_54_39,73,3764.1,4011.79,4005.64,4000,3838.97,3887.18,3819.49,3938.46,4169.74,4145.13,4146.67,4726.67,4187.69,3998.46,0
19_54_39,74,3763.59,4003.59,3997.95,4004.1,3835.38,3895.38,3822.05,3929.74,4169.74,4145.13,4143.08,4722.56,4187.69,3994.36,0
19_54_39,75,3756.92,3996.92,3985.13,3993.33,3815.38,3875.9,3807.18,3927.18,4171.79,4146.15,4150.26,4734.36,4187.18,3994.36,0
19_54_39,76,3747.18,3989.74,3980,3991.79,3809.23,3861.54,3800,3921.03,4168.21,4148.72,4160.51,4739.49,4190.77,3997.95,0
19_54_39,77,3736.92,3977.95,3977.44,3991.28,3797.44,3840.51,3789.23,3915.38,4167.18,4153.33,4169.23,4745.13,4205.64,4008.21,0
19_54_39,78,3731.28,3972.82,3977.44,3991.28,3792.31,3829.74,3786.67,3912.82,4166.15,4156.41,4171.79,4749.74,4209.74,4011.28,0
19_54_39,79,3723.08,3964.1,3968.72,3981.54,3776.41,3802.05,3772.82,3912.82,4172.31,4162.56,4178.97,4762.56,4212.82,4031.28,0
19_54_40,80,3723.59,3957.44,3968.21,3984.1,3782.05,3796.41,3780,3907.69,4157.95,4162.05,4203.08,4772.82,4208.72,4053.85,0
19_54_40,81,3708.72,3936.92,3953.85,3969.74,3758.97,3748.21,3759.49,3901.03,4147.18,4162.56,4237.95,4792.31,4223.59,4083.59,0
19_54_40,82,3706.67,3925.13,3953.33,3958.97,3751.79,3718.46,3756.92,3909.23,4161.03,4157.95,4212.31,4787.69,4232.31,4062.56,0
19_54_40,83,3698.97,3907.18,3941.54,3950.77,3733.33,3650.77,3734.87,3922.56,4197.95,4167.18,4173.33,4793.33,4258.46,4052.82,0
19_54_40,84,3704.62,3913.33,3943.59,3970.77,3738.97,3627.18,3738.46,3934.36,4221.54,4183.08,4179.49,4814.36,4275.38,4071.79,0
19_54_40,85,3696.92,3910.26,3926.15,3973.33,3710.77,3571.28,3700.51,3917.95,4231.28,4197.44,4203.59,4831.79,4285.64,4099.49,0
19_54_40,86,3749.74,3965.13,3976.41,4026.67,3725.13,3607.18,3734.36,3945.64,4262.56,4214.36,4211.79,4861.03,4309.23,4142.05,0
19_54_40,87,3875.38,4099.49,4093.85,4129.74,3737.44,3722.56,3805.13,4068.21,4366.15,4276.41,4268.72,4981.03,4428.72,4307.18,0
19_54_40,88,3930.26,4184.62,4095.9,4150.26,3670.26,3906.15,3798.97,4111.79,4404.1,4303.59,4291.28,5011.28,4465.13,4350.77,0
19_54_40,89,3894.87,4172.31,3974.87,4088.21,3589.74,4035.9,3673.85,3996.92,4324.62,4255.38,4232.82,4874.87,4342.05,4171.79,0
19_54_40,90,3876.92,4144.1,3944.1,4066.15,3612.31,4063.59,3660,3943.59,4257.95,4217.95,4201.03,4768.72,4245.13,4044.1,0
19_54_40,91,3867.18,4116.41,3988.21,4061.54,3656.92,3988.72,3729.74,4003.59,4261.03,4227.18,4208.72,4761.54,4275.38,4052.82,0
19_54_40,92,3828.21,4070.77,3982.56,4056.41,3664.62,3930.77,3759.49,4023.59,4252.31,4222.05,4184.62,4754.87,4275.38,4012.82,0
19_54_40,93,3808.72,4049.23,3937.95,4064.62,3695.38,3932.31,3677.95,4010.26,4233.85,4198.97,4160,4735.38,4205.64,3934.36,0
19_54_40,94,3804.62,4045.64,3936.92,4053.85,3750.77,3910.26,3564.1,4030.26,4241.54,4196.92,4170.26,4743.59,4185.64,3926.67,0
19_54_40,95,3775.9,4035.38,3937.95,4005.13,3777.44,3849.23,3441.54,4036.41,4234.87,4200,4163.59,4723.59,4208.72,3912.82,0
19_54_40,96,3743.08,4017.95,3911.28,3978.46,3781.54,3778.46,3277.44,4008.72,4210.26,4189.23,4135.9,4689.23,4183.08,3854.87,0
19_54_40,97,3685.64,3957.44,3826.15,3935.38,3775.38,3680.51,3117.95,3951.79,4163.08,4157.44,4101.54,4629.23,4081.03,3765.64,0
19_54_40,98,3691.28,3941.54,3832.82,3908.21,3841.03,3572.82,2967.18,3920,4142.56,4137.95,4081.03,4584.62,4030.77,3695.9,0
19_54_40,99,3802.56,4031.79,3991.79,3978.97,3976.41,3543.59,2954.87,3977.44,4180.51,4156.92,4107.18,4631.28,4108.72,3752.82,0
19_54_40,100,3841.54,4072.31,4070.26,4040,3986.67,3402.05,2896.41,4063.08,4240,4191.79,4155.38,4713.85,4196.41,3878.97,0
19_54_40,101,3692.82,4004.1,3977.44,3998.97,3795.9,3210.77,2833.85,4136.41,4301.54,4222.05,4186.15,4781.54,4244.62,3999.49,0
19_54_40,102,3673.33,3985.64,3882.05,3938.46,3631.79,2995.38,2761.54,4201.54,4365.13,4246.15,4182.56,4818.46,4288.72,4047.69,0
19_54_40,103,3722.05,3994.36,3913.85,3941.54,3644.62,2799.49,2869.74,4229.74,4387.18,4254.36,4155.9,4826.15,4312.82,4042.05,0
19_54_40,104,3052.82,3796.41,3604.62,3686.67,2977.44,2510.77,3038.97,4442.05,4519.49,4331.79,4235.38,4995.38,4475.9,4276.92,0
19_54_40,105,2602.56,3757.95,3295.9,3425.64,2228.21,2339.49,3235.38,4663.59,4638.97,4417.95,4348.72,5170.77,4612.31,4547.69,0
19_54_40,106,3267.18,4004.1,3578.46,3576.92,2703.59,2463.59,3226.67,4535.38,4545.13,4392.82,4322.56,5065.64,4487.18,4433.33,0
19_54_40,107,3914.87,4136.92,4040.51,3878.46,3664.1,2310.77,3278.97,4309.23,4384.62,4308.21,4236.41,4887.18,4318.97,4186.67,0
19_54_40,108,3740.51,4052.31,4039.49,3899.49,3690.26,1547.69,3573.33,4345.64,4381.03,4302.05,4259.49,4935.38,4386.67,4261.03,0
19_54_40,109,3595.38,3998.97,3894.36,3838.97,3415.38,1547.69,3968.72,4371.79,4387.18,4312.82,4280,4962.05,4424.1,4319.49,0
19_54_40,110,3734.36,4011.79,3995.38,3958.97,3589.74,2533.85,4295.38,4272.82,4351.28,4302.05,4261.03,4903.08,4373.33,4251.28,0
19_54_40,111,3581.54,3963.59,3917.95,3829.74,3465.64,2944.62,4385.64,4322.56,4402.56,4323.59,4301.54,4977.44,4440.51,4348.21,0
19_54_40,112,3243.08,3800.51,3446.67,3149.74,2890.26,3033.85,4120,4419.49,4470.26,4349.74,4351.28,5083.59,4546.67,4468.72,0
19_54_40,113,3170.77,3681.54,3228.72,2735.38,2729.74,3106.15,3436.92,4484.1,4522.56,4367.69,4371.28,5131.28,4569.23,4475.9,0
19_54_40,114,3442.56,3750.77,3578.46,3171.79,3214.87,2264.62,2578.46,4538.46,4551.28,4387.69,4387.18,5142.56,4521.54,4462.56,0
19_54_40,115,3560.51,3769.23,3804.62,3649.74,3545.13,1768.72,2664.62,4521.54,4503.08,4381.54,4375.9,5113.85,4451.28,4405.64,0
19_54_40,116,3397.44,3637.95,3582.05,3676.92,3365.13,2387.18,3750.77,4440.51,4433.33,4355.9,4344.62,5064.1,4418.46,4287.69,0
19_54_40,117,3362.56,3542.05,3404.62,3729.23,3136.92,2417.44,4324.62,4461.03,4462.05,4371.79,4341.54,5086.15,4452.31,4271.28,0
19_54_40,118,3393.85,3471.79,3443.59,3896.92,3111.79,2329.74,4065.64,4494.36,4507.18,4395.9,4332.82,5091.79,4454.36,4303.08,0
19_54_40,119,3314.36,3417.44,3479.49,3926.15,3122.56,2925.13,4058.97,4462.05,4487.69,4389.74,4349.74,5057.95,4420,4320,0
19_54_40,120,3365.13,3548.72,3603.59,3992.82,3252.31,2653.33,4305.64,4409.23,4433.85,4370.26,4390.26,5039.49,4412.82,4335.38,0
19_54_40,121,3466.67,3674.36,3713.85,4060.51,3365.64,1880.51,4303.59,4397.95,4428.21,4374.87,4388.72,5065.13,4439.49,4334.87,0
19_54_40,122,3538.46,3726.15,3812.31,4094.87,3512.31,1965.13,4261.54,4354.36,4419.49,4376.92,4326.67,5058.97,4385.64,4275.38,0
19_54_40,123,3559.49,3762.56,3854.87,4087.69,3629.23,2212.31,4162.56,4305.13,4406.15,4372.31,4288.72,5032.31,4315.9,4222.05,0
19_54_40,124,3735.9,3930.26,4059.49,4185.13,3845.64,1930.77,4222.05,4324.62,4401.54,4364.1,4285.64,5027.18,4341.54,4221.03,0
19_54_40,125,3970.26,4112.31,4341.54,4380.51,4008.72,1785.64,4470.26,4425.64,4444.1,4382.56,4305.13,5056.92,4448.72,4309.74,0
19_54_40,126,3975.9,4105.64,4270.77,4414.87,3822.56,1729.74,4563.08,4473.33,4476.92,4400,4305.64,5027.69,4452.31,4368.21,0
19_54_40,127,3863.59,4036.41,3983.59,4289.23,3551.79,1596.41,4453.85,4418.46,4463.08,4391.79,4288.21,4947.18,4392.82,4340,0
19_54_40,128,3885.13,4094.87,3940,4270.26,3567.18,1543.08,4437.95,4374.87,4420,4360,4280,4909.74,4376.41,4287.18,0
19_54_40,0,3941.54,4172.31,4008.72,4312.31,3672.31,1444.1,4471.79,4367.69,4397.95,4336.92,4268.21,4921.54,4400,4274.87,0
19_54_40,1,3932.31,4170.26,3990.77,4308.72,3698.46,1427.69,4505.64,4352.31,4401.54,4329.74,4221.03,4913.33,4375.9,4243.59,0
19_54_40,2,3946.67,4185.64,3995.9,4307.69,3745.13,1393.85,4488.72,4336.41,4411.28,4334.87,4182.56,4889.23,4339.49,4208.21,0
19_54_40,3,3983.59,4225.64,4048.72,4334.36,3803.08,1433.33,4482.56,4334.87,4397.44,4330.77,4182.56,4876.92,4332.31,4188.72,0
19_54_40,4,3981.03,4236.92,4058.46,4324.62,3803.08,1453.33,4427.18,4313.33,4368.72,4319.49,4200.51,4870.26,4342.56,4177.44,0
19_54_40,5,4010.77,4259.49,4120,4346.67,3858.46,1520,4432.31,4287.69,4349.74,4312.82,4226.67,4871.79,4323.59,4177.44,0
19_54_40,6,4029.23,4263.59,4161.03,4353.85,3912.31,1545.64,4441.03,4252.31,4332.82,4299.49,4234.36,4865.13,4276.41,4164.1,0
19_54_40,7,4047.69,4268.72,4175.38,4351.28,3948.72,1531.28,4480,4232.31,4320,4287.18,4224.1,4867.18,4262.56,4140.51,0
19_54_40,8,4069.23,4290.26,4204.1,4356.41,3978.46,1617.44,4490.26,4223.08,4298.46,4274.36,4221.54,4860,4271.79,4107.69,0
19_54_40,9,4063.59,4291.28,4201.54,4344.62,3987.69,1660.51,4446.67,4210.77,4281.03,4262.56,4218.46,4834.87,4258.46,4086.15,0
19_54_40,10,4060.51,4286.15,4197.44,4339.49,4031.28,1735.9,4421.03,4188.21,4273.33,4255.38,4201.54,4811.28,4224.62,4072.31,0
19_54_40,11,4054.87,4281.54,4196.41,4340.51,4070.26,1761.54,4408.21,4174.87,4273.33,4257.44,4196.92,4811.79,4224.1,4070.77,0
19_54_40,12,4070.77,4293.85,4223.08,4353.85,4100,1837.95,4415.38,4161.03,4252.31,4240.51,4193.85,4806.67,4224.1,4055.9,0
19_54_40,13,4068.21,4283.59,4217.95,4333.33,4082.56,1889.23,4396.92,4154.87,4242.05,4226.67,4190.26,4807.69,4226.15,4057.95,0
19_54_40,14,4065.64,4276.41,4226.15,4323.59,4104.1,1948.72,4411.28,4144.1,4229.74,4221.03,4183.59,4796.41,4208.21,4047.69,0
19_54_40,15,4059.49,4279.49,4231.28,4327.18,4128.72,1974.87,4401.03,4136.92,4229.23,4224.1,4182.05,4791.28,4205.64,4050.77,0
19_54_40,16,4067.69,4288.21,4249.74,4338.97,4158.97,2026.15,4385.64,4126.15,4224.62,4219.49,4170.77,4782.05,4187.18,4041.03,0
19_54_40,17,4068.21,4282.05,4252.82,4325.13,4164.1,2079.49,4345.64,4120,4217.95,4213.85,4165.64,4777.44,4179.49,4040,0
19_54_40,18,4077.44,4283.59,4266.67,4320,4211.28,2129.74,4355.9,4107.69,4192.31,4194.87,4152.82,4759.49,4168.21,4023.08,0
19_54_40,19,4074.36,4276.92,4265.64,4313.85,4232.82,2174.36,4353.85,4102.56,4181.54,4187.69,4151.79,4754.36,4173.85,4017.95,0
19_54_40,20,4076.92,4275.38,4285.64,4317.95,4253.33,2232.31,4369.74,4090.26,4172.31,4180,4154.87,4752.82,4165.64,4003.08,0
19_54_40,21,4084.1,4272.82,4296.41,4303.08,4261.54,2322.56,4356.41,4070.26,4154.36,4159.49,4160.51,4757.95,4165.64,4005.13,0
19_54_40,22,4101.54,4267.18,4305.13,4292.31,4281.03,2398.97,4349.23,4053.85,4122.56,4137.44,4173.85,4765.64,4154.87,4021.03,0
19_54_40,23,4100,4253.33,4301.54,4289.23,4283.08,2499.49,4329.23,4044.1,4103.08,4136.92,4200.51,4778.97,4135.38,4030.77,0
19_54_40,24,4094.87,4251.79,4307.69,4293.33,4279.49,2570.26,4324.62,4033.85,4102.56,4144.1,4227.69,4804.1,4126.15,4030.77,0
19_54_40,25,4084.1,4247.69,4302.56,4272.31,4267.69,2684.1,4307.69,4029.23,4133.85,4147.18,4209.74,4815.9,4129.23,4018.97,0
19_54_40,26,4090.77,4236.92,4298.97,4259.49,4272.82,2723.08,4294.36,4037.95,4160.51,4144.1,4150.26,4808.21,4129.23,4002.05,0
