TIME, ED_COUNTER, AF3, F7, F3, FC5, T7, P7, O1, O2, P8, T8, FC6, F4, F8, AF4, LABEL
15_5_33,14,3654.36,3654.87,3654.36,3652.31,3651.28,3650.26,3654.87,3654.87,3656.92,3666.15,3662.05,3732.31,3656.92,3666.67,0
15_5_33,15,3650.26,3650.26,3650.77,3649.74,3648.72,3648.72,3650.26,3650.77,3659.49,3667.18,3662.56,3735.9,3654.87,3655.9,0
15_5_33,16,3652.82,3654.36,3653.33,3653.33,3651.28,3651.28,3653.85,3654.36,3669.74,3664.62,3669.23,3738.97,3654.87,3660,0
15_5_33,17,3653.33,3653.85,3651.79,3649.74,3648.21,3648.72,3653.85,3651.79,3667.69,3663.08,3666.15,3740.51,3653.85,3667.18,0
15_5_33,18,3653.33,3652.31,3653.33,3651.28,3651.79,3652.31,3653.85,3652.82,3660,3668.21,3666.15,3749.23,3664.1,3667.69,0
15_5_33,19,3650.26,3655.9,3652.31,3652.31,3651.79,3650.77,3654.36,3651.79,3653.85,3666.67,3667.18,3752.82,3662.56,3664.1,0
15_5_33,20,3652.31,3662.05,3653.33,3652.31,3651.28,3651.79,3657.95,3652.31,3661.03,3664.62,3667.18,3755.9,3652.31,3666.67,0
15_5_33,21,3652.82,3660.51,3653.85,3651.79,3651.28,3651.28,3656.41,3654.87,3668.72,3666.15,3667.69,3763.59,3651.28,3663.59,0
15_5_33,22,3651.79,3658.46,3653.85,3652.31,3651.28,3649.74,3651.28,3652.31,3666.15,3668.72,3667.69,3770.26,3656.92,3663.59,0
15_5_33,23,3652.82,3663.08,3651.28,3652.82,3651.79,3651.28,3652.31,3653.85,3665.64,3667.18,3666.15,3769.74,3660,3667.69,0
15_5_33,24,3652.82,3664.1,3653.85,3651.79,3653.85,3652.31,3655.38,3661.54,3668.21,3666.67,3666.15,3769.23,3665.13,3666.67,0
15_5_33,25,3651.28,3660,3657.44,3652.31,3652.82,3653.33,3655.38,3660,3667.69,3667.18,3666.67,3778.46,3668.21,3666.67,0
15_5_33,26,3652.82,3660,3654.87,3653.33,3650.77,3650.77,3650.77,3652.31,3667.18,3666.67,3667.18,3786.15,3666.15,3666.67,0
15_5_33,27,3655.38,3662.56,3654.36,3652.82,3651.28,3651.28,3651.79,3654.36,3666.67,3667.69,3667.69,3784.1,3666.15,3666.15,0
15_5_33,28,3654.36,3666.15,3657.95,3652.82,3652.82,3655.9,3658.97,3654.36,3665.64,3668.21,3668.72,3786.15,3666.15,3667.18,0
15_5_33,29,3652.31,3664.1,3660,3652.82,3653.33,3655.9,3658.97,3652.31,3666.67,3667.69,3668.21,3797.44,3664.1,3667.18,0
15_5_33,30,3653.33,3662.05,3660,3652.31,3652.31,3653.85,3655.9,3659.49,3668.21,3667.69,3667.69,3802.56,3665.64,3666.15,0
15_5_33,31,3653.33,3666.15,3663.59,3654.87,3653.85,3656.41,3657.95,3662.05,3668.21,3668.21,3667.69,3800.51,3667.69,3668.72,0
15_5_33,32,3653.33,3667.18,3662.05,3653.85,3652.82,3660,3662.05,3659.49,3666.67,3669.23,3667.69,3806.67,3667.18,3669.74,0
15_5_33,33,3653.85,3666.15,3660,3652.31,3653.33,3656.92,3663.59,3661.03,3666.67,3669.23,3668.72,3815.38,3666.67,3667.18,0
15_5_33,34,3650.77,3667.18,3663.08,3661.03,3658.97,3655.38,3664.62,3662.05,3669.23,3668.72,3668.72,3818.46,3667.18,3666.15,0
15_5_33,35,3654.87,3667.18,3666.67,3663.59,3657.44,3656.41,3663.59,3664.1,3668.72,3669.23,3668.21,3817.44,3667.18,3668.21,0
15_5_33,36,3666.67,3663.59,3665.13,3653.85,3656.92,3658.97,3665.64,3668.72,3666.15,3669.74,3668.21,3817.95,3667.18,3669.23,0
15_5_33,37,3662.05,3665.13,3660.51,3650.77,3660.51,3661.03,3664.1,3667.69,3667.69,3669.74,3668.72,3825.64,3667.18,3667.69,0
15_5_33,38,3648.72,3667.18,3663.08,3654.87,3657.95,3660.51,3656.92,3664.62,3669.74,3669.74,3668.72,3834.36,3667.18,3667.69,0
15_5_33,39,3656.41,3665.64,3667.69,3653.85,3651.79,3658.97,3661.54,3666.67,3667.18,3669.74,3669.23,3832.82,3667.18,3668.72,0
15_5_33,40,3665.13,3666.15,3666.67,3653.33,3658.46,3660.51,3669.23,3667.18,3666.15,3669.74,3669.74,3835.38,3666.67,3668.21,0
15_5_33,41,3659.49,3666.67,3665.13,3654.36,3664.1,3662.05,3666.67,3666.67,3669.23,3669.74,3670.26,3846.15,3667.18,3668.21,0
15_5_33,42,3659.49,3666.15,3667.18,3652.31,3662.56,3659.49,3662.05,3668.72,3670.26,3669.23,3669.23,3849.23,3669.23,3669.23,0
15_5_33,43,3663.08,3666.67,3667.18,3658.97,3664.1,3660.51,3666.67,3669.23,3669.74,3669.74,3668.72,3847.69,3668.72,3668.21,0
15_5_33,44,3663.08,3668.72,3666.15,3667.18,3661.54,3663.59,3670.26,3669.23,3669.23,3669.74,3670.26,3856.41,3667.69,3668.21,0
15_5_33,45,3664.62,3669.23,3666.67,3667.18,3661.03,3662.56,3668.72,3669.23,3669.74,3668.72,3670.77,3865.13,3667.69,3669.23,0
15_5_33,46,3666.67,3668.72,3666.67,3665.13,3665.64,3660.51,3668.21,3669.23,3669.74,3670.77,3666.67,3864.1,3668.21,3668.72,0
15_5_33,47,3665.64,3668.21,3668.21,3665.64,3666.15,3662.05,3668.72,3668.21,3668.72,3675.38,3665.64,3865.64,3668.72,3669.74,0
15_5_33,48,3665.64,3668.21,3668.72,3665.64,3664.1,3664.62,3669.74,3666.15,3667.69,3676.41,3674.36,3872.82,3669.74,3670.77,0
15_5_33,49,3666.67,3668.21,3668.72,3665.13,3666.15,3663.59,3666.67,3666.67,3669.74,3674.87,3684.1,3876.92,3669.74,3670.77,0
15_5_33,50,3664.62,3669.23,3668.72,3665.13,3667.18,3664.1,3665.64,3669.23,3670.26,3673.85,3683.59,3876.92,3669.74,3670.77,0
15_5_33,51,3666.67,3668.72,3668.72,3665.13,3665.13,3665.64,3667.18,3669.23,3668.72,3677.95,3677.44,3877.95,3669.74,3670.77,0
15_5_33,52,3668.21,3668.72,3667.69,3665.13,3666.67,3666.15,3668.21,3667.69,3668.21,3682.05,3677.95,3884.1,3669.74,3670.77,0
15_5_33,53,3667.18,3669.74,3668.21,3665.13,3666.15,3664.1,3667.69,3667.69,3669.23,3673.85,3678.97,3891.28,3669.74,3670.26,0
15_5_33,54,3665.64,3669.74,3668.21,3665.13,3665.13,3665.64,3667.69,3669.23,3669.23,3668.72,3677.95,3894.87,3669.74,3670.77,0
15_5_33,55,3667.18,3669.74,3667.69,3664.62,3665.64,3666.67,3668.21,3670.26,3669.74,3679.49,3681.54,3893.33,3669.74,3671.28,0
15_5_33,56,3668.72,3669.23,3667.69,3665.13,3666.67,3666.15,3668.21,3669.23,3669.23,3686.15,3683.08,3896.41,3669.74,3668.21,0
15_5_33,57,3666.67,3668.21,3668.72,3665.13,3667.69,3666.67,3667.69,3668.21,3669.23,3682.05,3683.08,3904.1,3669.74,3673.33,0
15_5_33,58,3665.64,3669.74,3669.23,3664.62,3667.69,3666.67,3668.72,3668.21,3674.87,3684.1,3684.62,3908.21,3669.74,3680,0
15_5_33,59,3667.69,3670.77,3668.21,3666.15,3667.18,3665.64,3668.72,3668.72,3683.08,3688.21,3685.64,3910.26,3669.74,3676.41,0
15_5_33,60,3669.74,3667.18,3668.72,3669.23,3666.67,3667.69,3668.72,3669.23,3682.05,3686.15,3683.08,3913.85,3669.74,3674.36,0
15_5_33,61,3669.23,3670.77,3669.23,3669.23,3667.18,3668.21,3669.74,3670.26,3673.33,3686.15,3683.59,3918.46,3669.74,3678.97,0
15_5_33,62,3667.18,3676.92,3670.26,3668.21,3668.21,3667.69,3667.69,3669.74,3668.72,3686.67,3684.62,3921.54,3669.23,3681.54,0
15_5_33,63,3666.67,3677.44,3668.21,3667.69,3668.21,3668.72,3666.67,3669.23,3668.72,3684.1,3684.62,3925.13,3669.74,3681.03,0
15_5_33,64,3668.21,3676.41,3667.69,3668.21,3667.69,3669.23,3673.33,3669.23,3672.82,3680,3684.62,3929.74,3669.74,3682.05,0
15_5_33,65,3669.74,3677.44,3671.28,3668.21,3668.21,3667.69,3674.87,3668.72,3680,3678.97,3684.62,3928.72,3668.72,3684.1,0
15_5_33,66,3669.74,3677.44,3672.82,3668.21,3667.69,3667.18,3667.69,3667.69,3683.08,3679.49,3684.62,3927.69,3670.26,3683.08,0
15_5_33,67,3668.72,3674.87,3671.28,3667.69,3668.21,3669.74,3668.21,3668.72,3681.03,3678.97,3685.64,3934.87,3674.87,3679.49,0
15_5_33,68,3668.21,3674.36,3670.77,3668.21,3669.23,3669.23,3671.79,3669.23,3681.03,3679.49,3686.15,3941.54,3678.97,3678.46,0
15_5_33,69,3668.72,3674.87,3676.92,3669.23,3669.74,3665.64,3669.74,3669.23,3682.05,3679.49,3685.64,3942.05,3682.05,3684.1,0
15_5_33,70,3668.72,3678.46,3679.49,3669.74,3668.72,3668.21,3673.85,3671.28,3681.03,3678.97,3683.59,3946.15,3682.56,3683.08,0
15_5_33,71,3668.21,3680.51,3672.82,3669.74,3668.72,3672.31,3680.51,3675.38,3682.56,3681.54,3683.59,3953.33,3680.51,3680.51,0
15_5_33,72,3669.23,3678.46,3666.15,3669.74,3669.74,3670.77,3672.31,3676.41,3684.62,3685.13,3684.62,3955.38,3680.51,3683.59,0
15_5_33,73,3670.26,3681.54,3672.82,3669.74,3670.26,3668.72,3663.59,3673.85,3684.1,3684.1,3684.62,3956.92,3682.05,3685.64,0
15_5_33,74,3669.23,3683.08,3674.87,3669.74,3669.23,3671.28,3672.82,3678.46,3684.1,3683.59,3684.1,3960.51,3682.56,3684.62,0
15_5_33,75,3670.26,3682.05,3671.79,3669.74,3668.72,3668.72,3677.95,3682.05,3684.62,3685.64,3685.13,3965.13,3683.08,3683.08,0
15_5_33,76,3670.26,3681.03,3676.92,3669.74,3670.26,3669.23,3672.82,3677.95,3684.62,3686.15,3689.23,3968.72,3682.05,3683.59,0
15_5_33,77,3669.74,3682.56,3680.51,3669.74,3668.21,3673.33,3675.9,3677.44,3684.62,3684.62,3691.79,3970.26,3681.54,3685.13,0
15_5_33,78,3671.79,3682.56,3675.9,3669.74,3668.21,3672.31,3683.08,3683.59,3684.62,3684.62,3688.72,3973.33,3682.56,3684.62,0
15_5_33,79,3672.82,3682.56,3675.9,3669.74,3673.33,3670.26,3678.97,3683.08,3683.59,3685.13,3684.62,3974.87,3683.59,3684.1,0
15_5_33,80,3669.23,3682.05,3678.97,3669.23,3676.92,3673.85,3673.33,3676.92,3682.56,3685.64,3685.64,3975.38,3684.1,3684.62,0
15_5_33,81,3673.85,3681.54,3680,3670.26,3675.38,3674.36,3677.95,3679.49,3683.08,3685.64,3689.74,3981.03,3685.13,3684.62,0
15_5_33,82,3680.51,3683.59,3680,3671.28,3675.9,3672.82,3682.05,3683.08,3683.08,3685.64,3690.26,3986.15,3684.1,3684.1,0
15_5_33,83,3680.51,3684.1,3677.44,3669.74,3679.49,3675.9,3680,3682.05,3683.08,3685.64,3690.77,3986.67,3681.54,3684.1,0
15_5_33,84,3680,3683.08,3677.44,3670.77,3679.49,3678.97,3679.49,3682.05,3683.08,3685.64,3692.31,3989.74,3682.56,3686.15,0
15_5_33,85,3680,3683.59,3681.54,3674.36,3678.97,3678.46,3682.56,3683.08,3683.08,3685.64,3690.77,3994.87,3684.62,3685.13,0
15_5_33,86,3676.92,3683.08,3680,3676.41,3678.46,3679.49,3680,3682.56,3683.08,3685.13,3691.28,3997.44,3685.13,3682.56,0
15_5_33,87,3675.38,3681.03,3681.03,3674.36,3678.46,3681.03,3676.41,3683.08,3682.56,3685.13,3692.31,4001.03,3683.08,3685.13,0
15_5_33,88,3677.44,3683.08,3683.59,3674.36,3681.54,3680.51,3682.05,3685.13,3683.08,3687.69,3692.82,4003.59,3683.08,3687.18,0
15_5_33,89,3681.03,3685.64,3684.62,3677.44,3684.1,3679.49,3684.62,3684.62,3683.08,3689.23,3696.92,4003.59,3684.62,3686.67,0
15_5_33,90,3682.56,3684.1,3682.56,3677.44,3681.54,3681.54,3682.05,3683.08,3681.54,3688.21,3699.49,4006.67,3685.13,3689.74,0
15_5_33,91,3681.03,3683.59,3683.08,3677.44,3678.97,3681.03,3682.05,3683.59,3685.64,3688.21,3697.95,4011.79,3684.1,3693.33,0
15_5_33,92,3680,3683.08,3683.59,3682.05,3682.56,3679.49,3684.1,3684.62,3689.23,3690.77,3696.41,4015.38,3685.13,3689.23,0
15_5_33,93,3683.08,3684.1,3683.08,3683.59,3683.59,3679.49,3682.05,3684.62,3687.69,3691.28,3698.46,4017.95,3685.13,3684.62,0
15_5_33,94,3683.08,3688.21,3683.08,3682.05,3682.05,3681.54,3683.59,3684.1,3686.15,3691.28,3699.49,4022.05,3687.18,3683.08,0
15_5_33,95,3682.05,3688.21,3683.59,3686.67,3681.03,3682.56,3684.1,3684.62,3686.67,3691.79,3698.97,4024.62,3690.26,3684.62,0
15_5_33,96,3681.54,3683.59,3683.59,3684.62,3681.03,3680.51,3683.08,3685.13,3685.13,3691.28,3698.46,4025.64,3691.28,3689.23,0
15_5_33,97,3682.56,3685.13,3683.08,3677.95,3682.56,3677.95,3684.1,3685.13,3683.59,3691.28,3699.49,4029.23,3690.77,3689.74,0
15_5_33,98,3683.59,3687.69,3683.59,3680.51,3683.59,3680.51,3684.1,3685.64,3686.15,3689.74,3700.51,4034.36,3691.28,3684.62,0
15_5_33,99,3682.56,3686.15,3682.56,3684.1,3683.08,3682.05,3683.59,3685.64,3689.23,3689.74,3698.46,4034.36,3690.77,3684.1,0
15_5_33,100,3682.56,3685.64,3683.08,3682.05,3682.56,3681.03,3685.64,3683.59,3689.74,3695.9,3697.44,4035.38,3689.23,3687.18,0
15_5_33,101,3683.59,3688.21,3684.62,3683.08,3682.56,3682.56,3686.15,3683.08,3690.77,3700,3699.49,4041.54,3690.26,3689.74,0
15_5_33,102,3684.62,3687.69,3685.13,3684.62,3682.56,3684.1,3684.1,3687.18,3690.77,3697.44,3700.51,4047.18,3691.28,3690.77,0
15_5_33,103,3684.62,3686.15,3684.1,3683.08,3682.56,3682.05,3684.62,3689.23,3690.26,3696.92,3699.49,4047.69,3689.23,3691.79,0
15_5_33,104,3684.62,3690.26,3684.62,3683.08,3683.08,3682.56,3685.13,3685.13,3689.74,3700,3700,4049.23,3685.13,3695.38,0
15_5_33,105,3685.13,3691.79,3685.64,3684.62,3683.59,3684.1,3684.62,3683.08,3690.26,3698.97,3701.54,4051.28,3683.59,3696.92,0
15_5_33,106,3684.62,3688.72,3685.13,3684.62,3683.59,3683.08,3686.15,3684.1,3692.31,3697.44,3700.51,4054.87,3687.18,3695.38,0
15_5_33,107,3684.62,3688.21,3684.1,3684.62,3683.08,3682.05,3687.18,3683.59,3695.38,3698.97,3702.05,4061.54,3689.74,3695.9,0
15_5_33,108,3684.62,3687.18,3685.13,3684.62,3683.59,3682.56,3685.13,3686.15,3698.97,3699.49,3706.15,4065.13,3689.23,3697.95,0
15_5_33,109,3685.64,3683.08,3686.67,3684.62,3684.62,3683.59,3684.62,3688.72,3698.97,3698.97,3707.18,4063.59,3689.74,3698.46,0
15_5_33,110,3685.13,3686.15,3687.18,3684.62,3684.62,3685.13,3688.21,3686.15,3693.85,3697.95,3706.67,4064.62,3690.77,3698.46,0
15_5_33,111,3684.1,3692.82,3686.67,3684.1,3684.1,3684.62,3687.69,3688.21,3693.33,3698.97,3706.15,4070.77,3691.79,3697.44,0
15_5_33,112,3684.1,3693.85,3683.08,3684.62,3684.62,3683.59,3686.15,3691.79,3697.95,3700,3705.64,4075.38,3692.31,3697.95,0
15_5_33,113,3685.13,3693.33,3685.64,3686.15,3685.13,3683.59,3688.21,3691.28,3699.49,3700,3705.64,4074.36,3689.74,3699.49,0
15_5_33,114,3686.67,3693.33,3690.77,3685.64,3688.21,3684.1,3689.23,3689.23,3697.95,3700,3705.64,4074.36,3690.26,3695.38,0
15_5_33,115,3686.15,3690.77,3689.23,3684.62,3689.23,3685.64,3686.15,3689.74,3699.49,3700.51,3704.1,4079.49,3694.87,3695.38,0
15_5_33,116,3683.59,3690.77,3686.67,3684.62,3687.69,3687.69,3688.72,3690.26,3700,3700.51,3705.13,4082.05,3693.85,3698.97,0
15_5_33,117,3684.62,3693.33,3687.18,3684.1,3687.69,3684.62,3690.77,3688.72,3697.95,3700.51,3707.18,4084.1,3692.82,3697.95,0
15_5_33,118,3687.69,3694.87,3687.69,3685.64,3686.67,3685.13,3689.74,3690.77,3697.95,3700.51,3706.15,4087.69,3699.49,3698.46,0
15_5_33,119,3690.77,3694.87,3687.69,3689.74,3683.08,3693.85,3691.79,3694.36,3698.46,3700.51,3706.15,4089.23,3701.54,3700.51,0
15_5_33,120,3693.33,3694.87,3689.23,3691.28,3683.59,3693.33,3692.31,3692.31,3699.49,3700.51,3704.62,4094.36,3696.92,3698.97,0
15_5_33,121,3689.74,3697.44,3688.72,3690.77,3684.1,3685.64,3691.28,3691.79,3699.49,3700.51,3705.13,4100,3696.92,3698.97,0
15_5_33,122,3685.64,3696.41,3692.82,3688.72,3682.56,3687.18,3690.77,3697.95,3698.97,3700,3710.26,4099.49,3700,3701.03,0
15_5_33,123,3689.74,3693.85,3696.92,3685.64,3684.62,3687.69,3689.74,3695.9,3700,3700.51,3711.28,4100.51,3698.97,3700.51,0
15_5_33,124,3691.79,3696.92,3686.67,3684.1,3692.31,3684.1,3688.21,3688.72,3701.03,3700.51,3706.67,4105.64,3698.97,3700.51,0
15_5_33,125,3688.21,3698.46,3679.49,3684.62,3692.31,3688.21,3692.82,3693.33,3700.51,3700,3705.64,4105.64,3700,3700,0
15_5_33,126,3691.79,3697.44,3691.28,3685.13,3687.18,3692.82,3694.87,3698.97,3700,3700.51,3711.28,4106.67,3701.03,3698.97,0
15_5_33,127,3695.38,3696.92,3697.44,3685.13,3692.82,3691.79,3694.36,3696.92,3700.51,3703.59,3712.82,4109.74,3700.51,3700,0
15_5_33,128,3687.18,3698.46,3692.31,3684.62,3696.41,3691.79,3694.87,3698.46,3700.51,3708.21,3710.77,4109.23,3700.51,3698.97,0
15_5_33,0,3684.1,3696.92,3693.33,3687.18,3691.28,3693.85,3692.82,3698.97,3700,3705.64,3711.79,4114.36,3700.51,3698.97,0
15_5_33,1,3694.36,3697.44,3697.44,3692.31,3690.77,3694.87,3694.36,3698.46,3700,3700,3713.85,4121.54,3700.51,3703.59,0
15_5_33,2,3697.44,3698.46,3694.87,3692.82,3694.87,3695.38,3696.92,3699.49,3700,3703.59,3714.87,4121.03,3700.51,3707.18,0
15_5_33,3,3693.85,3698.97,3692.82,3691.28,3692.31,3693.85,3697.44,3701.54,3698.97,3707.69,3714.36,4121.54,3700.51,3706.15,0
15_5_33,4,3694.36,3700.51,3696.41,3691.28,3692.31,3694.36,3696.92,3701.03,3698.46,3704.62,3714.36,4123.59,3700.51,3705.64,0
15_5_33,5,3694.36,3697.95,3697.95,3691.79,3696.41,3695.9,3698.46,3700.51,3701.54,3700,3715.9,4123.08,3700.51,3705.13,0
15_5_33,6,3692.31,3695.38,3698.46,3690.77,3695.9,3696.41,3698.97,3701.03,3705.64,3702.05,3717.95,4128.72,3700.51,3705.13,0
15_5_33,7,3693.33,3697.95,3697.44,3689.23,3696.92,3697.95,3697.95,3701.03,3706.15,3705.13,3714.87,4137.95,3700.51,3706.67,0
15_5_33,8,3696.41,3700.51,3698.46,3692.31,3697.95,3697.44,3699.49,3701.03,3704.62,3707.18,3713.85,4136.92,3700,3706.67,0
15_5_34,9,3697.44,3699.49,3699.49,3698.46,3697.95,3695.9,3699.49,3700.51,3705.13,3707.18,3718.97,4135.9,3701.03,3705.13,0
15_5_34,10,3698.46,3700.51,3698.97,3698.46,3698.97,3697.95,3698.97,3701.03,3706.15,3706.15,3717.44,4139.49,3703.59,3705.64,0
15_5_34,11,3697.95,3702.05,3698.97,3696.41,3697.44,3698.46,3698.97,3701.03,3706.15,3706.15,3713.85,4138.46,3704.1,3705.64,0
15_5_34,12,3696.92,3700.51,3697.95,3698.97,3697.44,3698.46,3699.49,3700,3707.69,3706.67,3717.44,4142.56,3704.1,3705.13,0
15_5_34,13,3698.97,3698.97,3698.97,3698.46,3697.44,3697.44,3698.97,3701.54,3708.72,3707.18,3718.46,4152.82,3704.62,3706.15,0
15_5_34,14,3698.97,3700.51,3698.97,3695.38,3697.44,3697.44,3700,3702.56,3707.69,3706.67,3716.92,4152.82,3704.1,3706.15,0
15_5_34,15,3698.97,3700,3698.97,3698.97,3699.49,3698.46,3700,3701.03,3705.13,3707.18,3718.97,4149.74,3704.62,3704.1,0
15_5_34,16,3698.46,3698.46,3700,3701.54,3701.03,3698.46,3698.97,3698.46,3706.15,3707.18,3720.51,4154.87,3706.67,3704.62,0
15_5_34,17,3698.46,3703.08,3701.54,3697.95,3695.9,3695.38,3701.03,3700,3707.69,3705.64,3721.03,4154.36,3706.67,3706.15,0
15_5_34,18,3698.97,3708.72,3704.62,3697.95,3696.41,3696.92,3703.08,3703.08,3707.18,3710.26,3722.05,4152.82,3705.13,3706.67,0
15_5_34,19,3698.97,3707.69,3704.62,3701.03,3700.51,3700,3702.05,3703.59,3706.67,3715.9,3722.05,4164.1,3705.13,3706.67,0
15_5_34,20,3698.46,3704.62,3700,3700,3698.97,3698.46,3700.51,3702.56,3708.72,3714.36,3720.51,4171.28,3706.15,3707.69,0
15_5_34,21,3698.97,3706.15,3698.46,3698.46,3698.46,3697.95,3702.56,3703.08,3712.31,3712.82,3721.54,4167.69,3706.67,3706.15,0
15_5_34,22,3698.97,3707.69,3701.03,3698.46,3700.51,3699.49,3703.08,3704.62,3715.9,3714.87,3722.05,4167.18,3706.67,3705.13,0
15_5_34,23,3698.97,3706.15,3699.49,3699.49,3700.51,3700.51,3702.05,3704.62,3712.82,3714.36,3722.05,4169.23,3706.15,3707.18,0
15_5_34,24,3701.03,3706.67,3698.46,3698.46,3701.03,3699.49,3702.56,3705.64,3706.15,3712.82,3722.05,4170.26,3706.15,3707.18,0
15_5_34,25,3701.54,3706.67,3701.54,3697.95,3701.54,3700,3704.1,3706.67,3705.64,3715.9,3721.54,4169.74,3706.67,3706.15,0
15_5_34,26,3700.51,3706.67,3702.56,3698.46,3700,3702.05,3704.62,3706.15,3709.23,3716.41,3722.05,4169.74,3705.64,3710.77,0
15_5_34,27,3701.03,3706.67,3702.05,3698.46,3698.46,3701.03,3704.1,3705.13,3706.15,3713.33,3722.56,4175.9,3706.15,3715.9,0
15_5_34,28,3701.54,3706.15,3705.13,3698.46,3700,3697.95,3701.54,3705.64,3703.08,3713.85,3722.56,4185.13,3707.18,3714.87,0
15_5_34,29,3701.03,3706.67,3706.15,3697.95,3702.05,3701.54,3701.03,3705.13,3709.23,3717.95,3721.54,4184.1,3705.64,3711.79,0
15_5_34,30,3701.03,3706.15,3704.1,3698.97,3702.56,3706.67,3704.1,3705.64,3714.87,3718.46,3722.05,4183.08,3706.67,3712.31,0
15_5_34,31,3701.03,3705.64,3704.62,3700.51,3700.51,3704.1,3704.62,3707.18,3715.38,3716.92,3727.18,4187.18,3713.33,3714.36,0
15_5_34,32,3701.03,3709.23,3704.62,3700.51,3701.03,3699.49,3700,3706.15,3714.36,3717.44,3727.18,4186.15,3715.9,3714.36,0
15_5_34,33,3700.51,3709.74,3702.05,3700,3703.08,3701.54,3702.56,3706.15,3713.33,3715.9,3723.59,4190.26,3712.31,3713.85,0
15_5_34,34,3701.54,3710.26,3705.13,3702.56,3702.05,3703.08,3710.26,3707.18,3712.82,3714.36,3727.18,4194.87,3712.31,3714.87,0
15_5_34,35,3701.03,3714.36,3708.21,3704.1,3702.56,3701.54,3709.23,3706.67,3713.85,3713.85,3732.31,4192.82,3713.85,3713.85,0
15_5_34,36,3700,3711.28,3705.13,3703.59,3705.64,3701.03,3705.13,3706.67,3715.38,3713.85,3729.23,4195.9,3714.36,3712.82,0
15_5_34,37,3703.08,3702.05,3705.64,3703.08,3704.62,3701.54,3708.72,3706.15,3714.87,3716.92,3728.21,4201.54,3713.33,3714.36,0
15_5_34,38,3707.18,3705.13,3708.21,3703.08,3700.51,3703.59,3710.26,3705.64,3715.38,3720,3731.28,4200.51,3710.26,3714.87,0
15_5_34,39,3707.18,3714.87,3706.15,3703.08,3702.05,3705.13,3703.08,3710.77,3715.9,3718.97,3730.26,4200,3711.28,3712.82,0
15_5_34,40,3706.15,3714.87,3707.18,3704.62,3706.67,3702.56,3705.13,3712.31,3715.38,3718.46,3729.74,4200.51,3715.38,3715.38,0
15_5_34,41,3706.67,3712.31,3710.26,3704.1,3706.67,3702.56,3712.31,3706.15,3714.36,3718.97,3730.77,4202.05,3714.87,3716.92,0
15_5_34,42,3705.64,3713.33,3707.18,3703.59,3705.13,3706.15,3711.79,3707.18,3714.87,3717.95,3730.26,4208.21,3713.85,3715.38,0
15_5_34,43,3707.18,3714.87,3706.67,3704.62,3705.13,3705.13,3710.26,3714.87,3717.44,3717.95,3731.79,4211.28,3715.38,3716.92,0
15_5_34,44,3707.69,3714.36,3708.21,3704.1,3704.62,3704.1,3711.28,3714.87,3718.46,3719.49,3729.74,4212.82,3714.87,3719.49,0
15_5_34,45,3705.64,3713.33,3707.69,3703.08,3702.56,3706.67,3711.79,3712.82,3716.41,3718.97,3728.72,4216.92,3712.82,3717.44,0
15_5_34,46,3709.74,3715.38,3710.26,3705.13,3706.15,3707.18,3712.31,3715.38,3715.38,3718.97,3732.31,4216.41,3714.36,3715.9,0
15_5_34,47,3710.77,3715.38,3712.31,3706.67,3710.77,3705.13,3712.82,3715.38,3715.9,3719.49,3733.33,4216.92,3716.92,3716.41,0
15_5_34,48,3701.03,3713.85,3710.26,3705.64,3710.77,3706.15,3713.85,3711.79,3716.41,3718.46,3733.33,4217.95,3716.92,3717.44,0
15_5_34,49,3701.03,3715.38,3709.74,3705.64,3710.26,3711.79,3713.33,3710.77,3716.41,3720,3736.41,4215.9,3714.36,3716.92,0
15_5_34,50,3712.31,3717.95,3713.33,3708.21,3708.72,3712.31,3714.36,3710.77,3716.92,3722.56,3737.95,4222.56,3714.87,3715.9,0
15_5_34,51,3711.79,3714.87,3716.92,3707.18,3709.74,3709.23,3716.41,3710.26,3715.38,3722.05,3736.41,4228.21,3718.46,3718.46,0
15_5_34,52,3705.64,3712.82,3715.38,3706.15,3711.28,3709.23,3714.36,3712.82,3715.38,3722.05,3736.41,4225.13,3718.97,3721.54,0
15_5_34,53,3711.79,3714.36,3712.31,3711.28,3705.64,3710.26,3710.26,3716.41,3718.46,3723.59,3736.41,4230.26,3718.97,3717.95,0
15_5_34,54,3717.44,3715.38,3712.82,3712.82,3701.54,3707.69,3712.82,3714.87,3722.05,3723.59,3736.41,4236.92,3716.92,3713.33,0
15_5_34,55,3714.36,3714.36,3715.38,3711.28,3709.23,3710.77,3715.9,3714.87,3722.05,3723.08,3738.46,4234.87,3715.38,3717.95,0
15_5_34,56,3713.33,3716.41,3714.36,3710.77,3713.33,3713.33,3713.85,3718.46,3721.03,3723.08,3737.95,4233.85,3717.44,3722.56,0
15_5_34,57,3715.9,3722.05,3713.33,3710.77,3710.26,3710.26,3713.33,3718.46,3721.54,3723.08,3737.95,4234.36,3720,3722.05,0
15_5_34,58,3714.87,3721.54,3714.36,3711.28,3712.31,3709.74,3716.41,3716.92,3721.03,3723.08,3737.95,4236.41,3720,3721.03,0
15_5_34,59,3713.33,3715.9,3714.36,3714.87,3712.82,3712.31,3714.87,3718.46,3721.03,3723.08,3737.95,4243.08,3721.03,3722.05,0
15_5_34,60,3714.36,3716.41,3715.9,3715.9,3710.77,3711.79,3714.36,3721.03,3721.03,3723.08,3737.95,4242.56,3723.08,3722.56,0
15_5_34,61,3714.36,3723.08,3715.9,3712.82,3712.82,3710.77,3716.92,3725.64,3720.51,3723.08,3737.95,4241.54,3721.03,3722.05,0
15_5_34,62,3714.36,3723.59,3713.33,3712.31,3712.31,3712.31,3714.36,3722.56,3722.05,3722.56,3737.95,4249.23,3720.51,3722.56,0
15_5_34,63,3714.87,3717.95,3714.36,3714.36,3709.23,3714.87,3715.38,3716.92,3723.08,3724.1,3738.46,4251.28,3721.54,3722.56,0
15_5_34,64,3714.87,3714.87,3719.49,3715.9,3711.79,3714.36,3720,3718.97,3721.03,3722.56,3738.46,4247.69,3721.03,3721.54,0
15_5_34,65,3713.85,3714.87,3717.44,3713.85,3715.38,3713.33,3720,3722.05,3721.54,3722.05,3737.95,4248.72,3721.03,3722.05,0
15_5_34,66,3715.38,3715.9,3714.87,3712.31,3714.87,3714.36,3717.44,3717.95,3723.59,3728.21,3739.49,4250.77,3721.03,3723.08,0
15_5_34,67,3718.46,3721.03,3717.95,3715.38,3714.36,3716.92,3718.46,3714.87,3723.08,3730.26,3738.46,4254.87,3721.03,3723.59,0
15_5_34,68,3719.49,3722.56,3720,3716.92,3714.36,3715.9,3718.46,3716.92,3721.54,3722.05,3738.97,4260,3721.03,3723.08,0
15_5_34,69,3717.44,3717.44,3720,3716.41,3715.38,3714.87,3714.87,3719.49,3722.05,3718.97,3743.59,4261.54,3720.51,3723.08,0
15_5_34,70,3716.41,3716.41,3717.95,3716.41,3715.9,3716.41,3715.9,3721.03,3722.56,3727.69,3742.56,4263.08,3721.03,3723.08,0
15_5_34,71,3717.95,3723.08,3717.44,3716.41,3714.87,3717.44,3717.44,3721.54,3722.05,3730.77,3739.49,4264.62,3722.05,3721.03,0
15_5_34,72,3716.92,3722.56,3718.97,3716.92,3714.36,3716.41,3717.95,3721.03,3722.05,3728.72,3741.03,4264.62,3723.08,3725.13,0
15_5_34,73,3715.9,3720.51,3720,3718.46,3717.44,3715.38,3719.49,3722.05,3721.54,3729.74,3743.59,4265.13,3723.08,3728.21,0
15_5_34,74,3715.9,3723.08,3720,3720,3716.41,3716.41,3721.54,3723.08,3722.56,3731.79,3741.54,4266.15,3722.56,3724.62,0
15_5_34,75,3716.41,3723.59,3722.05,3720,3713.85,3716.41,3722.56,3721.03,3722.05,3730.26,3740,4267.18,3722.56,3725.13,0
15_5_34,76,3720,3721.54,3722.05,3719.49,3716.92,3715.9,3720,3720,3721.03,3729.74,3742.05,4267.18,3722.56,3730.26,0
15_5_34,77,3721.03,3723.08,3719.49,3719.49,3718.97,3717.95,3718.97,3721.54,3724.1,3732.82,3748.21,4269.23,3722.56,3729.74,0
15_5_34,78,3715.9,3722.56,3721.54,3721.03,3718.46,3720,3719.49,3723.08,3731.28,3732.82,3751.28,4276.41,3723.59,3727.69,0
15_5_34,79,3713.85,3721.03,3723.08,3721.54,3716.92,3718.46,3720.51,3722.05,3730.26,3729.74,3748.72,4278.46,3723.08,3730.26,0
15_5_34,80,3720,3723.08,3721.54,3721.03,3716.92,3718.46,3722.56,3723.08,3725.64,3728.21,3748.72,4275.38,3722.56,3730.77,0
15_5_34,81,3724.1,3722.56,3721.54,3721.03,3716.92,3719.49,3722.56,3724.1,3729.23,3730.26,3752.82,4278.46,3725.64,3729.74,0
15_5_34,82,3723.08,3721.54,3721.54,3722.05,3717.44,3720.51,3720.51,3723.08,3733.33,3734.87,3752.31,4282.05,3728.21,3730.77,0
15_5_34,83,3722.56,3723.08,3722.05,3722.05,3720,3719.49,3721.03,3722.56,3730.77,3736.92,3749.23,4280.51,3728.72,3730.77,0
15_5_34,84,3723.08,3723.08,3722.05,3721.54,3718.46,3720,3722.56,3722.56,3729.74,3736.92,3749.23,4283.59,3726.15,3729.23,0
15_5_34,85,3722.56,3723.59,3721.03,3722.05,3716.92,3720,3721.03,3723.08,3730.26,3737.44,3751.28,4286.67,3725.64,3729.74,0
15_5_34,86,3722.05,3725.64,3720.51,3722.05,3720.51,3718.46,3722.56,3725.13,3730.77,3738.97,3751.79,4285.64,3729.23,3731.79,0
15_5_34,87,3722.05,3727.18,3721.03,3722.05,3723.59,3718.46,3722.56,3723.08,3730.77,3738.46,3752.31,4287.18,3731.79,3731.28,0
15_5_34,88,3722.05,3727.69,3724.1,3722.05,3722.05,3721.54,3720.51,3721.03,3730.77,3737.95,3754.36,4291.79,3729.23,3729.23,0
15_5_34,89,3722.05,3730.26,3725.13,3722.05,3720,3722.05,3724.1,3722.56,3729.74,3738.46,3754.87,4294.36,3729.74,3731.79,0
15_5_34,90,3722.56,3729.23,3722.56,3721.54,3721.03,3721.03,3726.67,3722.05,3730.77,3737.95,3752.82,4294.87,3732.82,3732.82,0
15_5_34,91,3721.54,3726.67,3722.05,3721.03,3720.51,3721.54,3726.67,3723.59,3732.82,3737.95,3752.82,4295.9,3729.23,3731.79,0
15_5_34,92,3722.56,3726.67,3721.54,3721.03,3720.51,3722.56,3728.21,3726.67,3733.85,3737.95,3754.36,4297.44,3728.21,3734.87,0
15_5_34,93,3724.62,3726.67,3721.54,3721.54,3721.54,3721.03,3725.13,3725.64,3731.79,3737.95,3754.87,4297.44,3732.31,3737.44,0
15_5_34,94,3725.64,3728.21,3724.62,3721.03,3721.54,3722.56,3719.49,3724.62,3730.26,3737.95,3753.85,4299.49,3732.31,3736.41,0
15_5_34,95,3726.67,3729.23,3726.15,3721.03,3721.54,3724.1,3723.59,3731.79,3732.82,3737.95,3753.33,4302.05,3730.77,3734.87,0
15_5_34,96,3725.13,3731.28,3724.1,3722.05,3721.03,3721.03,3727.18,3732.82,3732.82,3737.95,3753.85,4301.54,3731.79,3736.41,0
15_5_34,97,3722.05,3732.31,3721.54,3722.56,3723.08,3723.08,3726.67,3725.64,3729.23,3737.95,3753.85,4301.03,3732.82,3736.92,0
15_5_34,98,3723.08,3730.26,3722.05,3721.54,3721.54,3725.13,3727.69,3725.64,3732.82,3737.95,3753.33,4305.64,3730.77,3736.92,0
15_5_34,99,3728.21,3729.74,3724.62,3724.1,3721.54,3724.62,3727.69,3730.77,3737.95,3737.95,3753.85,4310.77,3729.74,3736.92,0
15_5_34,100,3731.79,3731.79,3726.67,3726.67,3726.15,3724.62,3729.23,3730.26,3736.92,3737.95,3753.85,4310.77,3732.31,3736.92,0
15_5_34,101,3728.72,3732.31,3722.56,3725.13,3728.21,3726.15,3729.23,3728.21,3734.87,3737.95,3753.33,4309.74,3737.95,3736.92,0
15_5_34,102,3725.64,3732.31,3721.54,3723.59,3726.15,3724.1,3728.21,3732.82,3735.9,3737.95,3753.85,4312.82,3739.49,3736.92,0
15_5_34,103,3728.72,3733.85,3728.72,3724.62,3724.62,3723.59,3730.26,3735.9,3736.41,3737.95,3754.36,4315.38,3737.44,3736.92,0
15_5_34,104,3730.26,3734.36,3729.23,3726.15,3722.56,3725.13,3730.26,3730.77,3736.41,3737.95,3754.36,4317.95,3737.95,3736.92,0
15_5_34,105,3726.67,3738.97,3728.21,3729.74,3720.51,3723.59,3727.69,3727.69,3737.95,3737.95,3753.33,4319.49,3736.41,3736.41,0
15_5_34,106,3726.67,3740.51,3733.33,3731.28,3724.1,3727.18,3730.77,3730.77,3736.92,3737.95,3754.87,4319.49,3731.79,3736.92,0
15_5_34,107,3729.74,3734.87,3733.33,3725.13,3728.21,3728.72,3732.82,3732.82,3735.38,3737.95,3757.44,4319.49,3729.23,3738.46,0
15_5_34,108,3730.77,3732.82,3727.69,3721.03,3728.72,3727.69,3730.77,3731.28,3736.41,3737.95,3753.85,4321.54,3730.77,3737.95,0
15_5_34,109,3731.79,3734.36,3728.72,3723.08,3727.18,3728.21,3733.33,3733.85,3737.44,3737.95,3754.87,4325.13,3735.38,3736.92,0
15_5_34,110,3728.72,3732.31,3732.82,3723.59,3726.15,3729.23,3733.33,3738.97,3736.92,3737.44,3764.1,4326.15,3736.92,3737.44,0
15_5_34,111,3725.64,3734.36,3731.28,3724.62,3726.67,3729.74,3727.18,3736.92,3736.41,3738.46,3766.15,4326.15,3737.44,3738.97,0
15_5_34,112,3732.31,3736.92,3730.77,3724.1,3726.67,3731.28,3728.21,3732.82,3737.44,3737.95,3760.51,4328.72,3738.97,3738.46,0
15_5_34,113,3734.87,3734.87,3732.31,3720.51,3725.13,3731.28,3732.31,3732.31,3738.97,3736.92,3763.08,4332.82,3741.03,3738.46,0
15_5_34,114,3729.74,3736.41,3731.79,3726.15,3726.67,3730.26,3732.31,3733.33,3738.46,3742.56,3761.03,4331.79,3740.51,3738.97,0
15_5_34,115,3728.21,3740,3731.28,3737.44,3727.18,3728.72,3732.82,3735.38,3736.92,3747.69,3756.92,4331.28,3740,3737.95,0
15_5_34,116,3732.31,3736.41,3731.28,3734.36,3726.67,3724.1,3732.82,3736.92,3737.44,3746.15,3760.51,4334.36,3740.51,3738.97,0
15_5_34,117,3732.82,3734.36,3734.36,3727.69,3729.74,3727.18,3730.26,3736.41,3737.95,3744.1,3764.1,4335.38,3740,3739.49,0
15_5_34,118,3730.77,3738.97,3735.9,3732.31,3731.79,3733.33,3733.33,3736.92,3737.95,3745.13,3762.05,4335.9,3740,3736.92,0
15_5_34,119,3731.28,3740,3733.33,3735.38,3729.74,3730.77,3737.44,3737.95,3738.46,3746.15,3762.05,4338.97,3740,3740,0
15_5_34,120,3730.26,3736.41,3733.33,3731.79,3732.31,3729.74,3734.36,3735.9,3738.97,3745.13,3763.08,4340,3740,3745.13,0
15_5_34,121,3729.74,3734.87,3734.36,3730.77,3733.85,3731.79,3733.33,3735.38,3738.46,3745.64,3763.08,4340,3740,3741.03,0
15_5_34,122,3734.87,3738.46,3735.38,3732.31,3730.77,3731.79,3737.44,3737.44,3738.46,3745.64,3765.13,4343.08,3740,3736.92,0
15_5_34,123,3737.44,3738.97,3733.85,3734.36,3731.79,3729.74,3737.95,3736.92,3738.97,3741.03,3767.18,4347.69,3740,3739.49,0
15_5_34,124,3733.33,3738.46,3731.79,3732.82,3733.85,3728.72,3735.38,3736.92,3738.46,3736.92,3767.18,4349.23,3740,3740,0
15_5_34,125,3733.85,3738.97,3735.38,3729.23,3730.77,3730.26,3735.9,3736.92,3738.46,3740,3769.23,4347.69,3740,3738.46,0
15_5_34,126,3737.44,3737.95,3738.46,3730.26,3733.85,3734.36,3737.44,3736.41,3739.49,3740.51,3769.74,4346.67,3740,3738.97,0
15_5_34,127,3736.41,3736.92,3733.33,3735.38,3733.85,3734.87,3736.92,3737.44,3739.49,3735.38,3769.74,4350.26,3740,3738.97,0
15_5_34,128,3737.95,3738.46,3730.77,3737.44,3728.21,3733.33,3736.92,3737.95,3738.97,3741.03,3768.21,4352.31,3740,3740,0
15_5_34,0,3738.97,3738.46,3736.92,3735.9,3730.77,3733.85,3736.92,3737.44,3739.49,3750.26,3770.77,4350.77,3740,3740.51,0
15_5_34,1,3732.82,3738.97,3736.92,3736.92,3737.44,3733.85,3737.44,3736.92,3736.41,3747.18,3770.77,4352.31,3739.49,3739.49,0
15_5_34,2,3734.36,3739.49,3734.87,3738.97,3733.85,3735.38,3737.95,3737.44,3741.03,3744.62,3768.72,4356.41,3741.03,3745.64,0
15_5_34,3,3740.51,3738.97,3737.44,3737.95,3729.74,3736.41,3737.44,3736.92,3751.79,3746.15,3769.23,4355.38,3739.49,3751.79,0
15_5_34,4,3738.46,3739.49,3737.95,3736.92,3734.87,3735.38,3736.41,3737.44,3747.18,3744.1,3770.26,4355.38,3738.46,3748.72,0
15_5_34,5,3735.38,3738.46,3737.95,3736.92,3736.92,3734.87,3737.44,3737.95,3738.46,3748.21,3770.26,4358.46,3744.1,3743.08,0
15_5_34,6,3737.95,3738.46,3738.46,3737.44,3733.33,3736.41,3739.49,3737.95,3745.13,3755.38,3769.74,4362.05,3746.15,3746.67,0
15_5_34,7,3738.46,3742.56,3738.46,3737.95,3733.85,3735.9,3736.92,3737.44,3749.23,3750.77,3770.26,4363.08,3738.97,3750.26,0
15_5_35,8,3736.92,3744.62,3737.95,3737.95,3737.44,3735.9,3738.46,3738.97,3742.56,3747.18,3770.26,4364.1,3737.95,3746.67,0
15_5_35,9,3737.44,3740,3738.46,3737.44,3736.92,3736.41,3745.13,3738.46,3748.21,3752.31,3770.26,4365.64,3745.13,3747.69,0
15_5_35,10,3737.95,3741.54,3738.46,3736.92,3736.41,3734.87,3743.08,3738.97,3755.9,3753.85,3769.74,4365.64,3747.18,3751.28,0
15_5_35,11,3738.46,3746.15,3737.95,3736.92,3738.46,3735.38,3736.41,3739.49,3750.26,3751.79,3770.26,4365.64,3746.67,3748.21,0
15_5_35,12,3738.46,3741.03,3737.95,3737.44,3737.95,3738.46,3738.46,3737.95,3745.13,3752.82,3771.28,4366.15,3743.08,3744.1,0
15_5_35,13,3738.97,3739.49,3738.46,3738.46,3735.9,3737.44,3741.03,3742.05,3746.15,3752.82,3771.79,4366.15,3741.54,3748.72,0
15_5_35,14,3738.46,3744.62,3737.95,3738.97,3737.44,3736.41,3738.46,3745.64,3747.69,3751.28,3770.77,4367.69,3747.18,3753.33,0
15_5_35,15,3737.44,3745.13,3737.95,3738.46,3738.46,3736.41,3736.41,3742.05,3747.69,3751.79,3770.26,4373.85,3748.21,3752.31,0
15_5_35,16,3737.44,3745.13,3738.97,3738.46,3738.97,3737.95,3736.41,3736.92,3747.69,3751.79,3770.26,4373.85,3744.1,3752.31,0
15_5_35,17,3739.49,3749.23,3738.46,3738.97,3737.95,3736.41,3740.51,3740.51,3749.23,3751.79,3770.26,4370.26,3746.67,3752.82,0
15_5_35,18,3740,3750.26,3737.95,3738.46,3737.44,3736.92,3741.54,3742.56,3750.26,3751.79,3769.74,4374.87,3750.77,3751.79,0
15_5_35,19,3738.46,3747.69,3740,3738.46,3738.46,3737.44,3740,3741.03,3752.31,3751.79,3770.26,4378.97,3748.72,3752.82,0
15_5_35,20,3737.95,3744.1,3740.51,3738.46,3738.97,3736.41,3741.54,3743.59,3750.77,3751.79,3771.28,4377.95,3748.21,3753.33,0
15_5_35,21,3737.95,3743.08,3737.44,3738.46,3737.44,3740.51,3743.08,3742.05,3747.18,3752.31,3768.21,4378.97,3749.74,3749.23,0
15_5_35,22,3739.49,3746.67,3738.97,3738.46,3736.41,3743.08,3742.05,3734.36,3748.21,3753.33,3771.79,4384.1,3748.72,3749.23,0
15_5_35,23,3740.51,3749.23,3741.54,3739.49,3737.95,3741.54,3742.56,3738.46,3752.82,3753.85,3779.49,4384.62,3749.23,3754.36,0
15_5_35,24,3742.05,3749.23,3740,3737.44,3737.95,3740,3740.51,3749.74,3753.85,3753.33,3781.03,4382.56,3751.28,3752.82,0
15_5_35,25,3743.08,3750.26,3740.51,3738.97,3738.46,3742.56,3739.49,3751.28,3752.82,3753.85,3775.9,4383.59,3753.85,3750.26,0
15_5_35,26,3743.08,3749.23,3745.64,3745.13,3737.44,3743.08,3744.1,3748.21,3754.36,3753.85,3778.46,4386.15,3754.36,3751.79,0
15_5_35,27,3742.05,3745.64,3745.64,3742.56,3738.46,3743.59,3745.13,3748.21,3752.82,3753.85,3780,4386.15,3752.31,3751.28,0
15_5_35,28,3741.54,3745.13,3744.1,3735.9,3742.05,3744.1,3746.15,3746.15,3750.77,3753.85,3776.41,4387.69,3750.77,3749.74,0
15_5_35,29,3742.56,3747.69,3747.69,3737.44,3743.08,3742.56,3749.74,3744.1,3752.31,3753.33,3776.92,4392.31,3753.33,3750.26,0
15_5_35,30,3741.54,3746.15,3749.23,3741.03,3741.03,3740.51,3747.18,3742.56,3752.82,3753.85,3775.38,4392.82,3754.36,3751.28,0
15_5_35,31,3740,3744.62,3747.18,3737.95,3741.54,3741.03,3745.64,3744.1,3753.33,3754.36,3776.41,4391.79,3751.79,3753.33,0
15_5_35,32,3740,3747.69,3746.67,3741.03,3743.08,3743.59,3747.18,3750.26,3753.33,3754.87,3780.51,4393.33,3752.31,3754.87,0
15_5_35,33,3741.54,3750.77,3749.23,3748.21,3739.49,3746.67,3746.15,3751.28,3753.33,3754.87,3782.56,4394.36,3754.36,3754.87,0
15_5_35,34,3739.49,3749.23,3748.21,3747.18,3742.56,3745.13,3746.15,3749.74,3753.33,3754.87,3783.59,4395.9,3752.31,3754.87,0
15_5_35,35,3741.03,3749.74,3747.18,3744.62,3746.15,3742.56,3749.23,3750.77,3753.33,3754.36,3783.59,4397.95,3750.77,3753.85,0
15_5_35,36,3748.21,3750.77,3749.74,3747.18,3744.1,3743.59,3749.23,3746.67,3753.85,3754.87,3782.05,4396.92,3752.31,3753.33,0
15_5_35,37,3748.72,3751.28,3749.74,3749.23,3743.08,3742.05,3747.18,3747.69,3753.85,3755.38,3781.03,4397.44,3752.82,3753.85,0
15_5_35,38,3743.08,3752.31,3748.21,3745.13,3745.64,3742.05,3747.69,3753.33,3753.85,3754.87,3786.15,4401.54,3752.31,3753.85,0
15_5_35,39,3744.62,3753.33,3750.26,3743.59,3748.21,3747.18,3748.21,3753.85,3753.85,3753.33,3787.18,4401.54,3753.33,3753.33,0
15_5_35,40,3748.72,3751.79,3751.79,3745.64,3746.15,3748.21,3748.72,3751.79,3753.85,3753.85,3786.15,4403.08,3753.85,3753.85,0
15_5_35,41,3748.72,3752.31,3750.26,3746.67,3744.1,3743.08,3749.23,3753.85,3753.33,3755.38,3786.15,4405.13,3753.33,3753.33,0
15_5_35,42,3749.23,3752.82,3749.23,3746.15,3746.15,3744.1,3750.26,3752.31,3753.85,3755.38,3785.64,4405.13,3753.33,3753.85,0
15_5_35,43,3748.72,3752.31,3749.74,3746.15,3748.21,3748.72,3749.74,3750.77,3753.85,3754.87,3785.64,4403.59,3753.85,3753.33,0
15_5_35,44,3747.69,3752.82,3750.26,3746.67,3746.15,3748.21,3749.23,3752.82,3753.33,3754.87,3785.64,4405.13,3754.36,3753.85,0
15_5_35,45,3748.21,3752.31,3750.26,3745.13,3744.62,3748.21,3749.23,3753.33,3754.87,3756.41,3786.15,4409.23,3754.87,3754.36,0
15_5_35,46,3745.64,3751.79,3750.26,3746.15,3748.21,3749.23,3749.23,3753.33,3755.38,3754.87,3785.64,4412.31,3754.87,3754.36,0
15_5_35,47,3745.64,3752.31,3752.82,3751.28,3749.23,3748.21,3750.26,3753.33,3754.36,3753.85,3786.15,4414.36,3752.82,3754.36,0
15_5_35,48,3750.26,3754.36,3754.36,3754.36,3745.64,3747.69,3750.77,3753.85,3753.85,3762.05,3786.67,4414.36,3752.82,3754.36,0
15_5_35,49,3749.74,3753.33,3752.82,3753.33,3745.64,3750.26,3750.26,3753.33,3755.38,3767.69,3786.67,4413.33,3754.87,3754.87,0
15_5_35,50,3746.67,3752.82,3751.28,3752.82,3752.82,3750.77,3750.77,3753.85,3755.38,3762.05,3786.67,4413.33,3754.87,3754.36,0
15_5_35,51,3750.26,3753.33,3754.87,3753.85,3755.38,3748.21,3751.79,3753.85,3754.87,3760,3786.67,4414.36,3753.33,3757.95,0
15_5_35,52,3753.85,3753.85,3754.87,3754.36,3749.23,3749.74,3750.26,3753.33,3755.38,3763.59,3786.67,4414.87,3753.33,3758.97,0
15_5_35,53,3751.28,3754.36,3754.36,3751.79,3746.15,3750.77,3748.72,3751.79,3755.38,3763.08,3786.67,4414.87,3753.85,3757.44,0
15_5_35,54,3751.28,3754.87,3754.36,3749.74,3751.79,3749.74,3752.31,3751.28,3755.38,3761.03,3786.67,4415.9,3753.33,3760,0
15_5_35,55,3751.28,3754.36,3754.36,3751.79,3753.85,3749.74,3753.33,3752.31,3754.87,3756.41,3786.67,4417.95,3754.36,3762.05,0
15_5_35,56,3748.21,3753.85,3752.82,3754.87,3751.79,3750.26,3752.31,3753.33,3755.38,3752.82,3786.67,4421.03,3755.38,3757.44,0
15_5_35,57,3750.26,3754.36,3752.31,3754.36,3751.28,3750.26,3752.82,3754.87,3756.41,3760,3786.67,4422.56,3754.87,3760,0
15_5_35,58,3753.85,3754.36,3753.85,3752.31,3750.77,3751.79,3754.36,3754.87,3755.9,3764.1,3787.18,4426.15,3754.36,3764.1,0
15_5_35,59,3752.82,3753.85,3752.82,3751.79,3749.74,3753.33,3752.31,3753.33,3753.33,3762.05,3787.69,4428.21,3754.87,3756.92,0
15_5_35,60,3749.74,3753.33,3751.28,3751.79,3751.28,3751.28,3751.79,3752.82,3758.97,3764.62,3788.21,4424.62,3754.36,3757.95,0
15_5_35,61,3752.82,3754.36,3752.31,3751.79,3753.85,3750.77,3753.33,3753.85,3766.67,3770.26,3786.15,4423.59,3754.87,3766.67,0
15_5_35,62,3754.87,3754.36,3754.36,3751.79,3752.82,3751.28,3752.82,3754.87,3763.59,3769.23,3787.69,4428.21,3754.87,3765.64,0
15_5_35,63,3752.82,3754.87,3755.38,3751.79,3751.28,3751.79,3752.31,3755.38,3758.97,3768.21,3790.77,4430.26,3753.85,3760.51,0
15_5_35,64,3752.82,3756.92,3754.36,3751.79,3753.85,3752.31,3753.85,3753.33,3761.03,3768.21,3789.23,4429.23,3756.41,3760.51,0
15_5_35,65,3753.33,3756.92,3752.82,3752.31,3754.87,3752.82,3754.87,3753.85,3762.05,3766.15,3786.15,4429.74,3758.97,3762.56,0
15_5_35,66,3752.82,3754.87,3753.33,3753.85,3754.36,3753.33,3754.36,3759.49,3758.97,3767.18,3791.28,4430.77,3758.97,3764.1,0
15_5_35,67,3752.31,3755.9,3754.87,3754.36,3754.87,3753.85,3754.36,3758.97,3758.46,3768.72,3796.92,4431.28,3758.46,3763.59,0
15_5_35,68,3753.85,3754.36,3754.87,3753.85,3753.85,3753.33,3754.87,3753.33,3761.03,3768.72,3790.77,4432.31,3761.03,3762.05,0
15_5_35,69,3753.85,3753.33,3754.87,3753.85,3753.33,3753.85,3754.87,3753.85,3765.64,3769.23,3791.28,4433.33,3760.51,3767.18,0
15_5_35,70,3753.33,3757.44,3754.87,3754.36,3754.36,3753.33,3753.85,3757.44,3768.21,3769.74,3800,4434.87,3758.97,3768.72,0
15_5_35,71,3754.36,3755.9,3755.38,3754.87,3754.87,3752.31,3753.85,3757.95,3767.69,3769.23,3795.9,4436.92,3763.59,3767.18,0
15_5_35,72,3755.38,3758.97,3754.36,3754.87,3754.36,3752.82,3753.33,3760.51,3767.69,3769.23,3789.23,4438.97,3765.64,3768.72,0
15_5_35,73,3754.87,3764.1,3754.87,3755.38,3754.36,3754.36,3754.36,3760.51,3767.18,3770.26,3795.38,4438.97,3761.54,3768.21,0
15_5_35,74,3755.38,3761.03,3757.44,3755.38,3753.85,3753.85,3755.38,3755.38,3767.18,3769.74,3801.54,4439.49,3762.05,3765.64,0
15_5_35,75,3755.9,3760,3756.41,3755.38,3753.33,3752.31,3753.85,3753.85,3767.69,3769.23,3797.44,4442.05,3767.69,3767.18,0
15_5_35,76,3753.85,3764.1,3750.77,3755.38,3753.33,3753.33,3755.9,3757.95,3767.69,3769.74,3796.41,4442.05,3765.13,3768.72,0
15_5_35,77,3756.41,3760.51,3753.33,3755.38,3754.36,3753.33,3758.46,3758.46,3767.69,3769.23,3798.97,4442.05,3758.97,3766.15,0
15_5_35,78,3759.49,3760,3760,3755.38,3755.38,3753.33,3759.49,3756.92,3767.69,3769.23,3801.03,4445.64,3762.56,3765.13,0
15_5_35,79,3759.49,3765.64,3758.46,3755.38,3754.87,3754.36,3756.92,3762.05,3767.18,3769.74,3800.51,4446.15,3766.15,3767.69,0
15_5_35,80,3756.41,3762.56,3756.92,3755.38,3753.85,3755.38,3756.41,3766.67,3768.72,3770.26,3798.97,4443.08,3762.56,3769.74,0
15_5_35,81,3760.51,3760,3760,3755.38,3753.33,3753.33,3761.03,3763.08,3770.26,3770.26,3799.49,4446.67,3762.56,3768.72,0
15_5_35,82,3763.59,3766.67,3759.49,3755.38,3754.87,3756.41,3763.59,3761.54,3768.72,3770.26,3800.51,4452.31,3768.72,3768.72,0
15_5_35,83,3760,3766.67,3757.95,3755.38,3756.41,3759.49,3759.49,3762.56,3767.18,3770.26,3802.05,4451.28,3769.23,3770.26,0
15_5_35,84,3758.97,3763.59,3758.97,3754.87,3757.44,3757.95,3756.92,3762.56,3767.18,3770.26,3800.51,4449.74,3767.69,3769.74,0
15_5_35,85,3762.56,3765.13,3758.46,3754.87,3757.44,3757.95,3756.92,3767.18,3766.67,3770.26,3797.95,4448.21,3768.72,3769.23,0
15_5_35,86,3764.1,3768.21,3761.03,3755.9,3756.41,3761.54,3757.44,3767.18,3766.67,3770.26,3798.46,4449.74,3768.21,3767.69,0
15_5_35,87,3762.56,3767.69,3763.08,3754.87,3756.92,3764.1,3760.51,3759.49,3767.18,3770.26,3798.97,4454.87,3767.18,3766.67,0
15_5_35,88,3760,3765.13,3762.56,3753.85,3757.95,3760,3760.51,3759.49,3769.23,3770.26,3798.46,4457.95,3768.72,3769.23,0
15_5_35,89,3758.46,3766.15,3765.13,3760.51,3755.9,3757.95,3760,3766.67,3769.74,3770.26,3799.49,4457.95,3768.72,3771.79,0
15_5_35,90,3762.05,3767.18,3767.69,3765.64,3754.36,3759.49,3766.15,3764.62,3767.69,3770.26,3801.03,4456.41,3768.72,3769.23,0
15_5_35,91,3762.56,3763.59,3763.59,3762.56,3759.49,3758.97,3764.1,3763.59,3767.18,3770.26,3803.08,4457.95,3769.23,3768.21,0
15_5_35,92,3757.95,3762.05,3762.56,3760.51,3760.51,3756.92,3756.92,3767.69,3768.72,3770.26,3802.56,4458.97,3769.23,3772.31,0
15_5_35,93,3762.05,3767.18,3765.64,3761.54,3756.41,3760,3761.03,3765.64,3769.74,3770.26,3801.54,4459.49,3770.26,3771.28,0
15_5_35,94,3766.15,3767.69,3766.15,3762.05,3756.41,3761.54,3765.13,3764.1,3769.23,3770.77,3802.56,4457.95,3768.21,3767.69,0
15_5_35,95,3760.51,3763.59,3765.64,3761.03,3760,3757.95,3764.1,3767.69,3769.23,3770.77,3803.08,4458.46,3764.62,3769.23,0
15_5_35,96,3756.41,3766.15,3767.18,3760.51,3760,3761.54,3762.56,3768.21,3769.74,3770.26,3803.08,4462.05,3767.18,3771.79,0
15_5_35,97,3761.03,3770.77,3767.69,3764.1,3761.54,3766.15,3760,3766.15,3769.23,3771.79,3803.08,4464.1,3770.26,3771.79,0
15_5_35,98,3765.64,3770.26,3766.15,3769.23,3763.08,3765.13,3760.51,3767.69,3768.72,3771.28,3802.56,4462.56,3769.23,3770.77,0
15_5_35,99,3765.13,3766.15,3765.13,3763.59,3760.51,3766.67,3763.08,3766.67,3769.74,3768.72,3802.56,4458.97,3768.21,3770.26,0
15_5_35,100,3762.56,3765.64,3766.15,3759.49,3761.03,3766.67,3764.1,3765.64,3771.79,3776.92,3803.08,4462.56,3770.26,3771.28,0
15_5_35,101,3765.13,3768.72,3768.21,3763.59,3765.13,3763.08,3765.13,3769.23,3770.77,3784.62,3802.05,4469.23,3770.77,3772.31,0
15_5_35,102,3767.18,3769.23,3767.69,3762.56,3766.67,3764.1,3766.67,3768.72,3769.23,3775.38,3803.08,4468.21,3769.74,3770.77,0
15_5_35,103,3764.1,3768.72,3766.67,3760,3764.62,3766.15,3765.64,3767.18,3770.77,3765.13,3804.1,4467.18,3769.23,3768.72,0
15_5_35,104,3766.15,3768.21,3767.69,3765.13,3764.1,3763.59,3766.67,3767.69,3771.79,3773.85,3803.08,4473.85,3769.74,3773.85,0
15_5_35,105,3769.74,3769.74,3767.69,3768.21,3763.59,3765.64,3769.23,3768.21,3771.28,3785.13,3803.08,4475.38,3770.77,3776.92,0
15_5_35,106,3766.15,3770.26,3768.21,3767.18,3761.54,3768.21,3767.18,3768.21,3771.28,3782.05,3803.59,4471.79,3770.26,3771.79,0
15_5_35,107,3764.1,3769.74,3767.18,3768.21,3764.62,3767.69,3769.23,3768.72,3771.79,3777.44,3802.56,4472.82,3770.26,3768.72,0
15_5_35,108,3768.72,3769.74,3767.18,3768.72,3767.18,3766.15,3769.23,3768.21,3771.28,3780.51,3802.05,4474.36,3770.26,3771.28,0
15_5_35,109,3769.74,3771.28,3769.23,3768.72,3765.13,3764.1,3767.69,3769.74,3771.28,3783.08,3805.13,4472.82,3770.26,3771.79,0
15_5_35,110,3768.72,3770.77,3769.23,3769.23,3763.59,3763.59,3767.18,3770.26,3771.28,3781.54,3804.62,4473.85,3770.26,3770.77,0
15_5_35,111,3767.69,3769.23,3767.69,3769.23,3767.69,3767.69,3769.23,3769.23,3771.28,3781.03,3806.67,4474.36,3770.26,3769.23,0
15_5_35,112,3768.72,3770.26,3769.23,3769.23,3769.23,3766.67,3767.18,3768.72,3771.28,3782.05,3808.72,4475.9,3770.26,3773.85,0
15_5_35,113,3769.74,3771.79,3770.26,3769.74,3767.18,3765.13,3766.67,3770.26,3770.77,3781.54,3808.72,4477.95,3771.28,3779.49,0
15_5_35,114,3768.72,3770.77,3768.72,3769.23,3766.15,3768.21,3768.21,3770.77,3771.28,3781.54,3811.28,4477.95,3771.79,3776.92,0
15_5_35,115,3768.21,3770.26,3768.21,3768.72,3767.69,3770.26,3769.23,3769.74,3771.79,3781.54,3812.82,4478.97,3771.79,3769.74,0
15_5_35,116,3769.23,3769.74,3769.23,3767.69,3769.23,3768.72,3767.18,3770.26,3769.74,3781.54,3807.69,4477.95,3772.31,3773.85,0
15_5_35,117,3767.69,3770.77,3770.26,3766.67,3768.21,3768.21,3767.18,3770.77,3772.82,3781.54,3809.74,4477.44,3771.79,3780,0
15_5_35,118,3767.69,3772.82,3769.74,3766.67,3766.67,3767.18,3772.31,3771.28,3782.05,3781.54,3811.79,4478.46,3770.77,3777.95,0
15_5_35,119,3770.77,3769.23,3769.74,3768.72,3768.72,3767.18,3775.38,3770.77,3784.1,3781.54,3807.69,4481.54,3775.38,3777.44,0
15_5_35,120,3770.77,3769.23,3769.23,3769.23,3769.74,3768.21,3770.26,3770.26,3782.05,3781.54,3809.74,4481.54,3776.92,3784.1,0
15_5_35,121,3770.26,3775.9,3769.23,3768.72,3767.69,3767.69,3767.18,3770.77,3783.08,3781.54,3813.33,4480.51,3771.28,3785.13,0
15_5_35,122,3771.79,3774.36,3769.74,3769.74,3768.72,3768.21,3768.72,3771.79,3786.67,3782.56,3811.79,4484.1,3770.26,3775.38,0
15_5_35,123,3770.77,3769.74,3770.77,3770.26,3771.28,3768.72,3769.23,3770.77,3786.67,3784.62,3813.85,4489.23,3772.31,3773.85,0
15_5_35,124,3769.74,3773.33,3770.77,3770.26,3769.23,3767.69,3769.23,3770.26,3778.97,3785.64,3815.9,4489.23,3769.74,3780,0
15_5_35,125,3770.26,3773.85,3768.72,3770.26,3767.18,3767.69,3770.26,3770.26,3774.87,3783.59,3814.36,4487.18,3771.79,3777.95,0
15_5_35,126,3770.77,3769.74,3768.72,3770.26,3769.23,3769.23,3769.74,3770.26,3778.97,3783.08,3814.36,4488.21,3776.41,3778.46,0
15_5_35,127,3769.74,3770.26,3770.77,3770.26,3768.72,3768.21,3769.23,3770.26,3781.03,3783.59,3813.85,4489.74,3771.79,3784.1,0
15_5_35,128,3768.72,3772.31,3771.79,3770.26,3767.18,3768.21,3770.26,3770.26,3780,3785.64,3813.85,4490.26,3769.74,3784.1,0
15_5_35,0,3770.26,3771.79,3769.23,3770.26,3769.74,3770.26,3770.77,3770.26,3784.1,3786.15,3815.9,4492.31,3772.31,3781.03,0
15_5_35,1,3772.31,3769.23,3770.77,3770.26,3771.79,3768.72,3770.77,3770.77,3780.51,3786.15,3814.87,4490.77,3768.72,3782.56,0
15_5_35,2,3770.26,3772.82,3775.9,3770.26,3768.72,3767.18,3771.28,3771.28,3774.87,3786.15,3814.36,4489.74,3772.31,3782.05,0
15_5_35,3,3769.74,3780,3774.36,3770.26,3769.74,3769.74,3770.26,3771.79,3780,3786.15,3814.87,4490.77,3782.05,3780.51,0
15_5_35,4,3773.85,3777.95,3769.74,3770.26,3772.82,3770.26,3771.28,3772.31,3784.62,3786.15,3815.9,4492.31,3778.97,3782.56,0
15_5_35,5,3778.97,3772.82,3770.26,3770.26,3771.79,3767.69,3772.31,3770.77,3782.05,3786.15,3817.44,4494.36,3776.41,3784.62,0
15_5_35,6,3777.95,3778.46,3771.28,3770.26,3770.77,3769.23,3772.31,3772.31,3782.56,3786.15,3816.92,4493.33,3784.1,3784.62,0
15_5_36,7,3774.87,3781.03,3772.31,3770.26,3771.28,3771.79,3774.36,3773.33,3783.59,3786.15,3815.9,4493.85,3784.62,3783.08,0
15_5_36,8,3773.33,3776.92,3775.9,3771.28,3769.74,3770.26,3774.87,3772.82,3782.56,3786.15,3816.92,4500,3778.46,3784.1,0
15_5_36,9,3773.33,3776.92,3776.41,3771.79,3769.74,3769.74,3769.23,3774.36,3782.05,3786.15,3817.95,4501.03,3781.54,3785.64,0
15_5_36,10,3773.85,3782.05,3773.33,3771.28,3771.79,3770.26,3769.74,3776.92,3782.56,3786.15,3816.92,4497.95,3786.67,3785.13,0
15_5_36,11,3774.87,3785.13,3772.82,3771.79,3770.77,3769.23,3775.38,3777.44,3783.59,3786.15,3816.92,4502.56,3780,3784.1,0
15_5_36,12,3773.85,3780.51,3775.38,3772.31,3769.74,3770.77,3774.36,3776.41,3784.1,3786.15,3818.46,4507.18,3772.31,3786.67,0
15_5_36,13,3775.38,3776.41,3775.9,3771.28,3771.28,3770.26,3773.33,3776.92,3783.08,3786.15,3818.46,4501.03,3777.44,3787.18,0
15_5_36,14,3781.54,3782.56,3777.95,3772.31,3771.79,3769.74,3777.44,3774.87,3783.59,3786.15,3817.95,4498.46,3786.67,3785.64,0
15_5_36,15,3779.49,3785.13,3779.49,3772.82,3770.77,3771.79,3780,3775.9,3786.15,3786.15,3818.97,4504.62,3785.13,3786.15,0
15_5_36,16,3773.33,3782.56,3779.49,3769.23,3771.79,3771.28,3777.44,3778.46,3787.18,3786.15,3819.49,4506.15,3782.56,3787.18,0
15_5_36,17,3775.9,3783.08,3776.92,3774.36,3771.79,3774.36,3775.38,3774.87,3786.15,3786.15,3818.97,4504.62,3784.62,3786.67,0
15_5_36,18,3776.92,3782.05,3773.85,3782.05,3769.74,3778.46,3777.95,3776.41,3786.67,3786.15,3817.95,4505.13,3784.62,3786.67,0
15_5_36,19,3773.33,3780,3774.36,3775.9,3773.85,3774.36,3780,3783.08,3786.67,3786.15,3818.46,4506.15,3783.59,3787.18,0
15_5_36,20,3773.85,3781.03,3779.49,3764.1,3776.41,3769.23,3778.97,3785.64,3786.15,3786.15,3818.46,4505.64,3785.13,3786.67,0
15_5_36,21,3774.87,3780.51,3783.59,3771.28,3774.87,3778.46,3779.49,3783.59,3786.15,3787.18,3818.46,4507.18,3784.62,3786.67,0
15_5_36,22,3776.41,3779.49,3781.03,3782.56,3773.85,3780,3780,3777.95,3786.15,3787.18,3818.46,4509.23,3784.62,3786.67,0
15_5_36,23,3782.56,3785.13,3779.49,3775.38,3776.41,3772.82,3778.97,3772.31,3786.15,3787.18,3818.46,4508.21,3785.64,3786.67,0
15_5_36,24,3782.05,3785.13,3781.54,3772.31,3774.87,3777.95,3778.97,3776.41,3786.15,3787.18,3820,4505.64,3786.67,3786.67,0
15_5_36,25,3779.49,3781.03,3782.05,3782.05,3774.87,3778.97,3780,3784.62,3786.15,3787.18,3818.97,4506.67,3785.13,3786.67,0
15_5_36,26,3782.56,3783.59,3781.54,3785.64,3777.95,3767.69,3778.97,3783.59,3786.15,3787.18,3818.46,4508.21,3784.62,3786.67,0
15_5_36,27,3784.62,3784.62,3782.56,3781.03,3778.97,3769.23,3779.49,3783.59,3786.15,3787.18,3824.1,4510.77,3786.67,3786.67,0
15_5_36,28,3782.56,3782.05,3784.62,3782.05,3780,3781.03,3780.51,3785.64,3786.15,3787.18,3829.74,4519.49,3786.67,3786.67,0
15_5_36,29,3782.05,3782.56,3783.08,3784.1,3780.51,3781.03,3779.49,3784.1,3786.15,3787.18,3828.21,4521.54,3785.13,3786.67,0
15_5_36,30,3783.08,3784.62,3783.59,3781.54,3776.92,3776.41,3780,3783.08,3786.15,3786.67,3828.21,4515.9,3785.13,3786.67,0
15_5_36,31,3781.03,3784.62,3784.1,3782.05,3774.87,3778.97,3783.59,3785.13,3786.15,3786.67,3829.74,4516.41,3786.15,3787.18,0
15_5_36,32,3779.49,3783.59,3781.03,3782.05,3778.46,3778.97,3785.13,3785.64,3786.15,3788.21,3825.13,4517.44,3786.15,3787.18,0
15_5_36,33,3778.97,3783.59,3779.49,3782.56,3780,3775.38,3781.54,3785.13,3786.15,3786.15,3816.41,4514.87,3785.64,3785.64,0
15_5_36,34,3781.03,3783.59,3784.62,3783.08,3777.95,3777.44,3778.46,3785.13,3786.15,3786.15,3819.49,4518.97,3786.15,3787.69,0
15_5_36,35,3783.08,3784.62,3786.67,3783.59,3778.97,3780,3782.56,3784.62,3786.15,3794.87,3827.69,4522.56,3786.15,3790.77,0
15_5_36,36,3783.59,3784.1,3784.1,3782.05,3779.49,3777.44,3784.62,3783.08,3786.15,3797.44,3828.72,4520,3786.15,3788.21,0
15_5_36,37,3783.59,3785.13,3783.59,3780.51,3778.46,3774.87,3783.59,3784.1,3786.15,3790.77,3825.64,4518.97,3786.15,3785.64,0
15_5_36,38,3784.1,3786.15,3784.62,3782.56,3779.49,3775.9,3783.59,3785.13,3786.15,3789.23,3826.15,4521.54,3786.15,3787.69,0
15_5_36,39,3785.13,3785.13,3784.62,3785.64,3782.56,3779.49,3786.15,3785.13,3786.15,3792.82,3829.23,4522.05,3786.15,3788.72,0
15_5_36,40,3784.1,3785.13,3784.1,3784.62,3782.56,3780,3786.67,3785.13,3786.15,3791.28,3826.15,4523.59,3786.15,3787.69,0
15_5_36,41,3783.59,3785.64,3783.59,3782.56,3782.56,3782.05,3785.64,3785.13,3786.15,3789.74,3824.1,4524.1,3786.15,3785.64,0
15_5_36,42,3786.67,3784.62,3783.59,3785.13,3784.62,3784.62,3785.13,3783.59,3786.15,3791.28,3829.23,4523.08,3786.15,3789.23,0
15_5_36,43,3785.64,3786.15,3785.13,3786.15,3785.64,3784.62,3785.13,3783.59,3786.15,3792.82,3832.31,4523.08,3786.15,3794.87,0
15_5_36,44,3782.56,3786.67,3786.15,3783.59,3784.62,3782.56,3784.1,3784.1,3786.67,3790.26,3829.74,4525.13,3785.64,3792.82,0
15_5_36,45,3784.1,3785.13,3784.62,3784.1,3783.59,3781.54,3784.1,3783.59,3787.18,3786.15,3828.72,4525.13,3785.64,3790.77,0
15_5_36,46,3785.13,3786.15,3784.1,3784.62,3785.13,3782.56,3785.64,3783.59,3787.18,3793.85,3833.33,4522.56,3786.15,3793.85,0
15_5_36,47,3784.1,3788.72,3787.18,3782.05,3784.62,3783.08,3786.15,3785.64,3787.18,3802.05,3832.82,4524.1,3785.64,3789.23,0
15_5_36,48,3785.13,3788.21,3788.21,3782.56,3784.1,3783.08,3786.15,3787.18,3786.67,3800,3831.28,4523.59,3785.64,3784.62,0
15_5_36,49,3785.13,3785.64,3784.62,3785.13,3783.59,3782.56,3785.13,3786.67,3786.67,3797.95,3832.31,4523.08,3786.67,3792.31,0
15_5_36,50,3784.1,3786.15,3784.62,3785.13,3783.59,3783.59,3783.59,3785.64,3788.72,3800.51,3833.33,4529.74,3786.67,3795.38,0
15_5_36,51,3786.15,3786.15,3786.15,3784.62,3784.1,3784.1,3783.59,3785.64,3787.69,3800,3832.31,4533.33,3786.67,3793.33,0
15_5_36,52,3786.67,3786.15,3785.13,3785.64,3784.1,3784.62,3783.59,3786.15,3786.15,3798.46,3830.77,4531.79,3787.18,3798.46,0
15_5_36,53,3785.64,3786.67,3785.64,3786.15,3784.62,3784.1,3783.08,3786.67,3793.85,3798.46,3831.28,4533.33,3786.15,3799.49,0
15_5_36,54,3786.15,3785.64,3786.15,3786.15,3784.62,3783.59,3785.64,3786.67,3795.9,3798.97,3832.82,4536.41,3785.64,3797.44,0
15_5_36,55,3786.67,3789.74,3785.13,3786.15,3784.62,3784.62,3787.18,3786.67,3790.26,3799.49,3832.82,4535.38,3789.23,3796.92,0
15_5_36,56,3785.64,3794.36,3785.64,3786.15,3785.64,3785.13,3785.64,3786.67,3789.23,3798.97,3831.28,4535.38,3786.67,3797.95,0
15_5_36,57,3786.67,3791.28,3786.67,3786.15,3785.64,3783.08,3785.13,3786.67,3792.82,3798.97,3833.85,4534.36,3785.64,3796.41,0
15_5_36,58,3786.15,3787.18,3786.15,3786.15,3784.1,3783.08,3785.64,3786.67,3795.38,3798.97,3834.87,4531.79,3795.38,3796.41,0
15_5_36,59,3785.64,3788.72,3786.67,3786.15,3783.08,3785.13,3784.1,3786.67,3793.85,3799.49,3832.82,4535.38,3797.95,3797.44,0
15_5_36,60,3786.15,3788.72,3787.18,3786.15,3785.13,3785.13,3783.59,3787.18,3789.74,3798.97,3832.31,4537.44,3788.72,3798.46,0
15_5_36,61,3786.67,3787.69,3786.15,3786.15,3786.67,3785.13,3785.13,3786.67,3791.79,3798.97,3832.82,4535.9,3790.77,3799.49,0
15_5_36,62,3787.69,3788.21,3787.18,3786.15,3787.69,3785.13,3785.13,3784.62,3800,3800,3831.28,4535.9,3796.92,3798.97,0
15_5_36,63,3788.21,3791.28,3788.21,3786.15,3787.18,3784.62,3786.15,3786.15,3800.51,3800,3832.82,4535.9,3790.77,3798.97,0
15_5_36,64,3788.21,3793.33,3786.67,3786.15,3786.15,3784.62,3785.64,3787.18,3798.46,3798.97,3835.38,4534.87,3788.72,3799.49,0
15_5_36,65,3788.21,3789.74,3786.15,3786.15,3787.18,3785.64,3787.18,3786.15,3801.03,3798.97,3834.87,4536.92,3795.38,3798.97,0
15_5_36,66,3786.67,3785.64,3788.21,3786.15,3786.15,3786.15,3790.26,3790.26,3800.51,3801.03,3835.38,4540,3796.41,3796.92,0
15_5_36,67,3786.15,3790.77,3788.21,3786.15,3785.13,3786.67,3788.21,3798.46,3800,3800.51,3836.92,4537.95,3792.82,3796.92,0
15_5_36,68,3787.18,3792.31,3786.67,3786.67,3786.67,3786.67,3787.69,3801.54,3800.51,3798.46,3834.87,4538.46,3793.85,3798.46,0
15_5_36,69,3786.67,3789.23,3789.23,3786.67,3787.69,3785.64,3792.82,3791.28,3800.51,3797.95,3832.31,4540.51,3795.38,3798.97,0
15_5_36,70,3786.67,3793.33,3790.77,3787.18,3785.13,3785.64,3787.69,3786.15,3800.51,3799.49,3834.36,4540.51,3794.36,3800,0
15_5_36,71,3792.82,3796.92,3790.26,3786.67,3786.67,3787.18,3782.05,3793.85,3800,3800,3836.41,4541.03,3797.44,3799.49,0
15_5_36,72,3795.9,3792.82,3788.72,3786.67,3788.21,3787.69,3791.28,3800,3800.51,3800,3835.38,4540.51,3799.49,3799.49,0
15_5_36,73,3791.28,3790.77,3789.23,3790.26,3786.15,3786.15,3793.85,3796.92,3800,3800.51,3833.85,4541.03,3798.97,3800,0
15_5_36,74,3787.69,3795.38,3788.72,3793.33,3789.23,3786.67,3790.26,3796.41,3799.49,3801.54,3832.82,4545.13,3797.95,3800,0
15_5_36,75,3793.85,3793.33,3790.26,3791.79,3790.77,3787.18,3791.28,3797.95,3798.46,3802.56,3837.95,4550.26,3798.97,3799.49,0
15_5_36,76,3794.87,3791.28,3790.77,3791.28,3788.21,3787.69,3790.26,3798.97,3798.46,3802.56,3841.03,4550.77,3798.46,3802.56,0
15_5_36,77,3791.28,3796.41,3792.82,3795.38,3787.69,3788.72,3792.31,3798.46,3800,3802.56,3839.49,4550.77,3798.46,3803.59,0
15_5_36,78,3792.31,3792.82,3794.87,3800.51,3792.31,3788.72,3799.49,3793.33,3801.03,3803.08,3837.44,4549.23,3798.46,3800.51,0
15_5_36,79,3794.36,3791.28,3794.87,3795.9,3794.36,3787.69,3792.82,3791.28,3800,3803.08,3838.97,4545.64,3797.95,3800.51,0
15_5_36,80,3791.28,3800.51,3791.79,3786.15,3795.38,3789.23,3787.69,3797.44,3799.49,3802.56,3837.95,4548.72,3798.97,3803.08,0
15_5_36,81,3788.72,3801.54,3790.77,3789.74,3790.77,3789.23,3793.33,3799.49,3801.03,3802.56,3835.9,4552.82,3798.97,3802.05,0
15_5_36,82,3789.23,3795.38,3794.36,3799.49,3789.74,3789.74,3792.82,3794.87,3802.05,3802.56,3838.46,4551.79,3801.54,3799.49,0
15_5_36,83,3792.82,3796.41,3795.9,3799.49,3793.33,3791.79,3792.31,3794.36,3801.54,3802.56,3837.44,4551.28,3803.59,3801.03,0
15_5_36,84,3798.97,3798.97,3793.33,3794.87,3792.31,3792.31,3795.9,3796.92,3801.03,3802.56,3837.44,4551.79,3801.03,3802.56,0
15_5_36,85,3798.97,3795.9,3795.9,3797.44,3793.33,3793.85,3794.36,3797.44,3800,3802.56,3843.08,4552.31,3798.97,3801.54,0
15_5_36,86,3794.36,3795.38,3799.49,3801.03,3800,3795.9,3795.38,3797.95,3801.54,3802.56,3847.18,4551.28,3800,3801.54,0
15_5_36,87,3795.38,3795.38,3795.9,3791.79,3797.44,3792.31,3797.95,3798.46,3803.08,3802.56,3844.1,4551.28,3801.03,3803.59,0
15_5_36,88,3797.44,3798.46,3794.36,3787.69,3788.72,3789.23,3792.31,3798.97,3801.54,3802.56,3842.05,4550.77,3800,3803.59,0
15_5_36,89,3794.87,3800.51,3798.97,3793.33,3789.74,3792.82,3792.82,3798.97,3800,3802.56,3844.1,4552.31,3799.49,3802.05,0
15_5_36,90,3793.85,3796.92,3799.49,3793.85,3793.85,3792.82,3797.95,3800,3802.56,3803.59,3844.1,4553.85,3801.03,3803.08,0
15_5_36,91,3798.97,3795.38,3800.51,3792.31,3791.79,3793.33,3792.31,3800.51,3803.08,3805.13,3842.56,4552.82,3802.56,3803.08,0
15_5_36,92,3800,3797.95,3800,3798.46,3791.79,3794.36,3787.69,3801.03,3802.05,3805.13,3842.56,4551.79,3800,3802.05,0
15_5_36,93,3795.9,3800,3798.46,3800.51,3794.87,3794.36,3794.36,3801.03,3802.05,3803.08,3845.13,4553.33,3797.95,3802.05,0
15_5_36,94,3794.87,3801.54,3798.46,3797.44,3795.9,3794.87,3798.97,3798.46,3802.05,3802.56,3846.67,4554.87,3801.03,3803.08,0
15_5_36,95,3797.44,3800.51,3801.03,3798.46,3794.87,3792.82,3795.9,3798.97,3802.05,3803.08,3846.67,4553.85,3802.56,3802.56,0
15_5_36,96,3797.95,3798.97,3800.51,3798.46,3796.41,3790.26,3797.95,3800.51,3802.05,3802.05,3845.13,4553.85,3800,3802.56,0
15_5_36,97,3798.46,3799.49,3798.97,3798.46,3796.41,3791.79,3802.05,3799.49,3802.05,3802.05,3845.64,4556.41,3801.54,3803.08,0
15_5_36,98,3800,3801.54,3800,3799.49,3796.92,3797.95,3801.03,3797.95,3802.05,3803.59,3847.18,4557.95,3804.1,3803.59,0
15_5_36,99,3799.49,3801.03,3801.03,3796.92,3797.95,3798.46,3798.46,3798.46,3802.05,3804.1,3847.18,4556.92,3803.08,3803.59,0
15_5_36,100,3798.46,3800,3801.03,3797.95,3798.97,3797.95,3798.46,3801.03,3802.56,3803.59,3847.18,4556.41,3801.54,3803.59,0
15_5_36,101,3799.49,3801.54,3799.49,3799.49,3798.46,3800.51,3799.49,3800.51,3802.56,3803.59,3847.69,4554.87,3801.54,3803.08,0
15_5_36,102,3800.51,3802.05,3800,3797.44,3798.46,3801.03,3800.51,3799.49,3803.59,3803.59,3847.18,4555.9,3800.51,3802.56,0
15_5_36,103,3798.97,3801.03,3800.51,3798.46,3800,3796.41,3800.51,3800.51,3803.59,3804.1,3848.21,4560.51,3800.51,3802.05,0
15_5_36,104,3800.51,3800.51,3799.49,3801.54,3798.97,3796.41,3799.49,3801.03,3802.56,3803.08,3849.74,4564.62,3803.08,3802.56,0
15_5_36,105,3802.56,3803.59,3799.49,3800.51,3799.49,3801.03,3800,3800.51,3801.54,3803.08,3848.21,4564.62,3803.59,3805.13,0
15_5_36,106,3800.51,3803.59,3799.49,3797.44,3799.49,3799.49,3800,3800,3802.56,3806.15,3846.67,4565.13,3802.56,3804.1,0
15_5_36,107,3798.46,3802.56,3798.97,3797.95,3800,3797.95,3800,3801.03,3803.08,3806.15,3847.18,4567.18,3802.56,3803.59,0
15_5_36,108,3801.03,3802.05,3800.51,3799.49,3801.54,3800.51,3800.51,3801.54,3802.56,3808.21,3847.18,4564.62,3802.56,3805.13,0
15_5_36,109,3801.54,3802.05,3801.03,3798.97,3799.49,3801.54,3800.51,3801.54,3802.56,3812.31,3847.69,4563.08,3802.56,3807.18,0
15_5_36,110,3800.51,3802.05,3800.51,3797.44,3793.85,3800,3800,3802.05,3803.08,3808.21,3848.72,4567.18,3802.56,3811.28,0
15_5_36,111,3801.54,3803.08,3801.54,3797.95,3795.38,3800,3800,3801.54,3803.59,3806.15,3848.21,4569.23,3802.56,3809.23,0
15_5_36,112,3802.05,3802.05,3802.05,3800,3802.05,3800.51,3801.03,3801.54,3803.59,3814.36,3847.69,4568.72,3802.56,3803.59,0
15_5_36,113,3800.51,3801.54,3800.51,3801.54,3801.03,3800.51,3801.54,3802.56,3803.59,3817.44,3849.23,4567.69,3802.56,3803.59,0
15_5_36,114,3800.51,3802.56,3801.03,3800.51,3799.49,3799.49,3800.51,3803.59,3803.59,3813.33,3849.74,4568.21,3802.56,3811.79,0
15_5_36,115,3801.03,3803.59,3801.54,3800.51,3802.05,3799.49,3800,3803.08,3803.59,3814.36,3847.69,4569.23,3802.56,3811.79,0
15_5_36,116,3800,3802.56,3800.51,3802.05,3801.54,3800,3801.54,3801.54,3803.59,3814.87,3848.21,4569.23,3803.08,3805.13,0
15_5_36,117,3801.03,3803.08,3801.03,3801.54,3800,3799.49,3801.54,3801.54,3803.59,3813.85,3850.77,4568.21,3804.1,3807.69,0
15_5_36,118,3801.54,3803.59,3803.08,3801.03,3800.51,3799.49,3800,3802.05,3802.56,3813.33,3849.23,4568.72,3805.13,3814.36,0
15_5_36,119,3800,3803.59,3802.05,3800,3800.51,3801.03,3800.51,3802.56,3804.62,3806.15,3848.21,4569.23,3804.62,3815.38,0
15_5_36,120,3800.51,3803.08,3800,3800,3801.54,3801.03,3802.56,3803.08,3808.72,3802.05,3850.26,4568.72,3803.08,3813.33,0
15_5_36,121,3804.1,3802.05,3802.56,3801.03,3802.05,3800.51,3800.51,3803.08,3808.21,3809.74,3851.28,4571.28,3803.08,3815.38,0
15_5_36,122,3804.1,3804.1,3804.1,3801.03,3800.51,3801.03,3800,3802.56,3805.13,3817.44,3848.72,4572.82,3803.59,3815.38,0
15_5_36,123,3800.51,3805.13,3802.05,3801.54,3800,3800.51,3801.54,3802.56,3811.28,3815.9,3848.72,4571.28,3803.59,3812.31,0
15_5_36,124,3800.51,3805.13,3800.51,3802.05,3801.54,3800.51,3802.05,3804.1,3814.87,3814.36,3851.79,4569.23,3804.1,3814.36,0
15_5_36,125,3803.08,3809.23,3801.54,3801.54,3800.51,3801.03,3801.03,3804.62,3809.23,3815.9,3851.79,4568.72,3803.59,3816.41,0
15_5_36,126,3802.56,3809.23,3803.08,3800.51,3800,3801.03,3801.03,3804.62,3804.62,3814.36,3849.74,4572.82,3805.64,3815.38,0
15_5_36,127,3802.05,3807.69,3803.59,3800,3801.54,3801.54,3800.51,3804.62,3807.18,3813.33,3851.28,4573.33,3810.26,3814.36,0
15_5_36,128,3802.56,3806.67,3802.56,3800.51,3802.56,3802.56,3802.05,3804.62,3811.79,3816.41,3851.79,4572.31,3806.67,3815.9,0
15_5_36,0,3803.08,3809.74,3802.05,3801.54,3802.05,3803.08,3804.1,3804.62,3817.44,3816.41,3850.77,4576.41,3806.15,3815.9,0
15_5_36,1,3803.08,3811.79,3804.1,3802.56,3802.05,3802.05,3802.05,3804.62,3814.36,3813.85,3851.28,4576.92,3812.31,3813.33,0
15_5_37,2,3803.59,3807.18,3803.08,3802.56,3802.56,3801.54,3805.13,3804.62,3807.18,3815.38,3851.28,4574.87,3811.79,3814.87,0
15_5_37,3,3803.59,3801.03,3801.54,3803.08,3801.54,3801.54,3807.69,3804.1,3811.79,3816.41,3852.82,4580,3806.67,3817.95,0
15_5_37,4,3803.59,3805.13,3804.1,3803.08,3801.03,3802.05,3806.15,3804.62,3817.44,3813.85,3854.36,4584.62,3807.18,3816.92,0
15_5_37,5,3803.08,3813.85,3804.62,3802.56,3802.56,3801.03,3807.18,3804.62,3813.85,3813.33,3851.28,4582.56,3809.23,3815.9,0
15_5_37,6,3803.08,3812.82,3802.56,3802.56,3802.05,3799.49,3807.69,3804.1,3812.82,3815.38,3849.23,4581.54,3807.69,3815.9,0
15_5_37,7,3804.62,3810.26,3804.1,3802.56,3800.51,3801.54,3800,3805.64,3814.87,3815.9,3851.28,4582.05,3807.69,3814.87,0
15_5_37,8,3802.56,3812.82,3803.08,3802.56,3801.54,3803.59,3801.03,3807.69,3813.85,3816.41,3849.23,4581.03,3813.33,3814.36,0
15_5_37,9,3802.05,3811.28,3803.59,3802.56,3801.54,3802.05,3810.77,3807.18,3813.33,3816.41,3852.31,4582.05,3817.44,3815.9,0
15_5_37,10,3808.72,3806.15,3810.26,3802.56,3800.51,3800,3809.74,3806.67,3815.38,3816.41,3861.54,4582.56,3812.31,3816.41,0
15_5_37,11,3810.26,3807.69,3809.74,3804.1,3801.03,3800,3803.08,3809.74,3814.87,3816.41,3863.08,4583.59,3810.26,3815.9,0
15_5_37,12,3800.51,3812.82,3804.1,3804.62,3802.05,3802.05,3804.1,3816.41,3814.87,3816.92,3860.51,4584.62,3814.87,3816.92,0
15_5_37,13,3798.97,3811.79,3805.64,3804.1,3802.05,3801.03,3805.64,3817.44,3815.38,3817.44,3858.97,4584.1,3809.74,3816.92,0
15_5_37,14,3811.28,3811.28,3807.69,3805.64,3803.08,3801.03,3807.18,3810.26,3815.9,3815.9,3856.92,4584.1,3804.62,3816.41,0
15_5_37,15,3810.26,3814.36,3804.62,3804.62,3802.56,3804.62,3810.77,3809.74,3815.38,3814.36,3858.46,4584.62,3809.74,3816.92,0
15_5_37,16,3802.05,3814.36,3806.67,3802.56,3802.56,3805.64,3814.87,3811.79,3815.38,3814.87,3863.08,4585.13,3815.38,3817.44,0
15_5_37,17,3809.74,3812.31,3809.23,3810.26,3808.21,3803.08,3810.77,3809.74,3815.9,3816.41,3861.03,4585.13,3816.92,3817.95,0
15_5_37,18,3818.46,3815.9,3804.62,3814.36,3808.21,3802.56,3805.64,3810.77,3815.38,3818.46,3861.03,4585.13,3814.87,3818.46,0
15_5_37,19,3807.69,3816.41,3801.03,3806.67,3808.21,3804.62,3810.26,3811.28,3815.9,3818.46,3862.05,4583.59,3810.77,3816.92,0
15_5_37,20,3803.59,3814.36,3806.67,3803.59,3809.74,3802.56,3814.36,3805.13,3816.92,3817.44,3860,4584.62,3812.82,3816.41,0
15_5_37,21,3811.28,3814.36,3809.23,3806.67,3809.23,3805.13,3809.23,3806.67,3817.95,3816.92,3861.03,4585.64,3817.44,3817.95,0
15_5_37,22,3806.15,3816.41,3805.13,3804.62,3804.62,3808.21,3808.72,3813.33,3817.95,3817.44,3863.59,4584.62,3814.87,3817.44,0
15_5_37,23,3804.62,3814.36,3805.64,3807.69,3803.59,3806.67,3815.9,3810.77,3817.44,3817.44,3863.08,4585.13,3813.85,3816.41,0
15_5_37,24,3817.95,3811.79,3809.74,3812.82,3804.1,3803.08,3816.41,3811.28,3817.44,3817.95,3861.03,4586.15,3815.38,3817.95,0
15_5_37,25,3815.9,3814.87,3809.23,3807.18,3805.13,3806.15,3809.74,3816.41,3817.95,3817.44,3863.59,4586.15,3813.33,3818.97,0
15_5_37,26,3807.18,3816.41,3807.18,3804.62,3803.59,3810.26,3810.77,3814.87,3818.46,3817.44,3865.13,4588.72,3813.33,3817.95,0
15_5_37,27,3811.79,3814.36,3811.79,3812.82,3802.05,3810.26,3814.87,3814.87,3816.92,3817.44,3864.1,4589.23,3815.9,3817.95,0
15_5_37,28,3813.85,3814.87,3810.26,3815.38,3808.21,3809.23,3815.38,3816.41,3816.92,3818.46,3863.08,4585.64,3815.9,3817.95,0
15_5_37,29,3808.21,3816.92,3805.64,3814.36,3815.38,3808.72,3813.33,3814.87,3819.49,3818.46,3864.62,4584.1,3817.95,3817.44,0
15_5_37,30,3808.72,3814.87,3808.72,3813.33,3810.77,3808.72,3814.36,3813.85,3819.49,3818.46,3865.13,4588.21,3820,3817.44,0
15_5_37,31,3814.87,3814.87,3814.36,3809.74,3807.18,3808.21,3816.92,3815.9,3817.44,3818.97,3864.62,4589.23,3820,3817.44,0
15_5_37,32,3814.87,3817.44,3817.95,3811.28,3808.72,3809.74,3815.38,3814.87,3816.92,3819.49,3864.62,4589.23,3820.51,3817.44,0
15_5_37,33,3810.77,3816.41,3814.36,3815.38,3810.77,3813.33,3813.85,3812.82,3817.44,3819.49,3864.62,4590.26,3819.49,3817.44,0
15_5_37,34,3811.79,3815.38,3808.21,3813.85,3810.77,3812.31,3812.82,3813.33,3817.44,3819.49,3864.62,4591.28,3816.92,3817.44,0
15_5_37,35,3815.9,3816.92,3808.21,3811.79,3808.21,3808.21,3811.79,3815.9,3817.44,3819.49,3864.62,4593.85,3816.92,3817.44,0
15_5_37,36,3816.41,3817.95,3816.41,3812.82,3808.72,3809.74,3811.79,3815.9,3817.44,3819.49,3864.62,4592.82,3817.95,3817.44,0
15_5_37,37,3813.33,3816.92,3816.92,3812.82,3810.26,3812.31,3814.87,3815.38,3817.44,3819.49,3864.62,4591.79,3816.41,3817.44,0
15_5_37,38,3813.85,3816.92,3812.82,3814.36,3810.77,3811.79,3815.9,3815.9,3817.44,3819.49,3864.62,4594.87,3815.9,3818.46,0
15_5_37,39,3815.38,3816.41,3813.33,3815.9,3812.31,3811.28,3815.38,3816.92,3816.92,3818.97,3864.62,4596.41,3817.44,3820,0
15_5_37,40,3816.41,3815.9,3813.85,3814.87,3814.36,3809.74,3815.38,3816.41,3817.95,3820,3864.62,4597.44,3816.92,3820.51,0
15_5_37,41,3814.87,3816.41,3813.85,3815.38,3816.41,3811.28,3815.9,3815.9,3819.49,3819.49,3864.62,4598.46,3817.44,3819.49,0
15_5_37,42,3814.36,3816.41,3815.38,3815.38,3814.87,3813.33,3816.41,3816.92,3819.49,3818.46,3864.1,4600.51,3819.49,3819.49,0
15_5_37,43,3815.38,3816.92,3815.38,3815.38,3814.36,3813.85,3816.41,3817.44,3818.46,3822.05,3863.59,4598.46,3818.97,3817.44,0
15_5_37,44,3815.38,3817.95,3815.38,3815.38,3815.38,3814.87,3815.9,3816.92,3818.46,3825.13,3864.1,4596.92,3816.92,3817.95,0
15_5_37,45,3814.87,3817.44,3815.38,3815.38,3814.36,3815.9,3816.41,3816.92,3818.97,3823.08,3865.13,4596.41,3817.95,3823.08,0
15_5_37,46,3815.38,3816.41,3815.9,3815.38,3809.74,3814.36,3817.44,3817.44,3818.46,3822.56,3865.64,4597.95,3818.97,3823.08,0
15_5_37,47,3815.9,3818.46,3816.92,3815.38,3809.74,3815.38,3817.44,3815.9,3818.46,3824.1,3866.15,4600,3817.95,3820.51,0
15_5_37,48,3815.9,3819.49,3815.9,3815.38,3815.38,3816.92,3816.41,3814.36,3818.46,3822.56,3867.69,4598.97,3818.46,3821.54,0
15_5_37,49,3816.92,3817.95,3815.9,3815.38,3815.9,3813.85,3815.38,3815.9,3818.46,3822.56,3867.69,4598.97,3818.46,3821.03,0
15_5_37,50,3817.44,3817.44,3816.92,3815.38,3813.85,3814.87,3816.92,3818.97,3818.46,3824.62,3865.64,4599.49,3818.46,3816.41,0
15_5_37,51,3815.38,3818.46,3817.44,3815.38,3815.38,3816.92,3817.95,3818.97,3817.95,3822.56,3867.18,4600.51,3817.95,3820.51,0
15_5_37,52,3814.87,3818.46,3817.44,3815.38,3817.44,3817.44,3816.41,3816.92,3818.46,3824.1,3868.72,4600.51,3819.49,3827.18,0
15_5_37,53,3817.44,3818.46,3817.95,3815.38,3815.9,3816.41,3816.41,3817.44,3818.97,3830.77,3865.13,4600,3820,3824.1,0
15_5_37,54,3818.46,3818.46,3817.44,3814.87,3813.33,3816.41,3816.92,3818.97,3817.44,3832.82,3863.08,4600,3818.97,3821.03,0
15_5_37,55,3816.41,3817.44,3816.92,3815.38,3813.33,3815.9,3815.9,3818.46,3819.49,3829.23,3865.64,4600,3818.46,3825.64,0
15_5_37,56,3816.41,3816.92,3816.92,3814.87,3816.92,3816.41,3818.46,3818.97,3824.62,3828.21,3866.15,4601.54,3818.46,3831.28,0
15_5_37,57,3817.95,3817.95,3816.41,3814.87,3817.44,3816.92,3818.97,3820,3824.62,3825.64,3866.67,4603.08,3818.46,3832.82,0
15_5_37,58,3817.44,3818.97,3816.41,3817.95,3815.9,3816.41,3814.87,3818.46,3822.56,3822.05,3867.69,4601.54,3817.95,3829.23,0
15_5_37,59,3816.41,3820,3817.95,3818.97,3815.38,3815.38,3812.31,3816.92,3824.62,3826.15,3865.64,4600,3819.49,3823.08,0
15_5_37,60,3816.41,3818.46,3817.95,3818.46,3815.9,3816.41,3812.31,3818.46,3824.62,3831.79,3866.67,4601.03,3818.46,3825.13,0
15_5_37,61,3816.92,3819.49,3816.41,3818.97,3817.44,3817.44,3813.85,3819.49,3821.54,3831.79,3873.33,4602.56,3817.44,3833.85,0
15_5_37,62,3817.95,3821.54,3816.41,3819.49,3817.44,3815.9,3816.41,3818.97,3823.08,3831.28,3876.41,4603.08,3822.56,3831.79,0
15_5_37,63,3817.95,3820.51,3817.95,3817.95,3817.44,3815.9,3817.95,3818.97,3825.13,3831.79,3875.9,4601.03,3825.13,3822.56,0
15_5_37,64,3817.95,3817.44,3818.97,3816.92,3816.92,3817.44,3817.44,3819.49,3822.05,3831.79,3875.38,4603.59,3818.46,3820.51,0
15_5_37,65,3817.95,3819.49,3819.49,3816.41,3816.41,3817.95,3818.97,3819.49,3824.62,3831.28,3874.36,4605.64,3816.92,3825.64,0
15_5_37,66,3818.97,3824.1,3819.49,3816.92,3816.92,3816.92,3820,3819.49,3831.28,3831.28,3875.9,4603.59,3823.59,3830.77,0
15_5_37,67,3817.95,3821.54,3818.97,3818.46,3817.95,3816.92,3817.44,3819.49,3829.74,3831.28,3875.9,4603.08,3822.05,3830.26,0
15_5_37,68,3816.41,3818.97,3818.97,3818.46,3816.92,3817.44,3816.92,3819.49,3823.08,3831.28,3871.28,4607.18,3820,3827.69,0
15_5_37,69,3817.44,3821.03,3817.95,3818.46,3815.9,3817.44,3820,3819.49,3824.1,3831.28,3871.79,4608.72,3820.51,3830.26,0
15_5_37,70,3818.46,3824.1,3818.46,3818.46,3817.95,3818.46,3820.51,3818.97,3824.62,3831.28,3876.92,4604.1,3819.49,3831.28,0
15_5_37,71,3818.46,3822.05,3818.97,3818.46,3818.46,3817.44,3817.44,3818.97,3821.54,3831.28,3877.44,4605.64,3825.13,3830.26,0
15_5_37,72,3817.44,3818.97,3817.95,3819.49,3817.44,3815.9,3816.92,3820,3828.21,3831.28,3876.41,4608.21,3828.72,3831.28,0
15_5_37,73,3816.92,3825.64,3818.46,3820.51,3817.44,3817.95,3818.46,3818.46,3831.28,3831.28,3877.95,4607.18,3822.05,3830.26,0
15_5_37,74,3819.49,3831.28,3820.51,3818.46,3818.97,3818.46,3818.46,3818.46,3825.13,3831.79,3877.44,4608.21,3823.59,3829.23,0
15_5_37,75,3820,3823.59,3822.56,3817.95,3817.44,3816.41,3819.49,3824.1,3827.18,3831.28,3876.41,4611.28,3831.28,3830.26,0
15_5_37,76,3819.49,3819.49,3819.49,3819.49,3816.41,3816.92,3818.97,3826.67,3832.82,3830.77,3877.44,4612.31,3827.18,3831.79,0
15_5_37,77,3820,3824.62,3820,3820,3817.44,3818.46,3816.92,3821.03,3830.77,3832.82,3875.9,4611.28,3823.59,3831.79,0
15_5_37,78,3821.03,3823.08,3823.08,3818.97,3817.95,3818.46,3821.03,3823.59,3828.72,3834.36,3874.87,4613.33,3826.67,3831.79,0
15_5_37,79,3821.03,3822.05,3820.51,3818.46,3817.44,3818.46,3824.1,3832.31,3831.28,3832.82,3877.95,4612.82,3828.21,3831.79,0
15_5_37,80,3820.51,3831.79,3818.46,3819.49,3817.95,3818.97,3818.97,3827.18,3831.28,3833.33,3880,4611.28,3829.74,3831.79,0
15_5_37,81,3820,3831.28,3821.03,3819.49,3821.03,3817.95,3815.9,3820.51,3830.77,3834.87,3876.41,4610.77,3830.77,3832.82,0
15_5_37,82,3818.97,3822.05,3818.97,3819.49,3825.64,3818.97,3821.03,3824.62,3830.77,3833.85,3874.36,4613.33,3829.74,3832.31,0
15_5_37,83,3820,3821.03,3817.44,3819.49,3825.64,3818.97,3822.05,3823.59,3830.26,3833.33,3877.95,4616.41,3830.26,3832.31,0
15_5_37,84,3821.54,3825.13,3823.59,3819.49,3818.97,3818.46,3819.49,3821.54,3830.77,3834.36,3878.46,4615.9,3830.77,3833.85,0
15_5_37,85,3821.03,3824.62,3824.62,3818.46,3815.38,3818.97,3821.54,3828.21,3830.26,3834.87,3877.44,4615.38,3828.72,3833.33,0
15_5_37,86,3818.97,3823.59,3821.03,3820,3818.46,3819.49,3827.18,3830.26,3830.77,3834.36,3877.95,4613.85,3830.77,3832.31,0
15_5_37,87,3817.95,3826.15,3823.08,3819.49,3821.03,3818.97,3826.67,3821.54,3830.77,3833.85,3877.95,4615.38,3833.33,3832.31,0
15_5_37,88,3820.51,3826.15,3822.56,3817.44,3821.54,3818.97,3823.59,3820,3830.26,3832.82,3878.46,4617.44,3832.82,3832.31,0
15_5_37,89,3821.03,3825.64,3817.44,3823.59,3820,3818.97,3826.15,3826.67,3830.77,3832.31,3878.97,4616.92,3830.77,3832.82,0
15_5_37,90,3820,3830.77,3823.08,3829.74,3817.95,3818.46,3828.72,3830.77,3832.82,3832.82,3877.44,4616.92,3830.77,3832.82,0
15_5_37,91,3826.15,3831.79,3827.69,3825.13,3820.51,3821.03,3822.56,3830.77,3832.31,3833.85,3876.41,4617.95,3830.77,3832.82,0
15_5_37,92,3831.79,3829.23,3823.08,3821.54,3822.05,3824.1,3817.95,3829.74,3829.74,3833.85,3880,4617.44,3829.74,3832.82,0
15_5_37,93,3825.64,3828.72,3821.03,3823.59,3823.08,3824.62,3824.62,3830.77,3830.77,3833.85,3880.51,4615.9,3829.23,3832.31,0
15_5_37,94,3821.54,3831.79,3824.62,3820.51,3820.51,3824.1,3828.72,3831.28,3832.82,3834.36,3878.46,4616.92,3829.74,3833.85,0
15_5_37,95,3824.62,3831.28,3824.1,3819.49,3820.51,3826.15,3827.18,3826.67,3832.31,3834.36,3880,4616.41,3829.74,3835.9,0
15_5_37,96,3825.13,3828.21,3825.13,3827.18,3826.67,3823.59,3825.13,3821.03,3832.31,3833.85,3880.51,4616.92,3829.74,3834.36,0
15_5_37,97,3825.13,3826.67,3826.67,3832.31,3830.26,3821.03,3823.08,3822.05,3833.33,3833.85,3879.49,4618.97,3830.26,3832.82,0
15_5_37,98,3830.26,3829.74,3824.62,3829.23,3827.69,3822.56,3826.67,3827.69,3833.33,3834.36,3879.49,4619.49,3829.23,3833.85,0
15_5_37,99,3831.28,3830.26,3826.15,3823.59,3828.72,3825.64,3831.28,3832.82,3833.33,3834.36,3881.03,4617.95,3829.74,3834.36,0
15_5_37,100,3829.23,3829.23,3829.23,3823.59,3827.18,3826.67,3829.23,3829.74,3834.36,3834.36,3881.03,4617.95,3832.82,3833.33,0
15_5_37,101,3827.18,3832.31,3827.18,3825.13,3822.05,3826.15,3826.67,3824.62,3834.87,3834.36,3880.51,4618.46,3833.33,3833.85,0
15_5_37,102,3826.67,3833.85,3829.74,3821.54,3823.59,3824.62,3828.21,3827.69,3834.36,3835.38,3880,4618.97,3832.82,3835.38,0
15_5_37,103,3828.21,3832.31,3832.82,3823.08,3827.69,3823.59,3828.72,3833.85,3834.36,3836.92,3878.97,4617.44,3832.82,3836.41,0
15_5_37,104,3827.69,3831.28,3828.21,3829.74,3822.56,3827.18,3829.23,3832.82,3834.36,3836.41,3879.49,4617.44,3833.33,3834.87,0
15_5_37,105,3824.62,3831.28,3825.64,3826.15,3822.05,3829.23,3830.77,3831.28,3834.36,3835.9,3881.03,4620.51,3832.82,3833.33,0
15_5_37,106,3824.1,3832.82,3831.28,3824.1,3827.69,3829.23,3830.77,3832.31,3834.36,3835.9,3881.54,4623.59,3833.33,3833.85,0
15_5_37,107,3825.13,3833.33,3831.28,3830.77,3826.67,3830.26,3830.26,3832.82,3834.87,3835.9,3880,4626.67,3832.82,3835.38,0
15_5_37,108,3830.26,3832.31,3830.26,3832.82,3824.1,3830.26,3827.18,3832.82,3835.38,3835.38,3880.51,4629.23,3831.79,3835.9,0
15_5_37,109,3831.79,3833.33,3830.77,3829.23,3829.23,3830.77,3826.67,3832.31,3834.87,3835.9,3883.59,4627.69,3832.82,3836.41,0
15_5_37,110,3827.18,3833.85,3831.79,3828.21,3830.26,3830.77,3827.69,3830.77,3833.85,3835.9,3883.08,4623.08,3831.79,3835.9,0
15_5_37,111,3827.18,3832.31,3831.28,3828.72,3829.74,3830.26,3829.74,3831.28,3834.87,3834.87,3881.03,4624.62,3833.33,3836.41,0
15_5_37,112,3833.33,3831.28,3832.31,3830.26,3829.23,3829.74,3833.33,3831.28,3836.41,3837.95,3881.03,4624.62,3836.41,3836.41,0
15_5_37,113,3830.77,3831.79,3832.31,3832.31,3826.67,3831.28,3832.82,3831.28,3836.41,3844.1,3882.56,4624.1,3835.38,3834.87,0
15_5_37,114,3827.69,3832.82,3830.77,3831.28,3827.18,3830.77,3827.69,3831.79,3836.41,3845.64,3883.08,4628.21,3832.31,3837.95,0
15_5_37,115,3830.26,3832.31,3830.77,3831.28,3832.31,3829.74,3829.74,3831.28,3836.92,3843.59,3883.59,4629.23,3832.31,3836.92,0
15_5_37,116,3831.28,3830.77,3832.31,3831.79,3831.79,3829.23,3833.33,3832.31,3836.41,3844.1,3882.05,4629.23,3834.87,3834.36,0
15_5_37,117,3829.23,3832.82,3832.82,3831.28,3828.72,3829.23,3832.31,3834.36,3835.9,3844.1,3881.54,4628.21,3833.85,3840.51,0
15_5_37,118,3828.72,3833.85,3831.28,3830.77,3828.72,3830.77,3832.82,3833.33,3835.9,3843.59,3882.56,4623.08,3831.79,3844.1,0
15_5_37,119,3829.23,3832.31,3831.79,3832.31,3829.23,3831.79,3832.82,3831.79,3833.85,3843.59,3882.56,4623.59,3832.31,3839.49,0
15_5_37,120,3830.26,3832.82,3832.82,3832.82,3830.77,3830.77,3831.79,3833.85,3832.31,3843.59,3882.05,4631.28,3834.36,3836.92,0
15_5_37,121,3831.79,3833.33,3832.82,3831.28,3830.77,3830.26,3831.79,3833.33,3833.85,3843.59,3883.59,4628.72,3834.36,3839.49,0
15_5_37,122,3831.28,3831.79,3831.79,3831.79,3830.26,3830.77,3830.77,3831.28,3835.9,3843.59,3882.05,4624.62,3833.85,3839.49,0
15_5_37,123,3831.28,3832.82,3831.28,3832.82,3831.28,3830.77,3830.77,3831.79,3835.9,3843.08,3883.08,4631.28,3836.41,3841.03,0
15_5_37,124,3831.79,3833.85,3832.31,3833.33,3831.28,3831.28,3832.31,3832.31,3835.38,3844.1,3886.67,4633.33,3836.92,3842.56,0
15_5_37,125,3830.77,3832.82,3833.33,3834.36,3830.26,3832.31,3831.79,3833.85,3835.38,3844.62,3884.1,4630.26,3833.33,3841.03,0
15_5_37,126,3831.28,3833.85,3832.31,3833.85,3829.23,3832.82,3831.28,3834.36,3836.41,3842.05,3883.59,4630.26,3831.28,3842.05,0
15_5_37,127,3832.82,3834.36,3832.31,3831.79,3829.74,3831.79,3833.33,3833.33,3836.41,3841.03,3890.77,4632.82,3831.79,3842.05,0
15_5_37,128,3833.85,3833.33,3833.85,3830.77,3831.28,3831.28,3833.33,3834.36,3835.38,3844.1,3892.82,4632.31,3832.31,3840.51,0
15_5_37,0,3833.33,3833.85,3834.36,3832.31,3831.28,3832.31,3832.82,3835.38,3837.95,3845.13,3890.26,4631.79,3831.79,3844.1,0
15_5_38,1,3833.33,3833.85,3833.33,3834.36,3831.28,3831.28,3833.85,3833.85,3843.08,3842.56,3891.28,4631.79,3831.79,3847.69,0
15_5_38,2,3833.33,3831.79,3833.33,3831.79,3832.31,3829.23,3834.36,3832.82,3845.64,3843.59,3892.31,4631.79,3831.79,3843.59,0
15_5_38,3,3831.28,3833.33,3832.82,3827.69,3833.33,3830.77,3833.33,3833.33,3839.49,3847.69,3891.28,4632.31,3831.79,3840.51,0
15_5_38,4,3831.28,3835.9,3832.31,3830.26,3832.82,3834.36,3833.33,3833.33,3832.31,3848.72,3892.82,4634.36,3831.79,3844.62,0
15_5_38,5,3833.33,3834.36,3833.33,3835.38,3831.79,3832.82,3833.85,3832.82,3836.92,3846.67,3890.26,4633.33,3831.79,3844.62,0
15_5_38,6,3833.85,3831.79,3834.87,3833.85,3831.79,3829.74,3833.33,3833.85,3845.13,3847.69,3890.26,4630.77,3831.79,3844.1,0
15_5_38,7,3832.82,3833.33,3834.87,3831.79,3832.82,3831.28,3831.79,3836.41,3844.62,3847.69,3892.82,4632.31,3831.28,3846.15,0
15_5_38,8,3832.82,3834.87,3834.36,3833.33,3832.82,3834.87,3833.85,3836.41,3842.56,3844.1,3891.79,4633.85,3832.82,3845.64,0
15_5_38,9,3832.31,3833.33,3833.33,3833.85,3832.31,3833.85,3836.92,3833.85,3843.59,3844.1,3890.77,4633.33,3831.28,3844.1,0
15_5_38,10,3832.31,3833.85,3833.85,3832.82,3833.33,3832.31,3836.41,3832.82,3845.64,3847.18,3891.79,4632.82,3829.74,3845.13,0
15_5_38,11,3834.36,3833.85,3833.85,3833.33,3832.31,3832.82,3833.85,3834.36,3844.62,3847.18,3891.28,4633.33,3837.95,3845.64,0
15_5_38,12,3833.33,3834.36,3832.82,3832.82,3831.79,3833.85,3833.33,3834.87,3836.41,3846.67,3890.26,4633.85,3841.03,3844.62,0
15_5_38,13,3831.79,3837.95,3834.36,3833.85,3832.82,3833.33,3833.85,3834.36,3834.87,3847.69,3891.28,4634.36,3836.92,3846.15,0
15_5_38,14,3833.33,3840,3837.44,3835.9,3833.33,3833.33,3834.36,3834.36,3845.64,3847.69,3891.28,4634.36,3841.03,3847.18,0
15_5_38,15,3834.36,3837.44,3836.41,3836.41,3833.33,3832.82,3833.33,3833.85,3847.69,3847.18,3892.82,4633.85,3846.15,3847.18,0
15_5_38,16,3834.87,3834.36,3833.85,3836.41,3833.33,3832.82,3832.31,3834.36,3841.54,3847.18,3894.87,4635.38,3842.05,3847.69,0
15_5_38,17,3836.41,3835.9,3833.85,3836.41,3833.33,3833.85,3837.44,3833.85,3842.56,3847.18,3893.85,4635.9,3844.1,3847.69,0
15_5_38,18,3834.87,3836.41,3834.36,3836.41,3833.85,3833.85,3840.51,3833.85,3844.62,3847.18,3891.28,4635.38,3846.67,3847.18,0
15_5_38,19,3832.82,3834.87,3834.36,3836.41,3833.33,3833.33,3835.38,3833.85,3843.08,3847.18,3892.82,4634.36,3841.54,3846.67,0
15_5_38,20,3833.85,3833.85,3836.92,3836.41,3832.82,3832.82,3831.28,3833.85,3843.59,3847.18,3895.38,4635.9,3841.03,3848.72,0
15_5_38,21,3834.87,3835.9,3835.9,3836.41,3833.85,3833.33,3835.38,3834.36,3844.1,3847.18,3892.31,4637.44,3844.1,3849.74,0
15_5_38,22,3833.85,3838.97,3834.87,3836.41,3834.87,3833.85,3838.97,3833.33,3843.59,3847.18,3890.77,4638.46,3844.62,3847.69,0
15_5_38,23,3833.85,3836.92,3838.46,3836.41,3833.85,3833.33,3838.97,3834.36,3843.59,3847.18,3893.85,4636.41,3847.18,3846.67,0
15_5_38,24,3834.87,3833.85,3841.54,3836.41,3833.33,3833.33,3835.38,3836.41,3846.15,3847.69,3895.38,4633.85,3847.69,3846.15,0
15_5_38,25,3835.38,3836.41,3839.49,3836.41,3834.36,3833.85,3836.41,3836.41,3847.69,3848.21,3894.36,4633.85,3842.56,3846.67,0
15_5_38,26,3835.9,3837.44,3838.46,3836.41,3834.87,3834.36,3840.51,3839.49,3846.67,3848.72,3895.38,4638.46,3841.54,3846.15,0
15_5_38,27,3833.33,3836.92,3836.92,3836.41,3834.36,3834.36,3840,3845.13,3847.18,3849.74,3897.44,4641.54,3846.15,3845.64,0
15_5_38,28,3833.85,3841.03,3834.36,3836.41,3833.85,3833.85,3838.46,3845.13,3848.21,3849.74,3896.41,4638.97,3846.67,3849.23,0
15_5_38,29,3838.97,3841.54,3835.38,3836.41,3833.85,3833.33,3842.05,3838.46,3845.64,3849.74,3895.9,4638.97,3844.1,3849.74,0
15_5_38,30,3841.03,3840,3837.44,3836.41,3833.85,3834.87,3842.05,3835.38,3843.59,3850.26,3895.9,4641.03,3844.62,3846.67,0
15_5_38,31,3837.44,3844.62,3834.36,3836.41,3836.41,3835.9,3838.46,3834.36,3845.64,3848.72,3894.36,4638.46,3846.15,3846.15,0
15_5_38,32,3835.38,3848.21,3835.38,3836.41,3835.38,3833.85,3837.44,3835.9,3847.69,3846.67,3893.85,4638.46,3845.64,3848.72,0
15_5_38,33,3837.95,3846.15,3840,3835.9,3831.28,3833.33,3838.46,3842.05,3847.69,3847.18,3895.9,4642.56,3846.67,3848.72,0
15_5_38,34,3837.44,3844.1,3838.46,3835.9,3837.44,3834.36,3842.05,3844.1,3847.18,3848.72,3895.38,4641.03,3847.18,3848.21,0
15_5_38,35,3834.36,3845.13,3832.31,3835.9,3841.54,3834.87,3843.08,3843.08,3847.18,3849.74,3893.85,4640.51,3845.64,3850.26,0
15_5_38,36,3834.87,3845.13,3834.36,3836.41,3834.87,3834.36,3837.95,3843.59,3846.67,3848.72,3896.92,4644.1,3845.13,3850.77,0
15_5_38,37,3835.38,3841.03,3837.95,3834.87,3831.79,3833.85,3836.41,3845.13,3846.15,3849.23,3897.95,4644.1,3847.18,3848.72,0
15_5_38,38,3832.82,3839.49,3834.87,3836.92,3835.9,3834.36,3842.56,3844.62,3846.67,3850.77,3896.41,4643.59,3848.72,3847.69,0
15_5_38,39,3838.97,3842.56,3836.41,3843.08,3835.9,3836.41,3844.62,3843.08,3848.72,3850.26,3896.41,4644.62,3847.18,3849.23,0
15_5_38,40,3845.64,3840.51,3841.03,3844.62,3834.87,3836.92,3838.46,3843.08,3849.23,3848.72,3895.9,4646.15,3846.67,3849.23,0
15_5_38,41,3840.51,3840,3843.08,3842.56,3834.87,3833.85,3839.49,3845.13,3848.72,3849.23,3895.9,4648.21,3848.72,3848.21,0
15_5_38,42,3840.51,3846.15,3841.03,3843.59,3838.97,3836.41,3844.62,3842.56,3848.21,3850.26,3896.92,4647.69,3848.21,3849.23,0
15_5_38,43,3847.69,3845.64,3838.46,3844.62,3842.56,3841.03,3842.05,3836.41,3847.69,3850.77,3896.41,4646.15,3846.15,3849.23,0
15_5_38,44,3846.67,3843.59,3841.54,3842.56,3839.49,3843.59,3838.46,3839.49,3848.72,3851.28,3895.38,4647.69,3847.69,3848.21,0
15_5_38,45,3844.62,3846.15,3846.67,3842.56,3833.33,3840,3841.54,3847.18,3849.74,3851.79,3896.92,4647.18,3849.74,3849.23,0
15_5_38,46,3845.64,3844.62,3846.15,3843.08,3836.41,3837.95,3841.54,3848.21,3848.72,3851.79,3897.44,4647.69,3848.72,3850.26,0
15_5_38,47,3844.62,3845.13,3843.59,3842.56,3841.54,3840,3841.03,3846.67,3847.69,3851.79,3897.44,4649.23,3848.21,3850.26,0
15_5_38,48,3844.1,3847.69,3845.13,3842.56,3841.03,3841.03,3845.13,3847.69,3849.74,3851.79,3896.92,4647.69,3848.72,3850.26,0
15_5_38,49,3845.64,3845.13,3846.15,3842.56,3837.44,3838.97,3847.18,3848.72,3849.74,3851.79,3896.92,4645.64,3849.74,3849.23,0
15_5_38,50,3845.64,3845.13,3844.62,3843.59,3838.46,3837.44,3845.64,3845.64,3847.69,3851.79,3897.44,4647.69,3849.74,3849.74,0
15_5_38,51,3843.59,3846.67,3846.67,3842.05,3845.64,3840.51,3846.67,3843.08,3848.21,3851.79,3897.44,4649.23,3848.21,3850.26,0
15_5_38,52,3842.56,3847.18,3846.15,3843.08,3846.67,3843.08,3847.18,3846.67,3849.74,3851.79,3897.44,4646.67,3847.69,3849.23,0
15_5_38,53,3845.64,3846.67,3841.03,3847.18,3842.05,3842.05,3845.13,3849.23,3849.74,3851.79,3897.95,4645.13,3848.72,3849.23,0
15_5_38,54,3847.18,3847.18,3839.49,3846.67,3840.51,3838.97,3846.15,3846.67,3849.23,3851.79,3896.92,4647.69,3846.15,3850.26,0
15_5_38,55,3846.15,3848.21,3842.56,3843.08,3841.54,3838.46,3846.67,3845.64,3848.72,3851.79,3896.41,4649.74,3845.64,3850.26,0
15_5_38,56,3846.67,3848.21,3843.59,3844.1,3842.56,3837.44,3847.18,3846.15,3848.72,3851.79,3897.44,4649.23,3848.21,3851.79,0
15_5_38,57,3847.18,3846.67,3843.59,3846.15,3843.08,3837.44,3846.67,3846.67,3849.74,3851.79,3898.46,4648.21,3848.21,3851.28,0
15_5_38,58,3846.15,3846.15,3846.67,3847.69,3840.51,3844.1,3845.64,3846.15,3849.74,3851.79,3897.95,4648.72,3847.69,3850.26,0
15_5_38,59,3846.67,3848.21,3845.13,3846.67,3840,3846.15,3846.67,3846.15,3849.74,3851.28,3897.44,4648.72,3850.26,3850.77,0
15_5_38,60,3845.64,3847.69,3841.03,3845.64,3845.13,3843.59,3846.67,3846.67,3850.26,3851.28,3897.95,4648.72,3847.18,3850.26,0
15_5_38,61,3846.15,3845.64,3844.1,3846.67,3846.15,3844.1,3845.13,3848.72,3851.79,3852.31,3897.44,4649.74,3844.1,3850.26,0
15_5_38,62,3849.23,3847.18,3847.69,3847.18,3845.64,3846.67,3846.67,3848.72,3851.79,3851.28,3896.41,4650.77,3848.21,3857.95,0
15_5_38,63,3847.18,3849.23,3846.67,3844.62,3845.13,3843.08,3847.18,3846.67,3851.79,3850.26,3902.56,4648.72,3851.28,3861.54,0
15_5_38,64,3844.1,3849.23,3845.64,3846.15,3846.67,3843.59,3847.18,3846.67,3851.79,3855.9,3912.82,4648.21,3848.72,3858.46,0
15_5_38,65,3846.15,3847.69,3847.18,3849.74,3849.74,3848.72,3846.67,3847.18,3851.79,3860.51,3904.62,4647.69,3848.72,3859.49,0
15_5_38,66,3848.21,3848.72,3847.69,3849.74,3850.77,3848.21,3846.67,3846.67,3851.79,3858.97,3896.41,4649.23,3850.26,3858.46,0
15_5_38,67,3846.67,3850.26,3846.67,3848.72,3846.67,3844.62,3847.18,3846.67,3851.79,3858.97,3905.13,4651.79,3851.28,3852.31,0
15_5_38,68,3847.69,3848.21,3846.15,3849.23,3845.64,3845.64,3847.69,3846.67,3851.79,3860.51,3905.64,4652.31,3850.77,3848.72,0
15_5_38,69,3848.21,3848.21,3845.13,3849.23,3847.18,3847.18,3847.69,3846.67,3851.79,3858.97,3899.49,4651.79,3848.72,3849.23,0
15_5_38,70,3846.15,3850.77,3847.18,3849.23,3844.62,3845.13,3847.69,3846.67,3851.79,3857.95,3905.64,4653.33,3847.18,3854.87,0
15_5_38,71,3846.67,3850.26,3848.72,3849.23,3843.59,3846.15,3848.21,3846.67,3851.79,3860,3911.79,4654.36,3849.74,3861.54,0
15_5_38,72,3848.21,3849.23,3846.67,3849.23,3846.15,3848.21,3846.67,3847.18,3851.79,3859.49,3908.21,4652.31,3851.79,3860.51,0
15_5_38,73,3849.23,3850.77,3846.67,3849.23,3846.67,3848.21,3846.67,3846.67,3851.79,3858.97,3907.18,4652.31,3850.26,3858.46,0
15_5_38,74,3848.21,3850.26,3848.72,3849.23,3845.13,3847.18,3848.72,3847.18,3851.79,3859.49,3908.21,4652.31,3848.72,3862.05,0
15_5_38,75,3847.69,3848.72,3848.21,3849.23,3847.18,3846.67,3849.23,3848.21,3851.79,3859.49,3907.69,4651.28,3849.74,3863.08,0
15_5_38,76,3847.69,3848.21,3847.69,3849.74,3848.72,3847.18,3848.72,3848.72,3851.79,3859.49,3909.23,4651.28,3851.28,3859.49,0
15_5_38,77,3847.69,3849.23,3849.23,3848.21,3846.67,3846.67,3848.72,3848.21,3851.28,3859.49,3907.69,4652.82,3850.77,3857.95,0
15_5_38,78,3848.21,3849.74,3850.26,3846.67,3847.18,3845.64,3847.69,3848.21,3851.28,3859.49,3907.18,4655.38,3851.28,3858.97,0
15_5_38,79,3849.74,3849.74,3849.23,3848.21,3849.74,3846.67,3848.72,3848.21,3852.31,3859.49,3907.69,4654.87,3852.31,3859.49,0
15_5_38,80,3848.72,3848.72,3848.72,3849.74,3848.72,3847.69,3848.72,3848.72,3850.77,3859.49,3907.69,4654.87,3850.77,3859.49,0
15_5_38,81,3846.15,3848.21,3849.23,3849.23,3846.67,3846.15,3847.69,3849.23,3851.79,3859.49,3907.69,4656.92,3850.26,3861.54,0
15_5_38,82,3847.69,3849.23,3849.74,3847.18,3848.21,3847.69,3849.74,3848.72,3857.95,3859.49,3907.69,4656.41,3852.31,3861.54,0
15_5_38,83,3849.74,3849.23,3850.26,3846.15,3849.23,3849.74,3852.31,3848.72,3860.51,3859.49,3907.69,4654.36,3851.79,3860.51,0
15_5_38,84,3848.72,3851.28,3849.23,3849.23,3848.21,3848.72,3850.26,3850.77,3858.46,3859.49,3907.69,4653.33,3850.77,3861.54,0
15_5_38,85,3849.23,3851.79,3848.21,3850.77,3848.21,3847.69,3847.18,3851.28,3857.95,3858.97,3907.18,4652.82,3850.77,3860,0
15_5_38,86,3850.26,3850.77,3849.23,3848.72,3849.23,3848.72,3847.18,3849.74,3858.97,3860,3908.72,4653.33,3850.77,3858.46,0
15_5_38,87,3849.74,3852.31,3851.28,3849.23,3848.72,3848.21,3847.69,3848.21,3858.97,3858.97,3908.72,4655.38,3855.38,3862.05,0
15_5_38,88,3850.26,3852.82,3851.28,3850.77,3847.18,3847.18,3848.21,3850.77,3859.49,3858.46,3906.15,4654.87,3857.44,3863.59,0
15_5_38,89,3850.77,3849.23,3850.77,3848.72,3847.69,3848.21,3848.21,3851.28,3859.49,3862.05,3906.15,4654.87,3855.38,3862.05,0
15_5_38,90,3849.74,3849.74,3851.28,3847.18,3848.72,3849.74,3848.21,3849.23,3859.49,3863.59,3909.74,4658.97,3855.38,3863.08,0
15_5_38,91,3848.72,3849.74,3850.26,3849.74,3847.18,3849.23,3848.72,3849.23,3859.49,3859.49,3909.74,4657.95,3853.85,3861.03,0
15_5_38,92,3849.23,3850.26,3849.74,3850.26,3848.21,3847.69,3849.23,3851.28,3859.49,3859.49,3909.23,4656.41,3849.23,3858.46,0
15_5_38,93,3850.26,3858.46,3850.77,3848.21,3850.77,3848.21,3849.23,3849.74,3859.49,3864.1,3909.74,4657.44,3849.74,3861.54,0
15_5_38,94,3850.26,3856.92,3851.28,3847.69,3852.31,3848.72,3848.72,3848.21,3859.49,3863.59,3909.23,4657.95,3852.82,3863.59,0
15_5_38,95,3850.26,3849.74,3849.74,3849.23,3851.28,3849.23,3848.72,3849.74,3858.97,3859.49,3908.72,4658.46,3851.79,3861.54,0
15_5_38,96,3850.26,3852.31,3850.77,3850.26,3851.28,3849.74,3849.74,3851.28,3860.51,3861.54,3909.74,4658.97,3849.23,3859.49,0
15_5_38,96,3850.26,3852.31,3850.77,3850.26,3851.28,3849.74,3849.74,3851.28,3860.51,3861.54,3909.74,4658.97,3849.23,3859.49,0
15_5_38,96,3850.26,3852.31,3850.77,3850.26,3851.28,3849.74,3849.74,3851.28,3860.51,3861.54,3909.74,4658.97,3849.23,3859.49,0
15_5_38,97,3850.26,3857.44,3852.82,3850.26,3851.79,3849.74,3850.26,3853.85,3860.51,3865.13,3909.74,4662.56,3850.77,3861.03,0
15_5_38,98,3849.74,3855.38,3851.79,3851.28,3851.79,3848.72,3849.74,3851.79,3859.49,3864.62,3910.26,4664.62,3858.46,3862.05,0
15_5_38,99,3849.74,3856.92,3849.23,3851.79,3850.26,3849.74,3849.23,3849.23,3859.49,3861.54,3909.23,4663.08,3861.54,3862.05,0
15_5_38,100,3850.26,3857.44,3850.77,3851.28,3849.23,3849.23,3848.72,3855.9,3858.97,3862.05,3908.72,4660.51,3859.49,3863.08,0
15_5_38,101,3848.72,3854.87,3850.77,3851.79,3849.74,3848.21,3849.74,3857.44,3859.49,3862.05,3911.28,4663.08,3860,3863.08,0
15_5_38,102,3850.77,3853.85,3850.26,3851.79,3849.74,3849.74,3850.26,3850.26,3861.54,3859.49,3912.82,4664.62,3861.03,3863.08,0
15_5_38,103,3853.33,3854.36,3852.82,3851.28,3849.23,3850.77,3850.26,3850.26,3862.05,3860.51,3910.26,4663.08,3859.49,3863.59,0
15_5_38,104,3854.36,3854.87,3853.33,3851.28,3848.72,3848.21,3849.74,3853.33,3860.51,3863.08,3909.74,4662.56,3859.49,3864.62,0
15_5_38,105,3855.38,3854.36,3850.26,3852.31,3849.23,3848.21,3850.77,3849.74,3861.54,3863.08,3912.82,4662.56,3858.97,3864.1,0
15_5_38,106,3853.85,3854.87,3849.74,3851.79,3849.23,3850.26,3853.33,3853.85,3862.56,3863.08,3912.82,4663.59,3860,3863.59,0
15_5_38,107,3852.31,3855.38,3853.33,3850.77,3848.21,3849.74,3857.44,3860,3863.08,3864.62,3910.77,4664.1,3861.54,3865.13,0
15_5_38,108,3854.87,3854.87,3855.38,3855.38,3852.31,3849.74,3857.44,3852.31,3866.15,3864.62,3909.23,4664.62,3861.54,3866.15,0
15_5_38,109,3857.95,3859.49,3853.85,3861.54,3856.92,3851.28,3853.85,3848.21,3863.08,3864.1,3910.77,4664.1,3861.54,3865.64,0
15_5_38,110,3852.82,3860,3851.79,3858.97,3853.33,3850.26,3855.38,3852.31,3857.95,3864.1,3913.85,4664.1,3863.08,3863.59,0
15_5_38,111,3850.26,3854.36,3854.87,3851.79,3848.21,3848.21,3855.38,3850.26,3861.03,3864.1,3912.31,4664.1,3862.05,3863.59,0
15_5_38,112,3856.92,3853.85,3856.92,3849.74,3852.82,3851.79,3852.31,3846.15,3865.13,3864.1,3911.28,4664.1,3860.51,3863.59,0
15_5_38,113,3857.95,3855.38,3851.79,3850.77,3855.38,3853.33,3853.33,3848.21,3862.56,3864.1,3911.28,4664.1,3858.46,3863.59,0
15_5_38,114,3852.31,3853.85,3847.18,3850.77,3849.23,3851.28,3852.31,3849.23,3860.51,3864.1,3912.31,4664.1,3857.95,3864.62,0
15_5_38,115,3853.33,3858.46,3851.79,3850.77,3848.21,3850.77,3848.72,3847.18,3862.56,3864.1,3912.31,4664.1,3861.03,3865.13,0
15_5_38,116,3857.44,3863.08,3855.9,3851.79,3854.36,3851.28,3851.79,3848.21,3863.08,3864.1,3911.79,4664.1,3864.62,3863.08,0
15_5_38,117,3854.87,3861.54,3854.87,3851.28,3853.85,3851.28,3853.85,3856.41,3862.56,3864.1,3910.77,4664.1,3862.56,3862.56,0
15_5_38,118,3857.95,3860.51,3856.92,3850.77,3852.82,3851.28,3851.28,3862.56,3863.08,3864.1,3912.31,4664.1,3860,3865.13,0
15_5_38,119,3863.08,3861.54,3860.51,3856.92,3856.92,3850.77,3857.44,3860.51,3862.56,3864.1,3914.36,4664.62,3861.03,3864.62,0
15_5_38,120,3861.54,3861.03,3860,3861.03,3854.87,3850.77,3863.08,3858.97,3863.08,3864.1,3912.82,4662.56,3861.03,3863.59,0
15_5_38,121,3860.51,3859.49,3860.51,3858.97,3846.15,3851.79,3861.03,3858.97,3863.08,3864.62,3911.28,4664.1,3860.51,3865.64,0
15_5_38,122,3861.03,3859.49,3862.56,3858.97,3851.79,3852.31,3861.03,3859.49,3863.08,3866.15,3912.31,4667.18,3862.05,3866.15,0
15_5_39,123,3857.44,3861.54,3861.03,3860.51,3858.97,3849.74,3861.54,3860.51,3863.08,3866.15,3913.33,4666.67,3862.56,3865.13,0
15_5_39,124,3858.46,3864.1,3861.03,3858.46,3852.82,3850.26,3860.51,3860,3863.59,3865.13,3913.33,4664.62,3861.03,3864.62,0
15_5_39,125,3860.51,3862.56,3862.05,3857.95,3849.74,3853.85,3858.46,3860.51,3865.13,3864.62,3913.85,4666.15,3861.54,3865.64,0
15_5_39,126,3859.49,3862.05,3859.49,3860,3856.92,3855.9,3857.95,3861.54,3866.15,3865.13,3914.36,4669.74,3862.56,3865.64,0
15_5_39,127,3860,3862.05,3860.51,3859.49,3859.49,3855.9,3858.97,3861.54,3865.64,3865.13,3913.33,4669.23,3861.03,3865.64,0
15_5_39,128,3858.97,3860,3860.51,3858.97,3854.87,3855.38,3857.44,3860.51,3864.62,3865.13,3911.79,4665.64,3861.54,3866.67,0
15_5_39,0,3857.95,3860.51,3859.49,3859.49,3854.87,3853.85,3853.85,3859.49,3864.62,3864.62,3912.31,4663.59,3864.62,3866.67,0
15_5_39,1,3861.03,3863.59,3860,3859.49,3861.03,3852.31,3857.44,3857.44,3865.13,3865.13,3911.28,4667.69,3864.62,3866.15,0
15_5_39,2,3862.05,3863.08,3862.05,3858.97,3861.54,3853.33,3864.1,3858.97,3865.13,3867.69,3910.77,4669.23,3863.08,3866.67,0
15_5_39,3,3859.49,3861.54,3861.54,3859.49,3860.51,3856.41,3862.56,3864.1,3864.62,3867.69,3916.92,4667.69,3864.1,3865.64,0
15_5_39,4,3860.51,3862.05,3860.51,3859.49,3861.03,3858.97,3860.51,3863.59,3864.62,3865.13,3920.51,4668.21,3864.1,3865.64,0
15_5_39,5,3862.05,3862.05,3860,3858.97,3855.38,3858.97,3862.05,3859.49,3864.62,3865.64,3920,4668.72,3864.1,3866.67,0
15_5_39,6,3861.54,3862.05,3859.49,3859.49,3848.72,3857.95,3860.51,3861.03,3865.13,3868.21,3920,4668.72,3865.64,3865.64,0
15_5_39,7,3863.08,3862.56,3861.03,3862.56,3852.82,3857.95,3859.49,3864.1,3864.62,3867.18,3917.44,4669.23,3864.62,3865.13,0
15_5_39,8,3862.05,3862.56,3862.56,3864.62,3858.46,3857.44,3861.03,3862.05,3864.62,3865.64,3912.31,4668.72,3862.05,3867.18,0
15_5_39,9,3860,3862.56,3861.54,3863.59,3858.46,3855.38,3861.54,3860.51,3865.64,3867.18,3914.36,4668.21,3862.56,3867.69,0
15_5_39,10,3861.03,3864.62,3861.03,3862.56,3855.9,3854.36,3860,3862.56,3866.67,3866.15,3915.9,4669.74,3864.1,3866.67,0
15_5_39,11,3863.08,3864.62,3861.54,3863.59,3855.38,3857.95,3862.56,3862.05,3866.67,3865.64,3916.41,4669.74,3862.05,3867.18,0
15_5_39,12,3863.08,3861.54,3860,3863.08,3860,3862.56,3862.05,3860.51,3866.67,3871.79,3918.97,4668.72,3860.51,3867.69,0
15_5_39,13,3861.54,3860.51,3859.49,3862.56,3859.49,3863.08,3856.92,3861.54,3866.67,3876.41,3915.38,4671.28,3864.62,3866.67,0
15_5_39,14,3861.03,3863.08,3861.54,3863.59,3854.36,3861.54,3858.97,3863.59,3866.67,3875.38,3915.38,4672.31,3865.64,3868.21,0
15_5_39,15,3862.56,3863.59,3863.59,3863.08,3857.95,3860,3863.08,3864.62,3866.15,3874.36,3924.1,4669.74,3863.08,3867.18,0
15_5_39,16,3862.56,3862.56,3863.08,3861.54,3863.08,3857.95,3862.05,3864.1,3866.67,3875.38,3925.64,4670.26,3863.08,3866.15,0
15_5_39,17,3862.05,3864.1,3862.56,3861.54,3860.51,3857.44,3860,3863.08,3867.18,3875.38,3921.03,4671.28,3864.1,3871.79,0
15_5_39,18,3861.54,3865.64,3862.56,3861.03,3860.51,3860.51,3860.51,3863.59,3865.13,3874.87,3922.05,4670.26,3865.64,3877.44,0
15_5_39,19,3861.54,3863.59,3861.54,3861.54,3862.56,3862.05,3861.03,3863.08,3867.69,3875.38,3925.13,4669.23,3866.15,3875.38,0
15_5_39,20,3862.56,3862.56,3862.05,3861.03,3862.56,3861.03,3861.54,3862.56,3875.9,3875.38,3923.08,4670.77,3865.13,3874.36,0
15_5_39,21,3863.59,3865.13,3862.56,3861.03,3862.05,3861.54,3860.51,3863.59,3877.44,3875.38,3923.08,4673.85,3864.1,3877.44,0
15_5_39,22,3863.08,3865.64,3863.59,3862.05,3861.03,3864.62,3861.03,3865.13,3873.85,3875.38,3923.08,4672.82,3865.64,3872.82,0
15_5_39,23,3863.08,3863.59,3864.1,3864.1,3859.49,3864.62,3863.08,3864.62,3875.9,3875.38,3923.08,4670.77,3865.64,3866.15,0
15_5_39,24,3863.59,3864.1,3864.62,3863.59,3863.08,3862.56,3863.59,3863.08,3874.87,3875.38,3923.08,4671.79,3863.59,3865.64,0
15_5_39,25,3862.05,3865.64,3863.59,3862.56,3864.1,3861.54,3862.05,3863.08,3866.15,3875.38,3923.08,4673.33,3866.15,3867.69,0
15_5_39,26,3861.54,3865.64,3864.1,3863.59,3861.03,3862.05,3861.03,3862.56,3864.1,3875.38,3923.59,4672.82,3867.69,3872.82,0
15_5_39,27,3863.59,3864.62,3865.64,3863.59,3862.05,3862.05,3861.03,3863.59,3867.69,3875.38,3922.56,4671.79,3866.15,3876.41,0
15_5_39,28,3864.62,3864.1,3864.62,3864.1,3863.59,3861.54,3862.05,3865.13,3866.15,3875.38,3923.59,4672.31,3866.15,3875.38,0
15_5_39,29,3863.08,3865.13,3863.59,3864.1,3861.54,3862.05,3862.56,3865.64,3864.1,3875.38,3924.62,4674.36,3867.18,3873.85,0
15_5_39,30,3862.05,3865.13,3866.67,3863.59,3860.51,3863.59,3862.56,3865.13,3866.15,3875.38,3924.1,4674.87,3866.15,3876.41,0
15_5_39,31,3862.56,3864.1,3866.67,3863.08,3862.56,3863.59,3863.08,3865.13,3866.67,3875.38,3924.1,4674.87,3864.62,3877.44,0
15_5_39,32,3864.1,3864.1,3864.1,3863.08,3863.59,3863.08,3863.59,3863.59,3866.15,3875.38,3925.13,4675.9,3866.15,3876.92,0
15_5_39,33,3864.1,3865.64,3864.62,3863.08,3862.56,3862.56,3862.56,3863.59,3866.15,3875.38,3924.62,4675.9,3867.18,3876.41,0
15_5_39,34,3863.08,3865.13,3865.64,3862.56,3862.56,3862.56,3863.59,3865.13,3866.67,3875.38,3925.13,4674.36,3865.64,3875.9,0
15_5_39,35,3864.1,3864.62,3864.1,3863.08,3865.13,3864.62,3865.13,3865.64,3866.15,3875.9,3926.15,4675.9,3864.62,3876.41,0
15_5_39,36,3864.1,3864.62,3864.62,3863.08,3865.13,3866.15,3864.62,3866.15,3866.15,3876.41,3923.59,4674.36,3865.64,3875.9,0
15_5_39,37,3864.1,3865.13,3865.13,3862.56,3863.08,3864.1,3864.62,3865.13,3866.15,3876.41,3924.1,4673.85,3867.18,3876.41,0
15_5_39,38,3864.62,3865.64,3865.64,3864.62,3863.59,3864.62,3864.62,3865.13,3866.15,3875.9,3926.67,4677.95,3866.67,3876.41,0
15_5_39,39,3865.64,3866.67,3867.18,3866.15,3864.62,3865.13,3864.1,3865.64,3865.64,3876.41,3925.64,4679.49,3866.67,3875.9,0
15_5_39,40,3866.67,3865.64,3865.64,3864.62,3864.1,3863.08,3864.1,3865.64,3867.18,3875.9,3924.1,4678.46,3867.18,3876.41,0
15_5_39,41,3865.64,3865.64,3864.62,3863.08,3865.13,3863.59,3864.62,3864.62,3865.13,3875.9,3924.1,4677.44,3867.69,3877.95,0
15_5_39,42,3865.13,3866.15,3867.18,3864.62,3865.64,3864.62,3864.1,3864.1,3865.64,3875.9,3923.08,4678.97,3868.21,3876.92,0
15_5_39,43,3865.13,3865.13,3866.15,3865.64,3865.64,3863.59,3864.1,3863.08,3873.33,3875.9,3923.59,4679.49,3868.21,3874.87,0
15_5_39,44,3864.62,3865.13,3864.62,3864.62,3865.64,3863.08,3864.62,3863.59,3876.92,3875.9,3926.15,4678.97,3868.21,3874.36,0
15_5_39,45,3864.62,3865.64,3866.15,3865.13,3864.62,3864.1,3866.15,3865.13,3874.87,3875.9,3926.67,4677.95,3867.69,3875.38,0
15_5_39,46,3865.64,3866.15,3865.64,3865.13,3864.62,3864.62,3865.13,3866.67,3874.87,3875.9,3927.18,4679.49,3868.72,3875.38,0
15_5_39,47,3865.64,3866.67,3864.62,3865.13,3865.13,3864.62,3862.56,3865.64,3876.41,3875.9,3928.72,4680.51,3868.21,3874.36,0
15_5_39,48,3864.1,3866.67,3866.67,3865.13,3864.1,3864.1,3863.59,3864.1,3875.9,3875.9,3926.67,4678.46,3867.18,3875.38,0
15_5_39,49,3866.15,3866.67,3867.69,3864.62,3864.62,3864.62,3864.1,3864.62,3875.38,3876.41,3925.13,4678.46,3870.77,3878.46,0
15_5_39,50,3867.69,3867.69,3865.13,3865.13,3865.13,3865.13,3862.56,3865.64,3874.87,3875.9,3927.18,4680.51,3876.41,3877.44,0
15_5_39,51,3866.67,3866.67,3864.62,3866.15,3864.62,3864.1,3864.1,3865.64,3874.87,3876.41,3930.26,4680.51,3875.38,3873.33,0
15_5_39,52,3865.64,3865.64,3866.15,3866.67,3864.62,3864.62,3867.18,3865.64,3875.9,3879.49,3929.23,4678.97,3872.82,3874.36,0
15_5_39,53,3866.15,3867.69,3866.15,3867.18,3865.64,3865.13,3866.15,3866.15,3875.9,3881.54,3927.69,4680,3876.92,3878.46,0
15_5_39,54,3867.18,3867.69,3863.59,3865.64,3865.64,3864.1,3865.13,3865.13,3875.38,3881.03,3928.21,4680,3874.36,3880,0
15_5_39,55,3866.15,3865.13,3865.64,3864.62,3865.13,3863.59,3865.64,3867.69,3875.9,3877.44,3926.67,4678.97,3868.72,3878.97,0
15_5_39,56,3865.13,3866.67,3869.23,3867.69,3864.62,3865.13,3866.15,3870.26,3875.9,3874.87,3926.67,4681.03,3872.31,3878.46,0
15_5_39,57,3866.67,3868.72,3865.64,3869.23,3864.62,3864.62,3865.64,3867.69,3875.9,3876.92,3928.72,4683.08,3876.41,3878.46,0
15_5_39,58,3867.69,3865.64,3866.67,3864.62,3865.13,3865.13,3865.64,3865.13,3875.9,3880.51,3928.72,4683.08,3875.38,3879.49,0
15_5_39,59,3866.15,3867.69,3871.79,3864.62,3865.13,3865.64,3866.15,3866.15,3875.38,3881.03,3928.21,4681.03,3875.9,3879.49,0
15_5_39,60,3867.18,3871.79,3872.82,3867.69,3865.13,3864.62,3867.18,3866.67,3875.38,3880.51,3928.21,4682.56,3876.92,3879.49,0
15_5_39,61,3868.72,3869.74,3869.23,3866.67,3866.15,3864.62,3865.64,3865.13,3875.9,3881.03,3926.67,4685.64,3875.38,3879.49,0
15_5_39,62,3867.18,3865.64,3867.18,3864.62,3866.67,3865.64,3864.1,3864.62,3875.38,3881.03,3926.67,4683.59,3876.41,3880,0
15_5_39,63,3864.62,3867.69,3866.15,3866.15,3866.15,3867.18,3865.64,3866.67,3875.38,3880.51,3928.72,4679.49,3877.95,3879.49,0
15_5_39,64,3866.67,3870.77,3869.74,3866.67,3866.67,3865.13,3865.64,3866.67,3878.46,3880.51,3927.18,4681.03,3875.38,3879.49,0
15_5_39,65,3870.77,3874.36,3872.31,3866.15,3866.67,3864.62,3865.13,3866.15,3879.49,3880.51,3926.15,4682.56,3875.9,3880,0
15_5_39,66,3871.28,3873.85,3870.26,3868.72,3866.15,3869.23,3867.18,3871.28,3877.95,3880.51,3930.26,4681.54,3877.95,3878.97,0
15_5_39,67,3867.18,3865.64,3868.72,3868.72,3868.21,3869.23,3867.69,3876.92,3877.95,3880.51,3932.31,4682.05,3876.92,3877.44,0
15_5_39,68,3866.67,3867.18,3866.67,3867.18,3869.74,3864.1,3865.13,3875.9,3878.46,3880.51,3928.21,4683.08,3876.41,3878.46,0
15_5_39,69,3869.74,3876.92,3866.67,3867.18,3867.18,3864.62,3865.64,3873.85,3876.92,3880.51,3926.67,4683.59,3878.46,3878.97,0
15_5_39,70,3869.23,3876.41,3871.28,3868.21,3864.62,3868.21,3866.67,3875.38,3876.92,3880.51,3928.72,4684.62,3876.92,3877.95,0
15_5_39,71,3867.69,3873.33,3868.72,3869.23,3866.15,3865.64,3865.13,3874.87,3879.49,3880.51,3929.23,4684.1,3874.36,3880,0
15_5_39,72,3867.18,3876.41,3864.1,3867.69,3866.15,3863.59,3865.64,3873.85,3879.49,3880.51,3928.72,4683.08,3874.87,3881.03,0
15_5_39,73,3868.21,3877.95,3870.26,3866.15,3865.13,3865.64,3868.21,3874.36,3877.44,3880.51,3929.23,4684.1,3878.46,3878.97,0
15_5_39,74,3872.82,3876.41,3873.33,3869.23,3868.72,3867.18,3867.18,3874.36,3877.95,3880.51,3930.26,4684.1,3881.03,3878.46,0
15_5_39,75,3873.85,3874.36,3868.21,3871.28,3870.26,3866.67,3864.62,3874.36,3879.49,3880.51,3929.23,4685.13,3880,3880,0
15_5_39,76,3871.79,3869.23,3871.28,3867.18,3869.23,3866.15,3869.23,3874.36,3879.49,3880.51,3929.74,4684.62,3876.92,3880,0
15_5_39,77,3872.82,3868.21,3870.77,3865.13,3870.77,3867.18,3873.33,3875.9,3879.49,3880.51,3929.74,4682.56,3876.41,3879.49,0
15_5_39,78,3871.28,3873.85,3863.08,3867.69,3873.33,3867.69,3867.18,3876.41,3881.03,3880.51,3928.72,4685.13,3878.46,3880.51,0
15_5_39,79,3868.72,3877.44,3867.69,3867.69,3868.21,3865.64,3863.08,3875.9,3881.54,3880.51,3927.69,4688.21,3877.95,3880.51,0
15_5_39,80,3873.85,3877.95,3874.87,3867.18,3867.69,3869.23,3869.23,3875.9,3879.49,3880.51,3928.72,4687.69,3877.44,3880.51,0
15_5_39,81,3878.97,3877.44,3869.23,3867.69,3870.26,3870.77,3870.26,3876.41,3878.97,3880.51,3929.23,4687.18,3877.44,3881.03,0
15_5_39,82,3876.41,3875.9,3863.08,3867.69,3869.23,3869.23,3867.69,3875.9,3878.46,3880.51,3929.23,4687.69,3876.41,3881.54,0
15_5_39,83,3876.41,3876.41,3868.72,3867.69,3870.26,3868.72,3867.69,3875.9,3878.46,3880.51,3930.77,4686.15,3877.44,3881.03,0
15_5_39,84,3878.97,3875.9,3873.85,3867.18,3872.82,3870.26,3870.26,3876.41,3878.97,3880.51,3928.21,4685.64,3877.95,3880.51,0
15_5_39,85,3871.79,3875.38,3867.69,3867.18,3871.79,3870.26,3870.26,3875.9,3880,3880.51,3928.72,4686.67,3878.46,3880,0
15_5_39,86,3869.23,3876.92,3866.67,3868.21,3870.26,3870.77,3869.23,3875.38,3879.49,3881.03,3936.41,4687.69,3880,3881.03,0
15_5_39,87,3875.9,3876.92,3876.92,3866.67,3871.79,3870.77,3869.23,3875.38,3879.49,3880.51,3936.92,4686.67,3877.44,3881.54,0
15_5_39,88,3878.97,3876.92,3879.49,3867.69,3871.79,3869.74,3870.77,3875.38,3879.49,3880.51,3929.23,4685.64,3874.36,3880.51,0
15_5_39,89,3875.9,3876.92,3875.38,3873.33,3866.15,3871.28,3872.82,3875.38,3879.49,3881.54,3931.79,4686.67,3876.92,3881.54,0
15_5_39,90,3875.38,3875.9,3876.41,3877.44,3865.64,3870.26,3871.79,3875.38,3879.49,3881.54,3936.92,4688.72,3880,3884.1,0
15_5_39,91,3876.41,3876.41,3877.95,3877.95,3871.79,3868.21,3873.85,3875.38,3879.49,3880.51,3931.79,4687.69,3878.46,3882.05,0
15_5_39,92,3877.44,3878.97,3877.44,3876.92,3873.33,3869.74,3877.44,3874.87,3879.49,3881.03,3930.77,4686.15,3878.46,3880.51,0
15_5_39,93,3878.97,3878.46,3876.41,3877.44,3870.26,3869.23,3875.9,3876.92,3879.49,3882.56,3935.38,4687.18,3880,3882.05,0
15_5_39,94,3877.44,3879.49,3871.28,3877.95,3872.31,3868.21,3874.87,3878.46,3879.49,3880.51,3934.87,4687.69,3878.97,3883.08,0
15_5_39,95,3877.44,3880.51,3874.36,3876.41,3874.36,3873.33,3875.9,3877.95,3879.49,3880.51,3931.79,4686.67,3878.46,3881.54,0
15_5_39,96,3878.46,3880,3877.95,3874.87,3871.28,3875.38,3877.44,3878.46,3880,3882.05,3930.26,4687.18,3878.46,3881.03,0
15_5_39,97,3877.44,3881.03,3873.85,3875.38,3869.74,3869.23,3878.97,3881.03,3881.03,3881.03,3931.28,4687.18,3877.44,3882.05,0
15_5_39,98,3877.95,3880.51,3874.87,3875.9,3874.87,3869.23,3877.44,3879.49,3881.54,3880,3937.44,4687.69,3878.46,3882.56,0
15_5_39,99,3878.97,3875.9,3878.97,3876.41,3879.49,3872.31,3871.79,3876.41,3881.03,3881.54,3939.49,4687.18,3881.54,3883.59,0
15_5_39,100,3878.97,3876.41,3876.92,3877.44,3878.46,3869.74,3873.33,3877.95,3880.51,3881.54,3933.85,4689.23,3881.54,3882.56,0
15_5_39,101,3876.41,3882.56,3874.87,3877.44,3875.38,3870.77,3878.46,3878.97,3880.51,3881.54,3935.9,4692.31,3880.51,3882.05,0
15_5_39,102,3875.9,3881.54,3877.95,3878.97,3876.92,3875.38,3876.92,3875.9,3880.51,3883.08,3941.03,4692.82,3879.49,3882.56,0
15_5_39,103,3878.46,3877.44,3877.95,3878.46,3876.92,3872.31,3876.92,3875.38,3880.51,3883.59,3938.46,4688.72,3878.97,3881.54,0
15_5_39,104,3879.49,3876.92,3876.92,3874.36,3875.38,3871.79,3881.54,3879.49,3881.03,3883.08,3936.41,4688.21,3878.97,3882.05,0
15_5_39,105,3877.95,3877.95,3878.46,3874.87,3876.41,3877.95,3878.97,3880,3881.03,3884.1,3939.49,4692.31,3879.49,3884.62,0
15_5_39,106,3876.92,3878.46,3880,3876.41,3876.41,3878.97,3875.38,3878.97,3880.51,3883.59,3940,4693.33,3880.51,3882.05,0
15_5_39,107,3877.44,3877.44,3878.46,3875.38,3875.9,3874.87,3876.92,3878.97,3880.51,3882.05,3938.46,4691.28,3880.51,3883.59,0
15_5_39,108,3877.95,3877.95,3876.41,3877.44,3876.92,3873.85,3877.95,3877.44,3880.51,3882.56,3938.46,4690.26,3878.97,3890.77,0
15_5_39,109,3878.46,3880,3876.92,3881.03,3876.92,3877.95,3877.95,3878.97,3880.51,3883.59,3937.95,4691.79,3879.49,3890.26,0
15_5_39,110,3880,3880.51,3878.97,3881.03,3875.38,3876.92,3877.95,3881.03,3880,3883.08,3939.49,4693.85,3882.56,3885.64,0
15_5_39,111,3879.49,3878.46,3878.97,3879.49,3875.9,3875.38,3878.46,3878.97,3880.51,3883.08,3939.49,4692.82,3881.54,3884.1,0
15_5_39,112,3877.95,3877.95,3878.46,3880,3877.44,3877.44,3878.46,3878.46,3881.54,3883.08,3939.49,4689.74,3880.51,3884.1,0
15_5_39,113,3878.46,3880.51,3878.46,3880,3877.44,3876.92,3877.44,3881.03,3881.54,3883.08,3940.51,4691.28,3881.54,3889.23,0
15_5_39,114,3879.49,3880.51,3878.97,3879.49,3876.92,3872.82,3876.92,3881.03,3880.51,3883.08,3938.46,4694.36,3881.54,3896.41,0
15_5_39,115,3878.46,3879.49,3878.97,3879.49,3878.46,3874.87,3877.44,3879.49,3880.51,3883.08,3936.92,4692.31,3881.03,3886.67,0
15_5_39,116,3878.97,3880,3879.49,3880,3878.46,3878.97,3877.95,3880,3882.05,3883.08,3938.97,4689.74,3880.51,3881.54,0
15_5_39,117,3881.03,3881.03,3880,3878.97,3876.92,3877.95,3878.97,3881.03,3881.54,3882.56,3939.49,4691.79,3880,3890.77,0
15_5_39,118,3880,3881.03,3878.46,3877.44,3877.95,3876.92,3878.97,3880.51,3881.54,3882.56,3937.44,4693.85,3880.51,3887.18,0
15_5_39,119,3877.95,3880,3877.95,3878.46,3878.46,3877.44,3877.95,3882.05,3882.05,3883.59,3941.54,4689.74,3880.51,3882.56,0
15_5_39,120,3878.46,3880,3878.46,3880.51,3878.46,3878.46,3879.49,3883.08,3880,3882.05,3942.56,4690.77,3879.49,3890.77,0
15_5_39,121,3880.51,3881.03,3878.97,3880,3877.95,3877.95,3882.56,3881.03,3883.59,3883.08,3934.36,4696.92,3881.03,3895.38,0
15_5_40,122,3879.49,3881.54,3877.95,3878.97,3880,3878.46,3880.51,3879.49,3890.77,3890.26,3933.33,4696.41,3883.08,3890.26,0
15_5_40,123,3879.49,3878.97,3878.46,3880,3879.49,3878.97,3878.97,3879.49,3892.82,3893.85,3941.54,4692.31,3881.54,3891.28,0
15_5_40,124,3882.05,3880,3879.49,3881.03,3878.46,3879.49,3878.97,3880,3889.23,3891.28,3941.54,4694.36,3882.05,3893.85,0
15_5_40,125,3881.54,3882.05,3879.49,3881.03,3878.97,3878.97,3878.97,3879.49,3891.28,3890.77,3938.97,4698.97,3882.56,3891.28,0
15_5_40,126,3879.49,3881.03,3878.97,3880.51,3877.95,3878.97,3880.51,3880,3893.85,3892.82,3943.59,4696.41,3880,3891.28,0
15_5_40,127,3880.51,3879.49,3878.97,3881.03,3876.41,3878.97,3881.03,3881.54,3892.31,3892.31,3943.59,4694.87,3881.54,3891.79,0
15_5_40,128,3880,3880.51,3878.46,3881.54,3877.44,3879.49,3878.46,3881.54,3890.77,3892.31,3937.44,4698.46,3884.1,3891.79,0
15_5_40,0,3878.97,3880.51,3878.97,3881.54,3878.97,3880,3878.97,3879.49,3892.82,3892.31,3937.44,4698.46,3883.08,3891.79,0
15_5_40,1,3880.51,3879.49,3878.46,3881.54,3878.46,3879.49,3882.56,3878.97,3889.74,3891.79,3941.54,4695.9,3882.56,3891.79,0
15_5_40,2,3881.03,3880.51,3878.46,3881.54,3878.97,3877.44,3882.05,3882.05,3881.03,3891.79,3942.05,4698.97,3882.56,3891.28,0
15_5_40,3,3878.97,3880.51,3880,3881.03,3880,3877.95,3878.97,3882.56,3879.49,3891.79,3938.97,4700,3880,3890.77,0
15_5_40,4,3880,3880,3881.54,3880.51,3878.46,3880,3880.51,3880.51,3884.1,3891.79,3938.97,4694.36,3882.56,3891.28,0
15_5_40,5,3881.54,3881.54,3882.05,3880.51,3880.51,3881.03,3883.08,3880.51,3883.59,3891.79,3940.51,4694.87,3888.21,3892.82,0
15_5_40,6,3880,3881.03,3881.54,3880,3882.56,3878.97,3881.03,3883.08,3882.05,3891.79,3941.54,4700.51,3885.13,3892.82,0
15_5_40,7,3878.97,3880,3881.03,3880,3883.59,3877.95,3880,3879.49,3884.1,3891.79,3942.56,4699.49,3880.51,3892.82,0
15_5_40,8,3880,3881.03,3881.03,3880.51,3883.08,3880,3882.56,3877.95,3885.13,3891.79,3942.56,4696.92,3883.08,3892.82,0
15_5_40,9,3881.54,3882.05,3882.05,3881.03,3883.08,3880.51,3881.54,3886.15,3884.1,3891.79,3941.54,4697.44,3887.69,3892.82,0
15_5_40,10,3880,3882.56,3881.03,3880.51,3883.08,3878.97,3878.97,3888.21,3883.08,3891.79,3941.54,4697.95,3891.28,3892.82,0
15_5_40,11,3878.97,3882.05,3880.51,3880.51,3883.08,3878.46,3880.51,3881.03,3887.18,3891.28,3942.56,4696.92,3892.82,3892.82,0
15_5_40,12,3881.03,3881.54,3881.54,3880.51,3883.08,3880,3881.54,3877.95,3892.31,3891.79,3942.56,4696.92,3889.23,3892.82,0
15_5_40,13,3882.56,3881.03,3882.05,3881.54,3883.08,3881.54,3878.97,3884.1,3891.79,3891.79,3942.56,4700,3887.18,3892.82,0
15_5_40,14,3881.03,3880.51,3882.05,3881.54,3882.56,3880.51,3880,3892.82,3890.77,3891.28,3943.08,4700.51,3891.28,3892.82,0
15_5_40,15,3880,3881.03,3882.56,3881.54,3883.59,3880,3882.05,3891.28,3892.82,3893.33,3942.05,4698.46,3892.82,3892.31,0
15_5_40,16,3881.03,3882.56,3882.05,3881.54,3882.56,3880.51,3881.54,3879.49,3892.31,3895.38,3942.05,4698.46,3891.79,3892.82,0
15_5_40,17,3881.03,3881.54,3881.03,3881.54,3879.49,3882.05,3881.03,3880.51,3890.26,3896.41,3941.54,4700.51,3889.23,3892.82,0
15_5_40,18,3881.54,3881.03,3881.54,3881.54,3880,3881.03,3882.05,3890.77,3891.28,3894.87,3941.03,4696.92,3889.74,3892.31,0
15_5_40,19,3881.03,3884.62,3881.54,3881.54,3882.05,3880,3881.54,3884.1,3891.28,3892.31,3943.59,4694.36,3891.28,3893.33,0
15_5_40,20,3881.54,3885.13,3881.54,3881.54,3880,3880.51,3881.54,3877.95,3890.77,3891.28,3945.13,4699.49,3891.28,3893.85,0
15_5_40,21,3882.56,3884.1,3881.54,3881.54,3880,3882.05,3883.08,3884.62,3890.77,3891.79,3943.59,4704.62,3889.23,3892.82,0
15_5_40,22,3881.03,3885.64,3882.56,3881.54,3882.05,3882.56,3882.05,3886.15,3890.77,3891.79,3942.56,4701.54,3889.74,3891.79,0
15_5_40,23,3880,3884.1,3882.56,3881.54,3882.05,3882.05,3880.51,3882.56,3890.77,3891.79,3943.59,4701.54,3891.79,3892.82,0
15_5_40,24,3881.03,3879.49,3882.05,3881.54,3881.03,3881.54,3881.54,3883.59,3890.77,3892.82,3943.08,4703.59,3892.31,3893.85,0
15_5_40,25,3881.54,3883.08,3884.1,3881.54,3881.54,3881.54,3883.08,3885.13,3891.28,3892.31,3945.13,4702.56,3891.79,3893.33,0
15_5_40,26,3881.03,3887.18,3883.08,3881.03,3881.54,3880.51,3882.05,3884.1,3892.31,3892.82,3945.64,4701.54,3891.28,3893.85,0
15_5_40,27,3881.03,3886.67,3879.49,3881.54,3881.03,3882.05,3884.62,3884.62,3892.82,3895.9,3944.1,4702.56,3891.28,3896.92,0
15_5_40,28,3880.51,3884.62,3884.1,3882.05,3881.54,3883.08,3886.67,3883.08,3892.82,3897.44,3944.1,4701.54,3890.77,3896.41,0
15_5_40,29,3882.05,3883.59,3888.21,3882.56,3882.05,3882.05,3886.15,3884.1,3892.82,3896.41,3944.62,4700.51,3890.26,3892.31,0
15_5_40,30,3884.62,3885.64,3884.1,3882.56,3882.56,3880.51,3884.62,3888.21,3892.82,3895.9,3943.59,4702.05,3891.79,3892.31,0
15_5_40,31,3884.1,3890.26,3882.56,3884.1,3882.56,3882.05,3884.62,3891.79,3892.82,3896.41,3943.08,4702.05,3893.33,3897.44,0
15_5_40,32,3882.05,3890.77,3887.69,3887.69,3881.54,3881.54,3882.05,3892.82,3892.82,3896.41,3943.59,4701.54,3892.31,3898.97,0
15_5_40,33,3880.51,3883.59,3889.23,3892.82,3881.54,3881.03,3883.08,3891.79,3892.31,3896.41,3943.08,4702.05,3891.28,3895.9,0
15_5_40,34,3882.05,3882.56,3887.18,3892.31,3882.56,3881.54,3886.67,3890.77,3893.85,3896.41,3943.59,4703.08,3892.82,3893.85,0
15_5_40,35,3882.56,3890.77,3885.64,3885.13,3882.56,3882.56,3884.62,3889.74,3894.36,3896.41,3945.13,4703.08,3893.85,3895.38,0
15_5_40,36,3880.51,3893.33,3885.64,3881.03,3882.56,3882.56,3882.56,3890.77,3893.85,3896.41,3945.64,4702.05,3893.33,3895.9,0
15_5_40,37,3885.13,3890.26,3887.18,3880.51,3882.05,3881.54,3883.59,3891.28,3893.85,3896.41,3944.62,4702.56,3892.82,3894.87,0
15_5_40,38,3890.26,3891.28,3885.13,3882.05,3881.54,3883.59,3887.69,3890.77,3893.33,3896.41,3945.13,4703.59,3893.33,3894.87,0
15_5_40,39,3884.62,3894.87,3886.15,3889.23,3882.56,3886.15,3889.23,3890.77,3890.77,3896.41,3945.64,4703.08,3893.85,3895.9,0
15_5_40,40,3877.95,3891.79,3887.18,3892.82,3883.08,3883.59,3885.13,3890.77,3891.79,3896.41,3945.64,4703.08,3892.31,3895.9,0
15_5_40,41,3884.62,3890.77,3886.15,3890.77,3882.05,3879.49,3882.05,3890.77,3894.36,3896.41,3945.64,4703.08,3891.79,3895.9,0
15_5_40,42,3887.69,3891.79,3889.23,3890.77,3881.54,3882.05,3888.21,3890.77,3895.38,3896.41,3945.64,4703.59,3893.33,3896.41,0
15_5_40,43,3883.59,3891.79,3888.72,3889.74,3880,3882.05,3889.74,3890.77,3896.41,3896.41,3945.64,4703.08,3892.31,3896.41,0
15_5_40,44,3883.59,3891.79,3886.67,3880.51,3884.62,3882.56,3882.05,3891.28,3893.33,3896.41,3945.64,4703.08,3891.79,3896.41,0
15_5_40,45,3886.15,3892.31,3891.79,3880,3886.67,3884.62,3886.15,3890.26,3890.26,3896.41,3945.64,4703.08,3893.33,3896.41,0
15_5_40,46,3884.1,3892.31,3892.82,3889.23,3884.62,3885.13,3898.46,3890.77,3893.85,3896.41,3945.64,4703.08,3892.82,3896.41,0
15_5_40,47,3885.13,3894.87,3884.62,3892.82,3884.1,3883.59,3892.31,3893.85,3897.44,3896.41,3945.64,4702.56,3891.28,3896.41,0
15_5_40,48,3888.72,3895.38,3884.62,3891.79,3886.15,3885.64,3882.05,3893.33,3895.38,3896.41,3945.64,4703.08,3892.82,3896.41,0
15_5_40,49,3887.18,3890.26,3893.33,3891.79,3886.67,3886.15,3885.13,3891.79,3894.36,3896.41,3945.13,4703.59,3894.36,3895.9,0
15_5_40,50,3886.67,3890.77,3892.31,3892.31,3887.69,3883.59,3888.21,3892.82,3896.92,3896.41,3944.62,4704.1,3892.82,3895.38,0
15_5_40,51,3888.72,3893.85,3886.15,3891.79,3888.72,3885.64,3885.13,3893.33,3896.41,3896.41,3946.67,4704.1,3891.28,3894.87,0
15_5_40,52,3886.15,3891.28,3887.69,3890.77,3886.15,3887.69,3884.62,3891.28,3895.9,3896.41,3945.64,4705.13,3892.31,3894.36,0
15_5_40,53,3882.05,3891.28,3890.26,3890.77,3887.18,3886.67,3887.69,3891.28,3896.41,3896.41,3943.08,4707.18,3895.38,3894.36,0
15_5_40,54,3882.56,3894.36,3887.18,3891.28,3887.69,3885.64,3886.15,3892.82,3896.41,3896.41,3951.28,4704.62,3895.9,3895.9,0
15_5_40,55,3891.28,3892.31,3889.74,3890.77,3884.62,3886.15,3885.64,3892.31,3895.9,3896.41,3955.9,4702.56,3894.36,3896.92,0
15_5_40,56,3894.87,3891.79,3894.36,3890.77,3885.64,3886.67,3890.77,3891.28,3895.9,3896.41,3947.69,4706.15,3893.85,3896.92,0
15_5_40,57,3889.23,3891.79,3893.33,3890.77,3889.74,3885.64,3893.85,3890.77,3896.41,3896.41,3943.08,4706.15,3894.87,3897.95,0
15_5_40,58,3885.64,3889.23,3890.26,3890.77,3890.77,3883.59,3891.79,3892.31,3895.9,3895.9,3945.64,4703.08,3894.87,3897.95,0
15_5_40,59,3892.31,3891.79,3891.79,3891.28,3886.15,3884.62,3891.79,3893.33,3894.36,3896.41,3946.67,4704.62,3894.36,3897.95,0
15_5_40,60,3893.33,3893.85,3891.79,3890.77,3882.56,3887.69,3892.82,3892.31,3894.87,3897.44,3946.67,4705.64,3894.36,3898.46,0
15_5_40,61,3891.79,3891.79,3892.82,3891.28,3883.59,3887.18,3888.21,3891.79,3896.41,3898.46,3944.1,4702.56,3893.33,3897.44,0
15_5_40,62,3892.82,3890.26,3891.79,3892.31,3886.67,3886.15,3884.1,3891.28,3896.92,3898.46,3946.67,4704.62,3893.33,3895.9,0
15_5_40,63,3892.82,3892.82,3891.28,3892.82,3885.64,3888.21,3884.1,3892.31,3896.92,3897.95,3954.36,4707.69,3896.41,3896.41,0
15_5_40,64,3891.28,3894.87,3893.33,3892.82,3883.08,3887.69,3885.64,3892.82,3896.92,3898.46,3954.36,4707.18,3896.41,3897.44,0
15_5_40,65,3891.79,3894.36,3893.85,3892.82,3886.67,3888.21,3889.23,3892.82,3896.92,3897.95,3948.21,4707.69,3892.82,3895.9,0
15_5_40,66,3893.33,3892.31,3892.31,3892.82,3888.72,3889.74,3891.79,3893.33,3896.92,3896.41,3948.72,4708.72,3892.82,3896.41,0
15_5_40,67,3892.31,3892.82,3891.28,3892.82,3888.21,3887.69,3892.31,3893.33,3896.92,3896.41,3951.79,4708.21,3895.38,3898.97,0
15_5_40,68,3892.31,3893.85,3892.82,3892.82,3891.28,3884.1,3891.79,3890.26,3896.92,3897.44,3951.28,4707.69,3894.87,3900.51,0
15_5_40,69,3891.79,3893.33,3893.85,3892.31,3889.23,3885.64,3890.77,3888.72,3896.41,3897.44,3948.72,4707.69,3895.38,3900,0
15_5_40,70,3892.31,3894.36,3893.33,3893.33,3885.13,3890.26,3891.79,3892.31,3895.9,3896.92,3947.18,4706.67,3896.41,3896.92,0
15_5_40,71,3894.87,3893.85,3893.33,3892.31,3889.23,3892.82,3893.33,3893.85,3895.9,3897.44,3951.79,4706.67,3896.41,3896.41,0
15_5_40,72,3894.36,3892.31,3893.85,3889.74,3894.87,3892.31,3892.31,3893.33,3895.9,3896.92,3956.41,4712.82,3896.41,3897.95,0
15_5_40,73,3894.36,3894.36,3894.36,3890.77,3893.85,3890.77,3893.33,3895.9,3895.9,3896.41,3955.38,4715.9,3895.9,3898.46,0
15_5_40,74,3896.92,3895.9,3894.87,3891.79,3891.79,3888.72,3893.33,3897.44,3896.41,3897.44,3951.28,4709.74,3893.85,3895.38,0
15_5_40,75,3895.38,3893.33,3894.36,3891.79,3893.33,3891.28,3893.33,3893.85,3896.92,3897.44,3945.64,4707.18,3894.36,3895.38,0
15_5_40,76,3891.28,3893.85,3894.36,3893.33,3892.31,3893.85,3894.36,3892.82,3896.92,3895.9,3948.21,4710.77,3896.41,3904.62,0
15_5_40,77,3893.33,3894.87,3894.87,3893.85,3893.33,3890.26,3895.9,3894.36,3896.92,3900,3954.36,4709.23,3894.87,3906.15,0
15_5_40,78,3894.36,3892.31,3894.36,3894.36,3892.82,3885.64,3893.85,3893.33,3896.92,3908.21,3956.41,4706.15,3894.36,3898.46,0
15_5_40,79,3892.82,3893.85,3893.33,3894.36,3892.82,3888.21,3892.31,3892.82,3896.92,3909.23,3955.38,4709.23,3897.44,3902.05,0
