TIME, ED_COUNTER, AF3, F7, F3, FC5, T7, P7, O1, O2, P8, T8, FC6, F4, F8, AF4, LABEL
12_26_57,51,4060,4091.28,4073.85,4080.51,4105.64,4082.05,4095.9,4082.56,4078.97,4085.64,4083.59,4092.82,4021.03,4057.95,0
12_26_57,52,4060,4086.15,4073.33,4078.46,4097.44,4082.05,4099.49,4088.72,4083.59,4099.49,4083.59,4092.82,4024.1,4061.03,0
12_26_57,53,4054.87,4083.59,4073.85,4074.36,4090.77,4076.92,4098.46,4098.46,4087.69,4093.85,4084.1,4092.82,4019.49,4058.97,0
12_26_57,54,4052.31,4084.1,4071.79,4073.85,4090.77,4074.36,4092.82,4094.87,4085.64,4080,4082.56,4087.69,4020,4053.85,0
12_26_57,55,4049.74,4078.97,4064.62,4071.79,4082.56,4070.26,4090.77,4085.64,4075.9,4067.69,4072.82,4078.46,4013.33,4048.72,0
12_26_57,56,4051.28,4077.95,4065.13,4070.26,4077.95,4070.26,4090.26,4087.18,4073.33,4077.95,4073.33,4078.46,4003.08,4049.23,0
12_26_57,57,4057.95,4088.21,4075.38,4074.87,4083.59,4073.33,4090.77,4088.72,4076.92,4094.36,4079.49,4087.18,4008.21,4050.26,0
12_26_57,58,4062.05,4088.21,4076.92,4078.97,4080.51,4068.72,4089.74,4080,4072.82,4075.38,4076.92,4092.31,4015.38,4050.77,0
12_26_57,59,4062.56,4080,4072.82,4073.85,4076.92,4065.13,4087.69,4073.33,4066.15,4060.51,4080.51,4093.33,4012.31,4055.38,0
12_26_57,60,4064.1,4083.08,4076.92,4074.36,4083.59,4073.85,4089.23,4075.9,4067.18,4081.03,4084.1,4097.95,4015.38,4058.97,0
12_26_57,61,4070.26,4092.31,4082.05,4086.15,4090.26,4079.49,4092.31,4082.05,4072.31,4088.21,4084.1,4104.1,4025.13,4064.62,0
12_26_57,62,4077.44,4093.33,4080.51,4090.26,4095.9,4074.87,4093.85,4090.26,4077.95,4082.05,4090.77,4111.28,4027.18,4076.92,0
12_26_57,63,4072.31,4083.59,4074.36,4078.97,4092.82,4073.85,4093.85,4091.28,4079.49,4089.23,4089.23,4106.67,4023.08,4074.87,0
12_26_57,64,4055.9,4075.38,4070.77,4070.77,4077.44,4075.38,4091.79,4081.54,4074.87,4085.64,4073.85,4091.79,4024.1,4057.44,0
12_26_57,65,4059.49,4076.41,4074.36,4078.46,4076.41,4074.36,4090.77,4085.13,4077.95,4077.44,4076.41,4090.26,4037.95,4056.41,0
12_26_57,66,4078.46,4081.03,4076.41,4083.08,4091.79,4076.92,4093.85,4094.36,4085.13,4087.18,4091.79,4101.54,4048.21,4073.33,0
12_26_57,67,4077.95,4076.92,4074.36,4075.9,4094.87,4080.51,4096.41,4092.31,4083.59,4089.74,4085.64,4100.51,4050.26,4075.9,0
12_26_57,68,4072.31,4080,4074.36,4074.36,4089.23,4080.51,4093.85,4089.23,4084.1,4085.13,4081.54,4092.82,4063.59,4072.82,0
12_26_57,69,4077.44,4087.18,4077.44,4080.51,4093.85,4082.05,4092.82,4090.77,4097.44,4101.03,4093.33,4096.92,4081.54,4080,0
12_26_57,70,4071.79,4071.28,4075.38,4074.36,4092.31,4084.62,4095.38,4091.28,4103.59,4105.13,4089.74,4095.9,4077.44,4074.87,0
12_26_57,71,4063.59,4066.15,4069.74,4069.23,4087.18,4086.67,4096.92,4089.74,4094.87,4084.1,4074.36,4089.74,4063.59,4061.03,0
12_26_57,72,4080,4094.36,4073.33,4084.1,4101.54,4091.28,4098.46,4093.33,4098.46,4084.62,4074.87,4090.77,4066.15,4067.18,0
12_26_57,73,4100.51,4114.36,4084.1,4097.44,4111.28,4095.38,4100,4104.62,4113.33,4103.59,4079.49,4095.9,4067.69,4081.54,0
12_26_57,74,4104.62,4113.33,4089.23,4097.95,4101.03,4093.33,4098.46,4108.72,4114.36,4093.85,4073.85,4100,4062.56,4086.15,0
12_26_57,75,4104.62,4113.33,4089.23,4098.46,4091.79,4091.79,4097.44,4098.97,4105.64,4073.85,4073.85,4101.54,4071.28,4089.74,0
12_26_57,76,4107.18,4110.26,4091.79,4097.95,4096.92,4093.85,4100.51,4091.79,4107.69,4084.62,4080,4100,4074.87,4088.72,0
12_26_57,77,4103.59,4098.97,4092.31,4093.33,4094.87,4092.82,4097.44,4092.82,4106.15,4094.87,4079.49,4096.41,4063.08,4083.08,0
12_26_57,78,4093.85,4092.31,4086.67,4089.23,4076.92,4088.72,4088.21,4090.26,4092.82,4075.9,4071.28,4091.79,4054.36,4081.54,0
12_26_57,79,4087.18,4088.72,4086.67,4087.18,4077.44,4089.23,4089.74,4087.69,4093.33,4061.54,4072.82,4090.26,4055.9,4078.97,0
12_26_57,80,4095.38,4094.36,4092.82,4088.21,4100.51,4093.85,4099.49,4091.28,4103.59,4074.36,4083.59,4093.85,4054.36,4076.41,0
12_26_57,81,4105.64,4105.64,4093.85,4090.77,4107.18,4095.38,4098.46,4096.92,4106.15,4090.26,4082.05,4094.87,4054.87,4081.03,0
12_26_57,82,4106.15,4109.23,4092.31,4096.92,4096.41,4092.31,4094.87,4104.1,4110.26,4095.9,4079.49,4095.38,4067.18,4089.74,0
12_26_57,83,4105.64,4107.18,4093.33,4102.05,4097.95,4091.79,4102.05,4105.64,4112.31,4094.87,4089.74,4094.87,4075.9,4092.82,0
12_26_57,84,4101.03,4100.51,4092.82,4094.87,4100.51,4092.82,4102.56,4096.92,4102.56,4086.67,4089.74,4086.67,4070.77,4084.1,0
12_26_57,85,4094.36,4096.92,4089.74,4088.72,4093.85,4093.33,4095.38,4090.77,4096.92,4084.1,4078.46,4080.51,4066.67,4074.36,0
12_26_57,86,4093.85,4100.51,4088.72,4093.85,4096.41,4096.41,4100.51,4099.49,4104.62,4087.69,4081.03,4082.56,4068.21,4076.41,0
12_26_57,87,4094.36,4103.59,4089.74,4097.95,4101.03,4098.97,4110.77,4112.31,4115.38,4092.82,4086.67,4083.59,4065.13,4080.51,0
12_26_57,88,4091.79,4101.03,4091.79,4094.87,4094.87,4095.38,4104.1,4107.18,4109.74,4090.26,4080,4078.97,4061.03,4075.9,0
12_26_57,89,4084.1,4089.74,4088.72,4086.67,4089.74,4089.74,4090.77,4087.69,4088.72,4071.79,4067.69,4070.26,4050.26,4065.13,0
12_26_57,90,4080.51,4080.51,4086.67,4082.56,4090.26,4088.72,4091.28,4076.92,4081.03,4064.62,4064.62,4066.15,4037.95,4062.05,0
12_26_57,91,4091.28,4090.77,4094.36,4093.85,4094.36,4090.26,4093.33,4077.95,4092.31,4082.05,4076.92,4080,4052.82,4076.92,0
12_26_57,92,4098.97,4101.03,4097.95,4099.49,4094.87,4086.67,4084.62,4077.44,4093.33,4086.67,4083.08,4087.69,4065.64,4086.15,0
12_26_57,93,4091.79,4092.31,4092.82,4086.67,4087.18,4081.03,4075.9,4069.23,4077.44,4067.18,4069.74,4075.38,4048.72,4074.87,0
12_26_57,94,4095.9,4092.31,4096.92,4084.62,4081.54,4082.05,4079.49,4068.21,4072.82,4067.69,4068.21,4076.92,4046.15,4074.36,0
12_26_57,95,4109.74,4106.15,4108.72,4101.54,4091.28,4091.79,4091.28,4076.41,4079.49,4088.21,4086.67,4094.36,4063.59,4092.82,0
12_26_57,96,4109.23,4102.05,4107.69,4104.1,4097.44,4091.28,4093.33,4079.49,4080,4083.08,4087.18,4096.41,4060.51,4091.28,0
12_26_57,97,4101.54,4086.15,4100,4089.74,4081.03,4076.92,4085.64,4076.41,4074.87,4056.41,4075.9,4087.69,4047.69,4076.41,0
12_26_57,98,4102.05,4085.64,4101.03,4087.18,4076.92,4074.36,4085.13,4077.44,4076.41,4056.41,4079.49,4089.23,4046.15,4081.03,0
12_26_57,99,4104.1,4101.54,4107.18,4101.03,4091.28,4086.15,4091.28,4080,4081.03,4083.08,4084.1,4093.85,4050.26,4091.79,0
12_26_57,100,4107.18,4109.74,4106.67,4108.72,4096.92,4093.33,4092.82,4078.97,4082.05,4089.74,4081.03,4092.82,4055.38,4089.74,0
12_26_57,101,4110.77,4108.72,4102.05,4106.67,4093.85,4093.33,4093.85,4087.18,4087.18,4078.97,4085.13,4093.33,4058.97,4089.74,0
12_26_57,102,4110.77,4109.74,4103.59,4106.15,4096.41,4094.36,4092.82,4094.36,4094.36,4078.46,4092.31,4097.44,4057.95,4094.87,0
12_26_57,103,4105.64,4103.08,4101.54,4097.95,4092.31,4091.28,4088.21,4088.72,4091.28,4080,4089.23,4097.44,4052.31,4089.74,0
12_26_57,104,4104.62,4095.9,4095.9,4091.79,4086.67,4088.21,4091.28,4087.18,4089.23,4086.15,4088.72,4094.36,4045.13,4088.21,0
12_26_57,105,4108.72,4102.56,4095.38,4102.05,4094.87,4099.49,4101.03,4096.41,4096.92,4087.69,4089.74,4096.92,4032.31,4089.74,0
12_26_57,106,4104.1,4100,4097.44,4103.08,4101.03,4108.21,4105.64,4105.13,4104.62,4083.59,4082.56,4101.03,4027.69,4078.97,0
12_26_57,107,4103.08,4092.82,4101.54,4094.36,4096.92,4096.92,4105.64,4108.72,4107.18,4096.41,4088.21,4107.69,4053.85,4088.21,0
12_26_57,108,4116.92,4096.92,4107.18,4096.41,4092.82,4089.74,4104.62,4107.18,4105.64,4102.05,4112.82,4118.97,4092.31,4123.08,0
12_26_57,109,4129.74,4093.33,4110.26,4097.44,4097.44,4102.56,4105.13,4110.26,4111.79,4100,4131.79,4131.28,4118.97,4143.08,0
12_26_57,110,4135.38,4077.44,4114.36,4091.28,4101.54,4112.31,4109.74,4122.05,4130.26,4125.13,4145.13,4142.56,4141.54,4155.9,0
12_26_57,111,4142.05,4068.21,4120,4093.85,4095.38,4108.72,4116.41,4127.69,4143.08,4151.28,4167.18,4155.38,4170.26,4183.08,0
12_26_57,112,4142.56,4050.77,4117.44,4093.85,4091.28,4106.67,4117.44,4123.08,4139.49,4140.51,4183.08,4166.67,4189.74,4194.36,0
12_26_57,113,4136.41,4025.13,4109.74,4081.54,4087.69,4103.59,4112.31,4122.56,4136.92,4130.77,4189.74,4168.72,4208.21,4194.87,0
12_26_57,114,4137.44,4017.44,4112.31,4073.85,4082.56,4100.51,4109.23,4125.64,4147.18,4138.97,4206.15,4172.31,4235.9,4211.28,0
12_26_57,115,4134.36,4016.92,4118.46,4075.38,4082.05,4102.56,4112.31,4125.64,4156.41,4156.92,4222.05,4182.05,4259.49,4222.05,0
12_26_57,116,4131.28,4008.72,4119.49,4076.92,4090.77,4107.69,4113.33,4132.82,4156.41,4181.03,4219.49,4187.18,4277.95,4224.62,0
12_26_57,117,4132.31,3995.9,4116.41,4070.26,4092.82,4105.13,4111.28,4140.51,4153.33,4172.31,4224.1,4186.15,4286.15,4231.79,0
12_26_57,118,4126.67,3986.15,4111.79,4061.54,4090.77,4099.49,4112.82,4140.51,4160,4158.46,4242.56,4190.77,4298.46,4235.38,0
12_26_57,119,4120,3985.13,4109.23,4062.56,4090.77,4103.08,4116.92,4142.56,4168.21,4182.56,4250.26,4200,4323.59,4234.87,0
12_26_57,120,4123.08,3983.08,4111.28,4064.1,4085.64,4108.21,4113.85,4143.59,4168.72,4195.38,4249.23,4202.05,4338.46,4234.36,0
12_26_57,121,4124.1,3974.87,4111.28,4057.95,4081.54,4105.64,4110.26,4144.1,4166.67,4186.67,4251.28,4199.49,4341.03,4234.36,0
12_26_57,122,4115.38,3967.18,4105.64,4052.82,4080,4100.51,4115.9,4147.18,4161.03,4185.13,4248.72,4195.38,4347.18,4234.36,0
12_26_57,123,4110.77,3969.23,4104.1,4056.92,4081.03,4104.62,4122.56,4147.18,4160,4176.41,4255.38,4192.31,4344.1,4225.64,0
12_26_57,124,4113.33,3974.36,4107.69,4061.03,4086.67,4110.26,4121.03,4148.72,4169.23,4170.77,4266.67,4192.31,4325.13,4216.92,0
12_26_57,125,4116.92,3974.36,4108.72,4058.97,4091.79,4105.64,4113.85,4151.79,4171.28,4189.23,4252.82,4188.72,4325.64,4214.36,0
12_26_57,126,4115.38,3974.87,4107.18,4057.44,4089.74,4098.97,4111.28,4144.1,4156.92,4185.13,4235.9,4183.59,4343.08,4207.18,0
12_26_57,127,4112.31,3978.46,4107.18,4063.08,4089.23,4103.08,4113.33,4135.9,4150.77,4166.15,4244.62,4187.18,4336.92,4206.67,0
12_26_57,128,4112.31,3982.56,4111.28,4066.15,4092.31,4109.23,4112.31,4141.54,4161.54,4185.64,4252.82,4191.79,4319.49,4214.87,0
12_26_57,0,4109.23,3986.67,4111.79,4064.62,4084.62,4103.08,4106.67,4141.03,4160,4188.21,4242.56,4188.72,4312.82,4208.21,0
12_26_57,1,4108.72,3990.77,4109.23,4064.62,4085.13,4096.41,4105.64,4130.26,4146.15,4155.38,4235.9,4185.64,4302.05,4198.46,0
12_26_57,2,4110.26,3990.26,4107.69,4062.56,4094.87,4098.46,4107.18,4130.26,4138.46,4151.79,4230.77,4185.13,4291.28,4197.95,0
12_26_57,3,4108.21,3985.13,4107.69,4058.97,4086.67,4097.95,4107.18,4138.46,4142.56,4178.97,4222.56,4184.1,4294.36,4192.82,0
12_26_57,4,4106.67,3984.62,4106.67,4060,4082.56,4094.36,4106.15,4139.49,4144.1,4176.92,4220.51,4184.62,4293.33,4187.69,0
12_26_57,5,4108.21,3990.26,4107.18,4063.08,4082.05,4089.74,4103.08,4131.28,4133.85,4141.54,4221.54,4183.08,4282.56,4184.62,0
12_26_57,6,4107.18,3992.31,4108.21,4062.56,4071.28,4090.77,4103.59,4124.1,4128.21,4142.56,4217.95,4174.87,4275.38,4176.41,0
12_26_57,7,4105.64,3990.77,4106.67,4061.03,4085.64,4101.54,4108.21,4125.13,4134.36,4170.77,4208.21,4170.26,4280,4178.97,0
12_26_57,8,4106.67,3990.26,4106.67,4058.97,4112.31,4103.08,4105.64,4125.64,4137.44,4160.51,4207.69,4173.85,4277.95,4182.05,0
12_26_57,9,4103.59,3992.82,4105.64,4057.44,4100,4092.82,4098.46,4125.64,4136.41,4144.62,4214.36,4174.36,4261.03,4173.33,0
12_26_57,10,4095.9,3987.18,4098.97,4053.85,4075.9,4090.77,4096.41,4124.1,4131.79,4158.97,4205.13,4163.59,4251.28,4163.59,0
12_26_57,11,4089.74,3980.51,4091.79,4043.59,4075.38,4093.85,4094.87,4118.46,4118.97,4146.15,4187.69,4152.31,4253.33,4156.92,0
12_26_57,12,4087.18,3977.95,4094.36,4044.1,4066.15,4089.74,4096.41,4117.95,4114.87,4112.82,4185.13,4149.74,4246.67,4156.41,0
12_26_57,13,4095.9,3984.62,4103.08,4063.08,4071.79,4091.28,4104.1,4123.59,4124.1,4132.31,4188.21,4153.85,4244.1,4164.1,0
12_26_57,14,4116.92,4001.03,4108.21,4073.85,4111.28,4101.03,4107.69,4124.1,4131.28,4164.1,4191.79,4159.49,4256.92,4169.74,0
12_26_57,15,4118.97,3988.21,4107.69,4054.87,4110.26,4099.49,4104.1,4123.59,4130.77,4157.44,4206.15,4166.67,4251.79,4171.28,0
12_26_57,16,4098.97,3972.31,4105.64,4040,4076.41,4092.82,4104.62,4126.15,4129.23,4148.72,4207.18,4170.77,4230.77,4168.72,0
12_26_57,17,4104.62,3990.77,4108.21,4063.08,4062.56,4089.23,4107.18,4127.18,4123.59,4154.87,4182.05,4167.18,4216.92,4161.03,0
12_26_57,18,4133.85,4016.92,4110.77,4088.21,4082.56,4089.23,4103.59,4126.15,4119.49,4145.64,4164.1,4160,4198.46,4158.46,0
12_26_57,19,4141.03,4035.38,4109.23,4080,4109.23,4093.33,4096.92,4121.03,4111.79,4107.18,4156.41,4150.77,4171.28,4155.9,0
12_26_57,20,4135.9,4050.77,4106.67,4066.67,4095.38,4088.21,4093.85,4108.72,4094.36,4081.03,4135.38,4136.41,4138.46,4143.08,0
12_26_57,21,4148.21,4067.69,4109.23,4080.51,4066.15,4077.44,4091.79,4103.59,4083.08,4087.18,4106.15,4125.13,4105.13,4136.41,0
12_26_57,22,4166.15,4097.44,4112.31,4099.49,4082.56,4080.51,4090.77,4104.62,4080,4086.67,4089.74,4120,4074.36,4134.87,0
12_26_57,23,4172.31,4136.92,4111.79,4106.15,4115.9,4089.23,4090.77,4097.95,4073.33,4064.62,4083.59,4111.79,4044.1,4120,0
12_26_57,24,4174.36,4153.33,4110.26,4111.28,4098.97,4084.1,4084.62,4086.15,4057.95,4050.77,4065.13,4096.41,4020.51,4107.18,0
12_26_57,25,4173.85,4151.28,4107.69,4114.36,4066.15,4072.82,4074.36,4072.82,4038.97,4043.08,4036.92,4080,3993.85,4100.51,0
12_26_58,26,4169.23,4154.36,4106.15,4110.26,4064.1,4067.69,4074.36,4069.23,4037.44,4032.82,4029.74,4076.41,3974.36,4093.33,0
12_26_58,27,4158.46,4155.38,4105.13,4110.26,4074.87,4066.67,4076.41,4075.38,4044.1,4022.56,4037.95,4084.1,3977.95,4092.82,0
12_26_58,28,4153.33,4152.82,4100.51,4116.92,4088.21,4071.28,4072.31,4073.85,4035.9,4009.74,4033.33,4081.54,3980,4089.23,0
12_26_58,29,4160.51,4141.54,4101.54,4117.44,4097.95,4081.03,4076.92,4074.36,4029.74,4016.92,4029.74,4077.44,3970.77,4083.59,0
12_26_58,30,4167.69,4140,4110.26,4118.46,4097.44,4082.56,4089.74,4088.72,4045.13,4047.69,4038.46,4088.21,3978.46,4089.23,0
12_26_58,31,4168.72,4153.85,4111.79,4125.13,4094.36,4075.38,4091.28,4093.33,4057.95,4055.9,4040,4094.87,3997.44,4093.85,0
12_26_58,32,4171.28,4162.05,4110.26,4125.13,4100,4077.44,4088.21,4092.31,4064.62,4046.67,4045.64,4095.38,4008.72,4095.38,0
12_26_58,33,4170.26,4155.9,4114.87,4123.59,4099.49,4084.62,4092.31,4104.1,4075.38,4059.49,4061.54,4102.05,4013.33,4103.08,0
12_26_58,34,4158.97,4141.54,4112.31,4126.15,4089.23,4084.62,4094.36,4106.67,4072.82,4065.64,4058.97,4097.95,4000.51,4098.97,0
12_26_58,35,4149.74,4136.41,4101.03,4126.15,4088.21,4085.13,4090.26,4091.28,4060.51,4047.18,4041.54,4080,3976.41,4082.05,0
12_26_58,36,4140,4135.38,4093.33,4116.92,4081.54,4084.62,4090.26,4081.03,4048.72,4033.85,4029.23,4071.79,3971.28,4073.33,0
12_26_58,37,4133.85,4126.67,4091.28,4110.26,4073.33,4074.36,4091.28,4081.54,4038.46,4026.67,4035.38,4074.87,3982.05,4071.28,0
12_26_58,38,4146.15,4129.74,4100.51,4120.51,4097.44,4076.41,4090.77,4086.15,4046.67,4035.9,4055.38,4085.13,3991.28,4082.05,0
12_26_58,39,4153.85,4146.67,4106.15,4131.28,4117.95,4091.28,4091.79,4092.31,4064.1,4060.51,4053.85,4095.9,3997.95,4091.79,0
12_26_58,40,4138.46,4144.62,4100,4124.1,4100.51,4092.82,4093.85,4090.77,4063.59,4060,4033.33,4094.87,4004.1,4083.08,0
12_26_58,41,4129.74,4137.44,4101.03,4116.92,4095.9,4089.74,4090.26,4080,4052.82,4043.08,4038.46,4090.77,4002.56,4083.59,0
12_26_58,42,4139.49,4144.62,4111.28,4126.67,4109.23,4086.15,4082.05,4078.97,4055.9,4044.1,4058.97,4097.95,3997.95,4094.87,0
12_26_58,43,4142.56,4148.72,4113.85,4138.97,4109.23,4084.1,4083.59,4090.77,4066.67,4058.46,4063.59,4107.69,4006.15,4091.79,0
12_26_58,44,4136.41,4147.18,4111.28,4136.41,4099.49,4088.72,4092.82,4092.82,4068.72,4068.21,4059.49,4105.13,4009.23,4087.69,0
12_26_58,45,4134.36,4144.62,4108.72,4125.13,4090.26,4088.72,4088.21,4080,4056.41,4062.05,4055.38,4096.41,3994.87,4091.79,0
12_26_58,46,4135.9,4146.67,4108.21,4124.1,4093.33,4084.1,4081.54,4077.44,4049.74,4055.9,4048.21,4097.95,3996.92,4090.26,0
12_26_58,47,4140,4151.28,4112.82,4131.28,4109.23,4090.26,4090.26,4090.26,4068.21,4070.77,4051.28,4106.67,4016.41,4089.74,0
12_26_58,48,4138.46,4144.62,4111.79,4123.08,4112.31,4094.87,4092.31,4093.85,4076.92,4064.1,4059.49,4106.67,4005.64,4092.31,0
12_26_58,49,4130.26,4135.9,4105.64,4117.95,4090.26,4084.1,4083.59,4088.72,4056.92,4031.79,4057.95,4096.41,3985.64,4083.08,0
12_26_58,50,4127.69,4137.44,4107.69,4124.1,4077.95,4082.05,4085.64,4090.26,4051.28,4042.05,4053.33,4093.33,3998.97,4077.95,0
12_26_58,51,4129.23,4129.23,4111.28,4118.97,4090.77,4090.77,4091.79,4094.36,4068.21,4075.9,4058.46,4102.56,4015.9,4085.13,0
12_26_58,52,4125.13,4116.92,4108.72,4112.82,4113.33,4095.38,4092.31,4096.41,4076.41,4081.54,4058.97,4107.69,4022.05,4088.72,0
12_26_58,53,4127.18,4132.82,4106.67,4119.49,4118.97,4096.92,4094.36,4102.56,4080,4071.79,4058.97,4105.64,4032.31,4089.74,0
12_26_58,54,4138.46,4146.67,4108.21,4124.62,4101.54,4094.87,4094.36,4111.28,4093.33,4076.92,4074.36,4109.23,4041.03,4093.85,0
12_26_58,55,4134.87,4133.33,4106.67,4122.56,4098.46,4091.28,4090.77,4106.67,4092.31,4088.72,4073.85,4107.69,4051.28,4092.31,0
12_26_58,56,4124.62,4129.23,4104.62,4122.56,4109.74,4090.26,4090.26,4099.49,4081.54,4086.67,4057.44,4100,4064.62,4090.26,0
12_26_58,57,4123.08,4130.77,4107.18,4120.51,4102.56,4092.31,4091.79,4104.62,4091.28,4076.92,4061.03,4099.49,4059.49,4087.69,0
12_26_58,58,4121.03,4124.1,4108.72,4120.51,4094.36,4095.38,4092.31,4106.15,4097.44,4080,4067.69,4095.38,4050.26,4083.59,0
12_26_58,59,4127.69,4135.38,4111.28,4126.67,4105.64,4092.82,4091.28,4096.41,4088.72,4080.51,4059.49,4092.31,4063.08,4093.85,0
12_26_58,60,4145.64,4151.79,4116.41,4127.18,4109.74,4091.28,4089.74,4092.82,4092.31,4058.46,4064.62,4102.56,4068.72,4109.23,0
12_26_58,61,4152.82,4142.05,4118.97,4125.64,4102.56,4099.49,4093.85,4095.38,4100.51,4058.97,4070.26,4107.18,4056.92,4108.72,0
12_26_58,62,4150.26,4135.9,4120,4129.74,4108.21,4102.05,4095.38,4093.33,4093.33,4079.49,4060.51,4106.15,4056.41,4106.15,0
12_26_58,63,4153.33,4142.56,4122.05,4130.77,4109.23,4091.28,4090.77,4089.74,4086.67,4074.36,4062.56,4110.77,4065.13,4109.23,0
12_26_58,64,4154.87,4130.77,4123.59,4126.67,4099.49,4087.69,4088.21,4092.31,4092.82,4066.67,4068.72,4111.28,4067.18,4109.23,0
12_26_58,65,4146.67,4123.08,4123.59,4123.08,4096.41,4093.85,4089.74,4093.85,4095.38,4072.82,4066.15,4109.23,4060,4106.15,0
12_26_58,66,4140.51,4135.38,4123.59,4124.1,4102.56,4095.38,4091.28,4092.82,4094.87,4073.85,4070.77,4112.31,4055.9,4106.67,0
12_26_58,67,4139.49,4138.46,4122.56,4125.13,4102.56,4094.36,4090.26,4090.26,4097.44,4075.9,4073.85,4110.26,4059.49,4105.64,0
12_26_58,68,4140.51,4135.38,4122.56,4123.08,4100,4095.9,4089.23,4090.77,4096.41,4083.08,4061.54,4105.64,4068.21,4106.15,0
12_26_58,69,4139.49,4132.82,4123.08,4120.51,4106.15,4101.03,4094.36,4094.36,4089.74,4064.1,4060.51,4104.1,4068.72,4106.67,0
12_26_58,70,4137.95,4124.1,4121.54,4127.18,4107.18,4105.64,4099.49,4096.41,4089.74,4054.36,4078.46,4103.59,4060,4100.51,0
12_26_58,71,4136.41,4120.51,4122.56,4133.33,4103.59,4097.44,4095.38,4095.9,4101.54,4086.15,4073.85,4099.49,4062.05,4091.28,0
12_26_58,72,4135.38,4130.77,4121.54,4123.08,4111.79,4090.77,4089.23,4092.82,4102.56,4096.92,4054.87,4092.82,4075.38,4089.23,0
12_26_58,73,4136.41,4138.46,4118.46,4116.41,4120.51,4099.49,4093.85,4097.95,4097.44,4082.05,4062.05,4095.9,4082.05,4095.9,0
12_26_58,74,4137.44,4141.54,4121.54,4130.26,4115.38,4106.15,4105.13,4107.18,4099.49,4082.56,4081.03,4108.21,4080.51,4103.59,0
12_26_58,75,4136.41,4140.51,4125.64,4140.51,4106.67,4102.56,4108.21,4109.23,4101.03,4086.15,4084.1,4111.28,4077.44,4104.62,0
12_26_58,76,4135.9,4129.74,4123.08,4136.41,4105.64,4100.51,4101.54,4106.67,4102.56,4074.36,4084.1,4107.18,4071.28,4095.9,0
12_26_58,77,4138.46,4125.13,4121.03,4138.97,4111.28,4102.05,4096.92,4099.49,4102.05,4075.9,4084.1,4107.69,4069.74,4095.38,0
12_26_58,78,4140.51,4136.92,4124.62,4143.08,4108.72,4101.54,4097.44,4091.28,4097.44,4092.31,4076.41,4109.23,4077.95,4106.67,0
12_26_58,79,4132.82,4136.92,4117.95,4128.72,4096.92,4094.87,4093.85,4088.21,4090.26,4077.44,4077.95,4106.67,4071.79,4104.62,0
12_26_58,80,4120.51,4115.9,4107.69,4117.44,4086.67,4086.15,4088.21,4083.08,4078.46,4054.87,4080.51,4097.44,4052.31,4089.23,0
12_26_58,81,4118.97,4106.15,4109.23,4125.64,4090.77,4087.18,4088.21,4072.31,4070.26,4060.51,4067.18,4089.74,4048.72,4081.54,0
12_26_58,82,4123.59,4114.87,4113.85,4127.18,4103.08,4094.36,4089.74,4074.87,4077.95,4076.41,4058.46,4093.85,4061.54,4084.62,0
12_26_58,83,4124.62,4129.23,4115.38,4118.97,4104.1,4094.36,4090.26,4087.69,4091.28,4089.23,4071.28,4105.13,4069.74,4093.33,0
12_26_58,84,4124.1,4140,4121.03,4125.64,4095.9,4091.28,4092.31,4092.82,4089.23,4083.59,4083.59,4109.74,4060.51,4095.38,0
12_26_58,85,4123.59,4134.36,4123.59,4139.49,4101.03,4093.33,4095.38,4090.77,4085.64,4060.51,4078.97,4108.21,4048.21,4088.72,0
12_26_58,86,4125.13,4124.62,4120,4135.9,4113.33,4094.36,4095.38,4089.74,4088.21,4060.51,4076.41,4113.85,4055.38,4092.82,0
12_26_58,87,4127.18,4124.62,4122.05,4128.21,4101.03,4091.28,4093.33,4093.85,4087.69,4085.64,4086.15,4118.97,4076.41,4103.08,0
12_26_58,88,4128.72,4122.56,4125.13,4133.33,4079.49,4088.72,4092.31,4090.26,4082.05,4071.79,4091.79,4116.41,4080,4102.56,0
12_26_58,89,4132.31,4120,4123.08,4139.49,4093.33,4093.85,4090.77,4080.51,4080,4054.36,4083.08,4111.28,4071.79,4103.59,0
12_26_58,90,4139.49,4131.28,4123.08,4139.49,4115.9,4095.38,4092.31,4085.64,4091.79,4089.74,4081.03,4112.82,4079.49,4113.33,0
12_26_58,91,4135.38,4135.9,4118.46,4135.9,4103.08,4089.23,4095.9,4099.49,4095.9,4100.51,4090.26,4110.26,4079.49,4108.21,0
12_26_58,92,4118.46,4125.13,4108.21,4126.15,4088.21,4094.36,4092.82,4093.85,4084.62,4067.18,4085.13,4096.92,4066.15,4090.77,0
12_26_58,93,4113.33,4124.62,4109.74,4122.56,4100,4104.62,4091.79,4085.13,4084.1,4067.69,4075.38,4090.77,4077.44,4093.33,0
12_26_58,94,4125.13,4130.77,4118.97,4136.41,4110.26,4101.03,4101.03,4100,4101.03,4102.05,4087.18,4097.95,4096.92,4107.18,0
12_26_58,95,4125.64,4126.15,4117.95,4141.03,4107.18,4095.9,4104.62,4110.26,4106.67,4104.1,4097.95,4102.05,4092.31,4103.08,0
12_26_58,96,4108.72,4120.51,4106.15,4124.62,4100,4100,4099.49,4097.95,4091.79,4074.36,4083.59,4093.85,4080,4091.28,0
12_26_58,97,4106.15,4126.15,4101.03,4118.46,4093.85,4101.54,4096.41,4086.15,4080,4059.49,4072.31,4086.15,4076.41,4089.74,0
12_26_58,98,4109.23,4114.36,4105.13,4124.1,4094.87,4097.44,4095.9,4090.77,4085.64,4071.79,4077.95,4091.28,4071.28,4085.13,0
12_26_58,99,4098.46,4089.74,4109.74,4121.03,4096.41,4092.82,4095.9,4095.9,4088.21,4077.95,4076.41,4096.92,4067.69,4076.92,0
12_26_58,100,4092.31,4092.31,4106.15,4116.92,4086.67,4088.21,4095.38,4091.79,4079.49,4063.08,4067.69,4089.23,4065.13,4076.41,0
12_26_58,101,4093.33,4113.85,4100,4121.03,4088.72,4090.77,4093.85,4091.79,4079.49,4060.51,4067.69,4080,4058.46,4070.77,0
12_26_58,102,4089.23,4122.56,4102.05,4124.62,4105.64,4097.95,4096.41,4095.38,4090.77,4084.62,4074.36,4087.18,4058.46,4062.56,0
12_26_58,103,4082.56,4122.05,4100,4123.59,4112.31,4099.49,4100,4102.05,4098.46,4101.03,4077.95,4095.9,4061.54,4061.54,0
12_26_58,104,4078.97,4126.15,4089.74,4123.59,4106.67,4097.44,4099.49,4105.64,4100,4096.41,4073.85,4090.26,4055.9,4057.95,0
12_26_58,105,4068.21,4124.1,4089.23,4121.03,4102.56,4095.9,4097.44,4098.97,4093.33,4079.49,4062.56,4080,4039.49,4041.54,0
12_26_58,106,4060,4122.05,4092.82,4118.46,4104.62,4095.9,4094.36,4090.26,4082.05,4060,4055.9,4076.41,4023.08,4023.08,0
12_26_58,107,4057.95,4125.64,4086.15,4121.03,4097.44,4099.49,4092.82,4089.23,4075.9,4057.95,4058.46,4076.41,4016.92,4015.9,0
12_26_58,108,4054.36,4120,4082.05,4120,4088.21,4103.08,4096.41,4090.77,4077.44,4073.33,4057.44,4073.33,4016.92,4019.49,0
12_26_58,109,4050.77,4108.21,4086.67,4111.28,4095.9,4095.9,4093.85,4089.23,4081.54,4076.92,4053.33,4068.72,4016.41,4019.49,0
12_26_58,110,4049.74,4102.56,4086.67,4104.62,4101.03,4085.64,4087.69,4089.23,4082.05,4069.74,4055.9,4068.21,4015.9,4017.44,0
12_26_58,111,4053.33,4113.33,4086.67,4110.77,4097.44,4094.36,4090.26,4087.69,4081.03,4077.44,4061.54,4072.82,4018.97,4026.15,0
12_26_58,112,4058.97,4123.08,4091.28,4117.44,4102.56,4104.62,4095.9,4094.36,4089.23,4080.51,4062.56,4075.9,4027.18,4037.44,0
12_26_58,113,4060.51,4116.41,4089.74,4114.87,4112.31,4103.08,4095.38,4107.69,4096.92,4072.82,4060,4073.85,4026.15,4037.95,0
12_26_58,114,4053.85,4103.08,4080.51,4110.26,4105.13,4100.51,4097.95,4110.26,4090.26,4078.46,4057.44,4066.15,4011.28,4033.85,0
12_26_58,115,4046.15,4102.05,4076.92,4109.23,4092.82,4100,4105.13,4111.79,4088.21,4086.67,4060,4062.05,4004.62,4031.79,0
12_26_58,116,4047.69,4109.23,4078.46,4110.77,4100,4104.1,4108.21,4121.54,4093.33,4077.95,4061.54,4065.13,4012.31,4033.33,0
12_26_58,117,4050.26,4104.62,4075.38,4111.28,4107.18,4108.72,4108.72,4120,4086.67,4071.79,4055.38,4061.54,4010.77,4030.26,0
12_26_58,118,4045.13,4096.92,4072.82,4107.18,4097.95,4101.03,4105.13,4108.21,4076.92,4070.26,4044.1,4054.87,4002.56,4022.56,0
12_26_58,119,4040.51,4100.51,4074.87,4103.08,4091.79,4091.28,4098.97,4108.72,4077.95,4062.05,4042.05,4056.92,4004.1,4023.08,0
12_26_58,120,4045.13,4106.67,4076.92,4105.13,4098.97,4098.46,4100.51,4113.33,4083.59,4063.59,4050.77,4065.13,4007.69,4031.79,0
12_26_58,121,4050.26,4108.21,4078.97,4109.74,4102.56,4109.23,4107.69,4111.28,4087.69,4076.41,4056.92,4071.28,4012.82,4037.44,0
12_26_58,122,4050.77,4105.64,4081.03,4108.21,4101.03,4107.18,4109.74,4111.79,4090.26,4077.44,4054.36,4073.85,4018.97,4037.95,0
12_26_58,123,4049.74,4104.1,4077.44,4105.13,4098.97,4101.03,4103.08,4111.79,4085.13,4071.79,4049.74,4072.31,4015.38,4037.44,0
12_26_58,124,4053.33,4111.79,4076.41,4111.79,4098.46,4100,4095.38,4105.13,4080,4077.44,4056.92,4070.77,4014.36,4038.97,0
12_26_58,125,4060.51,4120,4086.67,4120,4100,4103.59,4099.49,4105.13,4086.15,4083.08,4068.21,4076.92,4027.69,4046.15,0
12_26_58,126,4063.08,4112.31,4090.26,4118.97,4094.87,4103.59,4109.23,4112.82,4093.85,4083.59,4072.82,4087.18,4032.31,4047.18,0
12_26_58,127,4059.49,4102.05,4080,4112.82,4094.87,4100,4105.64,4113.85,4090.26,4092.31,4070.77,4086.67,4025.13,4044.1,0
12_26_58,128,4058.46,4102.56,4073.85,4110.26,4105.64,4097.44,4096.41,4107.69,4080,4083.59,4064.62,4076.92,4023.08,4047.18,0
12_26_58,0,4060,4105.13,4076.41,4110.77,4104.62,4095.38,4096.41,4104.1,4073.85,4065.64,4055.9,4074.36,4016.41,4049.74,0
12_26_58,1,4061.03,4107.18,4078.46,4109.74,4090.77,4092.82,4098.46,4106.15,4074.87,4079.49,4062.05,4084.1,4020.51,4055.38,0
12_26_58,2,4058.97,4103.08,4077.95,4107.18,4088.72,4094.36,4097.44,4104.1,4080,4101.03,4084.1,4092.31,4044.62,4064.62,0
12_26_58,3,4051.79,4096.92,4073.85,4103.08,4098.97,4094.87,4092.82,4093.33,4076.41,4088.21,4084.1,4089.23,4048.21,4062.56,0
12_26_58,4,4052.31,4102.05,4071.79,4104.1,4102.05,4094.36,4088.72,4086.67,4070.77,4076.92,4070.77,4087.18,4030.77,4061.54,0
12_26_58,5,4067.18,4112.31,4081.54,4113.33,4095.38,4097.95,4094.36,4094.36,4080,4097.44,4077.95,4097.44,4037.44,4073.33,0
12_26_58,6,4076.92,4111.28,4090.77,4120,4095.9,4104.62,4100,4108.21,4090.77,4110.77,4094.36,4107.18,4056.92,4081.54,0
12_26_58,7,4074.87,4108.21,4090.26,4121.03,4115.9,4107.18,4096.41,4112.82,4094.36,4102.56,4099.49,4109.23,4051.79,4080,0
12_26_58,8,4074.36,4112.31,4089.23,4117.44,4125.13,4107.18,4095.9,4107.69,4093.85,4100,4094.36,4108.21,4042.56,4076.92,0
12_26_58,9,4071.79,4111.28,4085.64,4113.33,4114.36,4105.13,4100,4101.03,4084.62,4106.15,4081.54,4101.54,4042.05,4068.72,0
12_26_58,10,4058.46,4102.05,4074.87,4105.64,4105.64,4099.49,4094.36,4095.38,4069.23,4092.82,4066.67,4087.69,4038.46,4060,0
12_26_58,11,4054.87,4100,4071.28,4106.15,4094.87,4095.38,4090.26,4094.36,4070.77,4078.46,4073.33,4086.15,4034.87,4059.49,0
12_26_58,12,4064.1,4105.64,4076.92,4116.92,4090.77,4094.87,4093.33,4092.31,4080,4083.59,4090.77,4093.85,4038.97,4062.56,0
12_26_58,13,4065.64,4103.59,4074.87,4113.85,4109.23,4093.33,4088.21,4089.23,4069.74,4084.62,4084.62,4090.26,4045.64,4064.1,0
12_26_58,14,4059.49,4098.46,4072.31,4104.1,4110.26,4089.74,4084.62,4088.21,4060.51,4080.51,4077.44,4084.1,4047.69,4064.62,0
12_26_58,15,4061.54,4103.59,4076.92,4108.21,4088.21,4090.26,4089.23,4088.21,4069.23,4088.72,4088.72,4090.26,4049.23,4062.56,0
12_26_58,16,4066.15,4107.18,4075.38,4112.82,4094.87,4092.82,4091.79,4088.21,4072.31,4094.36,4087.69,4093.33,4047.18,4062.56,0
12_26_58,17,4065.13,4104.62,4069.74,4108.21,4109.74,4093.33,4093.85,4088.72,4063.59,4080,4078.97,4087.18,4046.67,4069.74,0
12_26_58,18,4070.26,4103.59,4073.85,4114.87,4100,4095.38,4097.44,4095.9,4068.21,4080,4089.74,4094.36,4056.41,4080,0
12_26_58,19,4078.46,4104.1,4081.03,4122.56,4097.95,4098.97,4095.9,4103.59,4083.59,4106.67,4101.03,4105.64,4065.64,4081.03,0
12_26_58,20,4078.46,4109.74,4078.97,4114.87,4110.26,4097.95,4092.82,4098.97,4080.51,4114.36,4094.87,4098.97,4063.59,4074.87,0
12_26_58,21,4081.54,4119.49,4076.92,4111.28,4109.74,4092.82,4091.28,4084.62,4064.1,4092.82,4090.77,4092.31,4059.49,4075.38,0
12_26_58,22,4089.23,4119.49,4080,4115.9,4100,4090.77,4088.21,4080,4058.46,4087.69,4092.31,4094.36,4063.08,4081.54,0
12_26_58,23,4087.18,4114.87,4080,4114.36,4091.79,4091.28,4087.18,4089.74,4063.59,4095.38,4094.36,4093.85,4067.18,4082.56,0
12_26_58,24,4077.95,4118.46,4077.44,4109.23,4096.41,4094.36,4084.62,4090.77,4060,4085.64,4095.38,4091.28,4063.08,4076.92,0
12_26_59,25,4076.41,4117.95,4075.38,4107.69,4105.13,4095.38,4081.54,4081.54,4053.33,4083.08,4089.23,4091.79,4056.92,4075.38,0
12_26_59,26,4077.44,4107.18,4073.85,4107.69,4099.49,4092.82,4087.18,4084.1,4057.95,4093.33,4088.21,4091.28,4057.44,4078.97,0
12_26_59,27,4075.9,4103.59,4076.41,4109.74,4088.21,4089.74,4092.82,4093.85,4064.1,4090.77,4090.26,4090.26,4061.03,4080,0
12_26_59,28,4075.38,4104.1,4076.92,4111.28,4083.08,4086.67,4087.18,4094.36,4065.13,4085.13,4090.77,4090.77,4056.41,4077.95,0
12_26_59,29,4073.85,4096.41,4068.72,4105.64,4082.05,4085.13,4081.03,4094.36,4068.21,4092.82,4093.85,4090.77,4047.69,4073.85,0
12_26_59,30,4072.31,4089.74,4063.08,4097.44,4086.67,4085.64,4085.13,4095.38,4066.15,4093.33,4089.23,4086.15,4053.33,4071.28,0
12_26_59,31,4073.33,4090.26,4067.69,4095.9,4090.77,4087.18,4089.74,4087.69,4057.44,4085.64,4080.51,4081.03,4066.15,4072.82,0
12_26_59,32,4076.41,4093.85,4072.82,4103.59,4091.28,4088.21,4089.23,4089.23,4066.67,4092.82,4085.13,4087.69,4074.87,4076.41,0
12_26_59,33,4076.41,4094.87,4073.85,4105.13,4095.38,4090.77,4090.26,4103.59,4082.56,4102.05,4093.33,4093.85,4082.56,4078.46,0
12_26_59,34,4077.44,4094.36,4074.36,4103.08,4097.95,4093.85,4096.92,4108.72,4081.54,4092.82,4091.28,4090.26,4090.77,4080,0
12_26_59,35,4083.08,4093.85,4076.92,4109.23,4093.33,4097.95,4099.49,4108.21,4083.59,4088.21,4091.79,4093.85,4101.03,4081.54,0
12_26_59,36,4082.56,4091.28,4075.9,4109.74,4091.28,4098.46,4094.36,4106.15,4090.77,4098.46,4093.33,4097.44,4107.69,4080,0
12_26_59,37,4077.95,4091.79,4075.38,4104.1,4092.82,4094.36,4092.82,4100.51,4087.18,4096.92,4087.69,4094.87,4107.69,4080.51,0
12_26_59,38,4083.08,4094.36,4083.59,4112.31,4093.33,4094.87,4099.49,4100,4083.08,4091.28,4088.72,4101.03,4110.26,4082.56,0
12_26_59,39,4090.77,4094.87,4092.31,4121.03,4092.82,4098.46,4101.54,4100,4087.69,4095.9,4096.41,4109.74,4111.28,4085.13,0
12_26_59,40,4090.77,4094.36,4091.28,4117.95,4093.85,4096.41,4094.36,4091.79,4085.13,4090.26,4093.33,4105.64,4104.62,4088.21,0
12_26_59,41,4090.77,4097.95,4089.23,4119.49,4095.38,4094.36,4097.44,4091.79,4085.64,4081.03,4092.82,4102.56,4110.26,4090.26,0
12_26_59,42,4093.85,4099.49,4093.85,4121.03,4094.36,4096.92,4104.62,4104.1,4100.51,4095.38,4103.59,4108.21,4122.56,4094.36,0
12_26_59,43,4092.82,4095.9,4095.38,4111.28,4095.9,4101.03,4101.03,4105.64,4106.67,4108.21,4104.1,4110.26,4116.41,4095.9,0
12_26_59,44,4089.23,4094.36,4088.72,4105.13,4096.92,4100.51,4095.9,4100,4096.92,4093.33,4090.77,4100,4104.1,4087.69,0
12_26_59,45,4088.21,4092.31,4086.15,4108.21,4093.33,4098.46,4098.46,4103.59,4091.79,4087.18,4087.69,4095.38,4106.15,4082.05,0
12_26_59,46,4090.26,4087.69,4093.33,4109.74,4090.77,4096.92,4097.44,4109.74,4095.38,4093.85,4095.9,4102.56,4109.23,4087.18,0
12_26_59,47,4091.79,4089.23,4096.41,4109.74,4091.28,4093.85,4092.82,4101.03,4094.36,4092.31,4096.41,4101.54,4105.64,4091.28,0
12_26_59,48,4092.31,4091.28,4090.77,4108.72,4090.77,4091.79,4091.79,4086.67,4087.18,4092.31,4089.74,4093.85,4102.56,4088.72,0
12_26_59,49,4095.9,4092.31,4096.41,4109.74,4090.77,4093.33,4091.79,4094.87,4089.74,4098.97,4089.74,4101.03,4104.1,4088.72,0
12_26_59,50,4100,4095.9,4104.1,4115.38,4090.77,4093.33,4093.33,4106.67,4098.97,4106.15,4099.49,4111.28,4110.77,4094.36,0
12_26_59,51,4094.87,4090.26,4094.87,4110.77,4089.74,4090.26,4093.33,4096.41,4093.85,4107.18,4103.59,4105.13,4104.62,4091.79,0
12_26_59,52,4084.1,4082.05,4086.67,4102.05,4082.05,4089.23,4089.74,4087.69,4081.54,4089.74,4095.38,4097.44,4094.36,4081.03,0
12_26_59,53,4080.51,4086.15,4090.26,4104.62,4072.82,4088.72,4090.26,4097.95,4088.21,4078.97,4091.28,4097.95,4101.03,4075.38,0
12_26_59,54,4084.1,4088.21,4090.77,4109.74,4081.03,4089.23,4092.31,4099.49,4103.08,4103.08,4095.9,4095.9,4108.21,4080,0
12_26_59,55,4082.05,4080,4085.13,4102.56,4092.31,4089.74,4091.28,4085.13,4090.77,4106.15,4092.31,4089.74,4094.87,4074.36,0
12_26_59,56,4076.41,4077.95,4080.51,4095.9,4090.77,4090.26,4089.23,4084.62,4075.9,4085.13,4086.67,4088.21,4083.08,4064.1,0
12_26_59,57,4073.33,4076.41,4077.95,4099.49,4087.18,4090.77,4091.28,4090.26,4084.1,4084.1,4089.23,4089.23,4084.62,4067.18,0
12_26_59,58,4074.87,4074.87,4082.56,4105.64,4085.13,4091.28,4089.74,4085.64,4091.28,4084.1,4091.28,4085.64,4090.26,4074.87,0
12_26_59,59,4084.62,4090.26,4090.77,4109.74,4090.77,4092.82,4090.26,4085.13,4089.74,4085.64,4092.82,4091.79,4098.97,4080.51,0
12_26_59,60,4095.9,4105.64,4095.38,4112.31,4105.13,4097.95,4100.51,4093.33,4093.85,4108.72,4096.41,4104.62,4105.64,4085.64,0
12_26_59,61,4093.85,4097.95,4092.31,4109.23,4103.59,4100.51,4104.62,4094.36,4094.36,4108.21,4094.36,4100,4099.49,4083.08,0
12_26_59,62,4081.54,4083.59,4082.56,4104.62,4087.18,4092.31,4094.36,4089.23,4085.13,4074.87,4090.26,4085.64,4086.15,4073.33,0
12_26_59,63,4081.03,4084.62,4082.56,4104.62,4089.74,4088.72,4088.21,4089.74,4085.64,4074.36,4092.31,4085.13,4082.05,4076.92,0
12_26_59,64,4090.26,4093.85,4090.77,4108.72,4100,4100.51,4093.85,4090.26,4091.79,4102.05,4092.82,4094.87,4092.31,4085.64,0
12_26_59,65,4094.36,4101.54,4094.36,4112.31,4094.87,4106.15,4096.92,4091.28,4095.9,4111.79,4097.44,4103.59,4100.51,4088.21,0
12_26_59,66,4092.82,4102.56,4091.79,4111.79,4091.79,4095.38,4093.33,4094.87,4097.44,4109.74,4101.03,4103.08,4099.49,4090.26,0
12_26_59,67,4090.26,4094.36,4090.26,4105.64,4095.38,4086.15,4089.74,4092.82,4091.79,4100.51,4096.41,4092.31,4096.92,4083.08,0
12_26_59,68,4087.69,4089.74,4090.77,4102.05,4097.44,4091.28,4089.74,4092.31,4091.28,4091.28,4100.51,4092.31,4096.41,4077.95,0
12_26_59,69,4085.64,4093.33,4088.72,4103.59,4093.33,4094.87,4091.79,4094.36,4095.9,4097.44,4106.67,4098.46,4097.44,4083.59,0
12_26_59,70,4087.18,4096.92,4084.1,4103.59,4085.64,4083.08,4089.74,4093.85,4092.31,4111.79,4093.33,4093.85,4100,4085.64,0
12_26_59,71,4085.64,4094.36,4082.05,4099.49,4084.1,4073.33,4087.18,4090.26,4083.59,4103.59,4082.56,4088.21,4099.49,4081.03,0
12_26_59,72,4078.97,4090.77,4082.05,4093.85,4085.13,4079.49,4090.26,4089.74,4086.15,4087.18,4089.74,4091.28,4095.9,4079.49,0
12_26_59,73,4078.46,4092.31,4080.51,4095.9,4085.64,4086.67,4089.74,4093.85,4091.79,4089.23,4091.79,4092.31,4096.92,4080,0
12_26_59,74,4086.15,4100,4082.05,4103.59,4085.64,4081.54,4084.62,4088.72,4086.67,4092.31,4090.77,4092.82,4104.1,4083.08,0
12_26_59,75,4088.72,4103.08,4084.62,4105.13,4085.13,4081.03,4083.08,4080,4079.49,4089.74,4094.87,4094.36,4105.64,4089.23,0
12_26_59,76,4088.21,4100.51,4083.59,4104.1,4087.69,4087.18,4084.62,4083.59,4083.08,4089.74,4100.51,4091.79,4105.13,4090.77,0
12_26_59,77,4097.44,4110.77,4085.64,4108.21,4094.36,4085.13,4086.15,4090.26,4090.77,4096.41,4106.15,4096.41,4113.33,4097.95,0
12_26_59,78,4111.79,4121.03,4090.77,4111.28,4089.23,4081.03,4088.72,4091.79,4092.82,4108.72,4107.69,4106.15,4121.54,4112.82,0
12_26_59,79,4122.56,4123.08,4089.74,4110.26,4080,4082.56,4089.23,4092.31,4090.77,4112.82,4105.64,4106.67,4125.13,4125.64,0
12_26_59,80,4143.59,4136.92,4093.33,4119.49,4093.33,4087.69,4089.74,4088.72,4089.23,4103.08,4114.36,4110.26,4133.85,4146.15,0
12_26_59,81,4172.82,4160.51,4108.21,4138.46,4108.21,4092.82,4093.85,4085.64,4090.26,4103.08,4129.74,4124.62,4143.59,4172.31,0
12_26_59,82,4187.18,4168.72,4115.38,4140.51,4096.41,4090.26,4092.31,4088.72,4092.31,4111.28,4129.74,4130.77,4143.59,4186.15,0
12_26_59,83,4189.74,4168.21,4107.18,4128.21,4083.59,4084.1,4087.18,4083.59,4086.15,4095.9,4123.59,4124.1,4140.51,4194.87,0
12_26_59,84,4197.44,4169.23,4105.64,4129.74,4082.56,4082.56,4088.21,4074.36,4075.9,4076.41,4126.15,4121.54,4138.46,4203.08,0
12_26_59,85,4207.18,4169.23,4118.97,4144.1,4088.21,4085.13,4090.77,4082.05,4078.97,4092.82,4128.72,4129.74,4141.54,4206.15,0
12_26_59,86,4207.18,4170.77,4123.08,4137.95,4101.54,4086.15,4090.77,4089.74,4085.64,4114.87,4122.56,4132.31,4149.74,4207.18,0
12_26_59,87,4197.44,4167.18,4110.77,4120,4103.59,4080.51,4083.59,4080.51,4075.38,4100.51,4114.36,4123.08,4140.51,4197.44,0
12_26_59,88,4187.69,4157.95,4106.15,4126.15,4092.31,4078.46,4081.03,4071.79,4067.18,4081.03,4108.72,4117.44,4119.49,4178.46,0
12_26_59,89,4180.51,4153.85,4111.79,4138.46,4088.21,4082.05,4088.21,4076.92,4075.9,4089.23,4107.18,4122.56,4113.33,4167.18,0
12_26_59,90,4169.23,4146.15,4112.31,4128.72,4080.51,4082.05,4088.21,4081.54,4080,4098.97,4107.18,4124.1,4118.46,4162.56,0
12_26_59,91,4156.92,4137.95,4108.21,4120,4078.46,4083.59,4083.59,4077.44,4074.87,4084.62,4105.64,4117.44,4115.38,4153.85,0
12_26_59,92,4149.74,4140,4108.72,4128.21,4100.51,4092.31,4084.62,4074.36,4075.38,4077.95,4109.23,4110.26,4109.23,4140.51,0
12_26_59,93,4137.44,4133.33,4109.23,4124.1,4109.74,4093.85,4085.64,4078.97,4076.41,4095.9,4103.08,4106.67,4103.08,4127.18,0
12_26_59,94,4118.46,4116.41,4104.1,4108.21,4089.74,4085.13,4081.03,4083.59,4070.77,4101.54,4085.64,4103.59,4093.33,4116.41,0
12_26_59,95,4105.13,4110.26,4095.38,4107.18,4081.03,4078.97,4076.41,4076.92,4066.15,4083.08,4080.51,4096.41,4091.28,4107.18,0
12_26_59,96,4096.41,4107.18,4088.72,4108.21,4087.18,4078.97,4072.82,4067.18,4063.08,4072.82,4088.72,4088.21,4089.23,4100.51,0
12_26_59,97,4092.82,4102.56,4090.77,4103.08,4087.18,4086.15,4077.44,4077.44,4072.31,4085.64,4097.95,4095.9,4076.92,4103.08,0
12_26_59,98,4095.38,4106.67,4096.92,4105.64,4091.79,4093.85,4088.72,4095.9,4089.74,4099.49,4102.05,4106.67,4077.95,4103.59,0
12_26_59,99,4090.26,4102.05,4092.31,4105.13,4097.95,4091.79,4089.74,4090.26,4086.67,4096.41,4095.38,4098.97,4094.87,4091.28,0
12_26_59,100,4079.49,4091.79,4084.62,4095.9,4091.79,4088.72,4087.69,4075.9,4073.85,4091.28,4087.18,4088.21,4092.31,4080,0
12_26_59,101,4078.46,4093.33,4090.26,4096.92,4092.82,4090.77,4090.26,4084.1,4081.54,4106.67,4093.33,4092.31,4078.97,4081.03,0
12_26_59,102,4080.51,4095.9,4091.79,4104.62,4103.59,4093.85,4091.28,4094.36,4090.77,4108.21,4091.79,4095.38,4083.08,4082.56,0
12_26_59,103,4079.49,4094.36,4084.1,4104.62,4102.05,4093.85,4089.74,4091.28,4084.62,4087.18,4086.15,4087.18,4090.26,4078.97,0
12_26_59,104,4084.1,4100.51,4087.69,4106.15,4098.46,4091.79,4089.74,4091.79,4086.15,4096.92,4102.56,4089.74,4089.74,4077.95,0
12_26_59,105,4082.05,4099.49,4088.72,4109.74,4105.64,4094.36,4089.23,4093.33,4091.79,4117.95,4104.62,4090.77,4087.18,4077.44,0
12_26_59,106,4073.33,4093.85,4078.97,4108.21,4110.77,4095.38,4088.21,4089.23,4087.69,4106.67,4087.69,4083.08,4082.05,4074.87,0
12_26_59,107,4076.92,4101.54,4080,4108.72,4109.23,4091.79,4091.28,4093.33,4089.23,4099.49,4094.87,4088.72,4083.08,4078.46,0
12_26_59,108,4074.36,4096.92,4080.51,4104.1,4101.03,4091.28,4092.82,4096.41,4094.36,4105.13,4108.21,4097.95,4082.05,4079.49,0
12_26_59,109,4057.95,4074.36,4069.74,4092.31,4081.54,4090.26,4089.74,4087.69,4084.62,4096.92,4093.85,4090.77,4069.74,4069.23,0
12_26_59,110,4055.9,4071.79,4067.18,4089.23,4077.95,4087.69,4089.23,4085.13,4081.54,4096.92,4082.56,4086.67,4064.1,4064.1,0
12_26_59,111,4064.1,4082.56,4074.36,4091.79,4091.79,4091.28,4091.28,4096.92,4095.38,4114.36,4094.36,4100.51,4071.28,4071.28,0
12_26_59,112,4062.56,4079.49,4077.95,4090.26,4091.28,4096.41,4092.31,4102.56,4101.03,4114.87,4100.51,4108.21,4073.85,4074.87,0
12_26_59,113,4057.44,4072.82,4075.9,4089.74,4085.64,4094.87,4093.85,4093.33,4091.79,4101.03,4095.9,4106.67,4066.67,4073.33,0
12_26_59,114,4062.05,4076.92,4075.9,4091.28,4093.33,4093.85,4094.36,4091.28,4088.72,4099.49,4093.33,4106.67,4063.59,4073.33,0
12_26_59,115,4073.85,4084.62,4087.18,4092.82,4098.46,4094.36,4094.87,4105.13,4098.46,4109.74,4095.38,4109.23,4068.72,4076.92,0
12_26_59,116,4074.87,4083.59,4094.87,4091.28,4091.79,4092.82,4093.33,4105.64,4095.9,4109.74,4096.92,4108.72,4065.13,4076.41,0
12_26_59,117,4064.1,4075.38,4084.62,4088.21,4088.72,4089.23,4090.26,4096.41,4084.62,4098.97,4091.28,4098.97,4053.33,4065.64,0
12_26_59,118,4057.44,4072.82,4075.38,4087.69,4091.79,4089.23,4089.74,4098.97,4084.1,4090.26,4086.67,4089.23,4050.77,4058.97,0
12_26_59,119,4065.64,4076.41,4081.03,4089.74,4090.26,4091.28,4091.28,4102.56,4089.74,4093.33,4094.36,4095.38,4058.46,4068.72,0
12_26_59,120,4075.9,4079.49,4084.1,4093.85,4085.13,4090.77,4091.79,4102.05,4089.74,4103.59,4104.1,4106.15,4065.13,4081.03,0
12_26_59,121,4078.97,4082.05,4084.1,4096.92,4087.69,4090.77,4092.31,4106.15,4089.23,4108.72,4106.67,4108.21,4070.26,4081.03,0
12_26_59,122,4074.87,4081.03,4088.21,4097.44,4097.44,4091.79,4094.36,4108.21,4092.82,4105.64,4106.15,4112.82,4071.28,4076.41,0
12_26_59,123,4073.33,4076.92,4090.77,4097.44,4104.62,4092.31,4096.92,4109.23,4099.49,4110.77,4108.21,4117.95,4069.23,4078.46,0
12_26_59,124,4076.41,4075.9,4088.72,4097.95,4100.51,4090.77,4095.38,4107.18,4096.41,4109.74,4103.08,4112.31,4066.67,4078.97,0
12_26_59,125,4073.33,4076.92,4087.18,4094.87,4091.79,4090.77,4090.77,4096.92,4082.05,4094.87,4090.77,4104.62,4063.59,4075.9,0
12_26_59,126,4068.21,4077.95,4087.18,4095.38,4091.28,4090.77,4090.77,4093.33,4080.51,4095.9,4095.38,4106.67,4063.59,4074.36,0
12_26_59,127,4065.64,4073.85,4084.1,4096.41,4093.33,4091.28,4095.9,4103.59,4091.79,4107.18,4104.1,4107.69,4063.59,4072.82,0
12_26_59,128,4064.62,4065.13,4085.13,4096.92,4087.69,4091.28,4097.95,4106.67,4092.82,4104.62,4100.51,4106.15,4064.1,4074.87,0
12_26_59,0,4070.77,4071.28,4092.31,4103.59,4092.31,4095.38,4095.9,4105.13,4090.26,4102.56,4105.64,4111.28,4071.28,4086.67,0
12_26_59,1,4077.95,4083.59,4092.31,4104.1,4109.23,4102.56,4095.9,4107.69,4094.87,4111.28,4113.85,4111.28,4071.79,4089.74,0
12_26_59,2,4075.9,4078.46,4085.64,4092.82,4108.21,4095.9,4094.36,4107.69,4092.82,4113.33,4100,4105.13,4063.08,4076.92,0
12_26_59,3,4071.79,4069.74,4086.15,4087.18,4087.18,4082.56,4090.26,4104.1,4081.03,4106.67,4091.28,4105.13,4064.62,4072.31,0
12_26_59,4,4074.36,4076.41,4091.79,4091.79,4080.51,4084.62,4090.77,4104.62,4083.08,4104.1,4104.62,4111.79,4075.9,4079.49,0
12_26_59,5,4075.38,4075.38,4090.26,4094.87,4092.82,4092.82,4093.33,4107.69,4091.79,4109.23,4106.15,4111.28,4075.9,4078.97,0
12_26_59,6,4067.69,4062.05,4083.08,4090.26,4094.87,4088.72,4091.28,4105.13,4089.23,4107.69,4092.31,4103.08,4066.15,4073.33,0
12_26_59,7,4065.64,4062.05,4082.05,4088.72,4089.23,4086.67,4090.77,4103.08,4088.21,4094.36,4091.28,4102.56,4067.69,4076.41,0
12_26_59,8,4069.74,4067.18,4083.08,4089.23,4089.74,4092.82,4093.85,4098.97,4088.72,4092.82,4097.95,4107.18,4072.31,4078.46,0
12_26_59,9,4072.31,4063.08,4083.08,4087.18,4090.26,4092.82,4090.77,4095.38,4083.59,4105.64,4098.46,4105.13,4071.28,4073.33,0
12_26_59,10,4076.41,4068.72,4088.21,4089.74,4096.41,4091.28,4089.23,4102.05,4093.33,4118.46,4101.03,4111.28,4084.62,4078.97,0
12_26_59,11,4078.97,4077.44,4089.74,4093.85,4102.56,4091.28,4093.33,4109.74,4110.26,4115.38,4103.59,4121.03,4108.72,4088.72,0
12_26_59,12,4074.36,4069.74,4083.59,4090.77,4092.82,4087.69,4092.31,4106.67,4105.64,4102.05,4100.51,4113.33,4112.31,4082.56,0
12_26_59,13,4073.33,4063.59,4085.64,4087.69,4091.79,4087.18,4088.21,4102.56,4101.54,4101.54,4102.56,4103.59,4105.64,4076.41,0
12_26_59,14,4080.51,4072.82,4094.36,4091.79,4107.18,4093.85,4092.31,4106.67,4110.77,4112.31,4111.28,4109.23,4116.92,4083.08,0
12_26_59,15,4078.97,4076.41,4087.18,4090.77,4102.05,4094.87,4093.85,4108.21,4111.28,4113.33,4108.72,4108.72,4126.15,4083.59,0
12_27_0,16,4071.79,4071.28,4080,4088.21,4088.72,4091.79,4090.26,4104.1,4108.21,4108.21,4100.51,4101.54,4122.05,4080.51,0
12_27_0,17,4081.54,4077.95,4087.18,4092.82,4102.05,4095.9,4095.38,4105.13,4110.77,4110.77,4102.56,4106.67,4124.62,4089.23,0
12_27_0,18,4086.15,4076.92,4090.26,4093.33,4104.1,4097.95,4103.08,4107.69,4107.18,4107.18,4098.97,4108.72,4125.64,4086.67,0
12_27_0,19,4077.44,4066.67,4086.67,4091.79,4089.74,4093.85,4104.1,4108.72,4105.13,4106.15,4094.36,4104.1,4121.03,4075.9,0
12_27_0,20,4081.54,4070.77,4090.77,4092.31,4096.92,4097.44,4104.1,4106.15,4106.15,4106.67,4100,4104.62,4122.05,4077.95,0
12_27_0,21,4088.72,4078.46,4093.33,4091.79,4109.23,4104.62,4105.64,4105.13,4104.62,4100,4106.15,4105.13,4121.03,4081.03,0
12_27_0,22,4088.72,4079.49,4093.85,4093.33,4108.21,4101.03,4107.18,4110.77,4114.87,4109.74,4110.26,4109.23,4118.97,4082.05,0
12_27_0,23,4087.69,4078.46,4098.97,4090.77,4103.59,4092.31,4102.56,4109.23,4120.51,4125.64,4106.67,4113.33,4120.51,4087.69,0
12_27_0,24,4078.46,4068.72,4095.9,4079.49,4096.92,4090.26,4094.87,4093.33,4103.08,4115.9,4094.87,4103.08,4116.92,4083.59,0
12_27_0,25,4066.67,4054.36,4089.23,4074.87,4090.26,4091.79,4093.33,4087.69,4096.41,4102.56,4088.21,4094.87,4106.67,4071.79,0
12_27_0,26,4072.31,4063.08,4092.31,4083.08,4091.79,4090.26,4096.41,4095.9,4109.23,4107.18,4093.85,4106.15,4107.69,4078.97,0
12_27_0,27,4082.05,4076.92,4093.85,4084.62,4092.31,4084.62,4092.31,4091.28,4104.1,4100,4092.82,4107.69,4110.26,4086.15,0
12_27_0,28,4080,4070.77,4091.28,4076.41,4082.56,4076.92,4086.67,4082.05,4085.13,4077.95,4083.08,4094.87,4098.46,4075.9,0
12_27_0,29,4077.44,4062.05,4093.33,4078.46,4072.31,4078.46,4089.74,4089.23,4088.72,4076.41,4084.1,4100,4093.33,4077.44,0
12_27_0,30,4075.38,4062.05,4095.9,4088.21,4075.9,4086.15,4091.28,4095.9,4105.13,4098.46,4092.31,4110.26,4103.08,4088.72,0
12_27_0,31,4077.95,4066.15,4098.46,4091.28,4094.87,4092.82,4088.72,4089.23,4107.69,4111.79,4092.31,4105.13,4105.64,4088.72,0
12_27_0,32,4089.74,4075.9,4103.59,4091.28,4107.69,4101.54,4090.77,4090.77,4102.05,4097.44,4092.31,4108.72,4106.67,4087.69,0
12_27_0,33,4096.41,4084.62,4110.26,4095.38,4104.1,4105.13,4096.41,4109.23,4114.36,4093.85,4106.67,4123.59,4115.9,4095.9,0
12_27_0,34,4089.23,4077.44,4107.69,4092.82,4097.44,4097.44,4095.38,4115.9,4126.15,4119.49,4113.33,4121.54,4118.97,4093.85,0
12_27_0,35,4077.44,4064.1,4097.44,4084.1,4091.79,4091.28,4090.26,4102.56,4109.74,4126.15,4096.41,4106.15,4108.21,4083.59,0
12_27_0,36,4075.9,4065.64,4092.31,4083.08,4087.18,4092.31,4090.77,4098.97,4096.92,4100,4086.15,4103.08,4106.15,4084.62,0
12_27_0,37,4083.59,4076.92,4093.85,4088.21,4087.69,4095.38,4092.82,4109.23,4108.21,4093.33,4099.49,4108.72,4117.95,4090.26,0
12_27_0,38,4091.28,4077.44,4098.46,4092.31,4094.36,4098.97,4093.33,4106.67,4110.77,4112.82,4109.23,4109.74,4120.51,4092.82,0
12_27_0,39,4088.72,4070.26,4098.97,4093.33,4095.38,4096.41,4091.79,4092.82,4096.41,4105.13,4095.38,4106.15,4110.77,4089.23,0
12_27_0,40,4078.46,4067.69,4093.33,4088.72,4088.21,4087.69,4091.79,4090.77,4097.95,4085.64,4085.13,4102.56,4104.62,4085.13,0
12_27_0,41,4081.03,4076.92,4096.41,4087.18,4086.67,4093.85,4095.38,4100.51,4110.26,4097.44,4098.46,4108.21,4107.18,4088.21,0
12_27_0,42,4093.33,4089.74,4108.72,4095.38,4094.36,4103.08,4096.92,4106.15,4110.26,4115.38,4111.28,4116.92,4111.28,4093.33,0
12_27_0,43,4091.28,4087.18,4109.23,4097.44,4101.54,4094.87,4090.77,4101.54,4104.1,4105.64,4107.69,4113.33,4110.77,4092.82,0
12_27_0,44,4082.05,4077.95,4103.08,4091.79,4104.62,4088.72,4086.15,4092.31,4103.08,4098.46,4105.64,4109.23,4105.13,4089.23,0
12_27_0,45,4088.72,4080.51,4105.13,4090.26,4103.08,4092.82,4089.74,4094.36,4107.18,4118.97,4112.31,4117.44,4105.64,4091.79,0
12_27_0,46,4095.38,4089.74,4106.15,4094.36,4104.1,4093.85,4095.9,4104.62,4111.79,4125.13,4115.9,4124.1,4117.44,4100.51,0
12_27_0,47,4091.28,4090.26,4100.51,4096.92,4102.05,4090.77,4094.36,4102.05,4107.18,4111.79,4110.77,4118.97,4116.41,4103.59,0
12_27_0,48,4086.67,4081.54,4094.87,4090.77,4091.79,4089.23,4089.23,4089.23,4098.46,4104.1,4103.59,4107.18,4102.05,4092.31,0
12_27_0,49,4089.23,4082.05,4096.41,4089.74,4087.69,4088.72,4092.31,4090.77,4103.08,4107.69,4105.13,4107.69,4104.1,4087.18,0
12_27_0,50,4093.33,4092.31,4102.56,4101.03,4096.92,4091.28,4097.44,4096.41,4110.77,4112.31,4110.77,4116.92,4112.31,4097.44,0
12_27_0,51,4092.31,4094.87,4103.08,4105.13,4103.08,4095.38,4094.87,4092.31,4106.67,4103.08,4107.69,4114.36,4110.26,4096.92,0
12_27_0,52,4089.74,4084.1,4100,4097.95,4098.46,4095.9,4092.31,4089.23,4102.56,4097.44,4105.64,4109.23,4113.85,4087.69,0
12_27_0,53,4094.87,4088.72,4102.56,4096.41,4095.38,4095.9,4093.85,4093.85,4108.72,4115.38,4116.92,4114.36,4120,4096.41,0
12_27_0,54,4099.49,4101.03,4103.59,4101.03,4096.92,4094.36,4092.31,4098.46,4114.87,4131.28,4125.64,4120.51,4114.36,4104.62,0
12_27_0,55,4094.36,4094.36,4097.95,4098.46,4095.38,4093.33,4091.28,4093.33,4110.77,4111.79,4110.26,4115.9,4106.15,4095.9,0
12_27_0,56,4086.67,4081.54,4092.82,4092.82,4089.74,4093.85,4091.79,4085.64,4100,4088.72,4096.41,4108.72,4106.67,4088.21,0
12_27_0,57,4086.67,4077.95,4091.28,4090.77,4090.77,4092.31,4091.28,4087.18,4095.9,4091.28,4101.54,4107.69,4107.69,4088.21,0
12_27_0,58,4089.74,4082.56,4090.77,4089.74,4094.87,4089.74,4091.79,4092.31,4096.92,4096.41,4103.08,4106.67,4102.56,4086.15,0
12_27_0,59,4090.77,4086.67,4089.74,4086.67,4090.77,4090.77,4092.31,4090.26,4089.74,4102.05,4099.49,4105.13,4101.03,4086.67,0
12_27_0,60,4092.82,4087.18,4096.92,4092.31,4090.77,4092.82,4090.77,4089.74,4091.79,4107.69,4106.15,4113.33,4107.69,4092.82,0
12_27_0,61,4094.36,4087.69,4105.64,4100.51,4103.59,4094.36,4092.31,4096.41,4105.13,4098.46,4107.69,4120,4108.72,4091.79,0
12_27_0,62,4093.33,4090.26,4106.15,4096.92,4108.21,4097.44,4096.92,4095.9,4109.74,4097.95,4103.59,4114.87,4105.13,4088.21,0
12_27_0,63,4090.77,4090.26,4104.1,4092.31,4097.44,4097.44,4096.41,4091.79,4105.13,4115.38,4110.26,4117.44,4114.36,4096.41,0
12_27_0,64,4091.28,4089.74,4105.13,4093.85,4091.79,4092.82,4090.77,4091.28,4105.13,4116.41,4115.9,4126.67,4128.72,4104.62,0
12_27_0,65,4093.85,4094.36,4107.69,4094.36,4094.36,4090.26,4089.23,4094.36,4109.23,4103.08,4108.21,4122.05,4125.64,4100.51,0
12_27_0,66,4094.36,4094.87,4106.15,4097.95,4091.79,4090.77,4091.28,4098.46,4105.64,4104.62,4107.18,4118.46,4111.79,4092.31,0
12_27_0,67,4091.79,4089.74,4104.1,4098.46,4091.79,4094.36,4091.28,4096.92,4099.49,4109.74,4112.82,4120.51,4107.69,4089.23,0
12_27_0,68,4088.72,4089.23,4102.56,4089.74,4101.54,4096.41,4091.28,4092.31,4101.03,4108.21,4108.72,4113.85,4114.36,4089.74,0
12_27_0,69,4089.23,4090.26,4104.1,4094.36,4107.18,4093.33,4090.26,4093.33,4106.67,4106.67,4106.67,4113.85,4120,4090.26,0
12_27_0,70,4090.26,4092.82,4106.15,4103.59,4103.08,4090.26,4089.74,4096.41,4105.13,4104.1,4110.26,4117.44,4116.92,4091.79,0
12_27_0,71,4088.72,4089.74,4101.54,4097.95,4103.08,4094.36,4091.79,4090.77,4095.9,4104.1,4106.15,4109.23,4109.23,4089.23,0
12_27_0,72,4089.23,4085.64,4096.92,4093.85,4107.69,4096.41,4095.38,4088.21,4092.31,4107.69,4103.59,4104.1,4106.67,4082.05,0
12_27_0,73,4092.82,4088.72,4101.54,4100,4107.18,4094.87,4094.36,4090.77,4095.9,4103.08,4106.67,4108.72,4108.21,4081.03,0
12_27_0,74,4091.79,4090.77,4106.15,4103.59,4104.1,4093.85,4091.28,4088.21,4097.95,4094.87,4105.64,4107.18,4113.85,4086.15,0
12_27_0,75,4095.38,4095.9,4104.62,4103.59,4104.62,4100,4092.82,4094.36,4102.56,4104.1,4108.72,4108.21,4121.54,4093.33,0
12_27_0,76,4105.13,4107.69,4106.15,4109.74,4106.67,4107.18,4097.44,4103.08,4110.77,4113.85,4124.1,4123.08,4129.23,4100,0
12_27_0,77,4103.08,4111.28,4106.15,4111.28,4109.74,4103.59,4095.9,4096.92,4110.26,4108.21,4126.15,4127.18,4128.72,4099.49,0
12_27_0,78,4093.85,4107.18,4100.51,4102.56,4106.67,4100,4094.87,4094.87,4104.62,4107.69,4114.36,4116.41,4118.97,4093.85,0
12_27_0,79,4091.79,4104.62,4098.97,4098.97,4100.51,4100,4096.92,4106.15,4104.1,4107.69,4110.77,4109.23,4110.26,4091.79,0
12_27_0,80,4089.23,4096.41,4094.36,4100.51,4100.51,4094.87,4093.85,4106.15,4103.08,4096.41,4109.23,4107.69,4104.1,4086.67,0
12_27_0,81,4086.15,4087.69,4086.67,4095.38,4102.05,4090.77,4090.26,4092.31,4098.46,4094.36,4104.62,4104.62,4099.49,4082.05,0
12_27_0,82,4090.77,4096.92,4091.28,4097.44,4101.03,4094.87,4092.82,4094.87,4103.59,4109.74,4107.69,4106.15,4101.54,4090.26,0
12_27_0,83,4093.85,4102.05,4096.92,4107.69,4105.64,4098.46,4093.33,4100.51,4109.74,4109.23,4112.82,4111.28,4107.18,4096.41,0
12_27_0,92,4089.74,4094.87,4106.67,4104.1,4100.51,4098.97,4091.28,4090.77,4094.36,4103.08,4120,4122.05,4093.33,4094.87,0
12_27_0,92,4089.74,4094.87,4106.67,4104.1,4100.51,4098.97,4091.28,4090.77,4094.36,4103.08,4120,4122.05,4093.33,4094.87,0
12_27_0,93,4090.77,4090.77,4107.18,4095.9,4104.1,4104.1,4091.28,4089.74,4088.72,4109.74,4112.82,4120.51,4094.36,4095.9,0
12_27_0,94,4095.38,4092.82,4107.18,4096.41,4096.92,4095.9,4090.26,4088.21,4090.26,4105.64,4110.26,4127.18,4102.56,4103.08,0
12_27_0,95,4095.9,4098.46,4108.21,4104.1,4099.49,4098.97,4090.77,4091.79,4094.36,4098.97,4119.49,4133.85,4101.54,4106.67,0
12_27_0,96,4096.41,4095.9,4109.74,4107.18,4109.23,4107.69,4090.77,4092.31,4091.28,4097.44,4116.92,4132.82,4096.92,4106.67,0
12_27_0,97,4097.95,4092.82,4110.26,4103.08,4105.13,4105.13,4090.26,4089.74,4088.21,4095.9,4106.67,4129.23,4095.9,4106.15,0
12_27_0,98,4089.74,4091.28,4108.21,4100,4092.82,4103.08,4090.26,4089.23,4088.72,4091.79,4107.69,4126.67,4092.82,4102.56,0
12_27_0,99,4086.15,4089.74,4109.23,4098.97,4092.82,4106.15,4090.26,4090.26,4089.23,4092.31,4111.28,4124.62,4094.87,4101.54,0
12_27_0,100,4090.77,4092.31,4108.72,4096.41,4097.44,4100,4090.26,4089.74,4091.28,4096.92,4109.74,4126.15,4105.13,4105.13,0
12_27_0,101,4091.79,4092.31,4107.69,4094.87,4092.31,4094.87,4089.74,4089.74,4089.74,4095.9,4113.33,4130.26,4107.69,4105.13,0
12_27_0,102,4094.36,4092.31,4112.31,4098.97,4091.28,4097.44,4090.77,4090.77,4084.62,4096.92,4116.41,4134.36,4102.56,4107.18,0
12_27_0,103,4103.59,4099.49,4113.33,4103.59,4095.38,4098.46,4092.31,4088.72,4082.05,4101.03,4116.41,4136.92,4105.13,4116.92,0
12_27_0,104,4111.79,4103.08,4109.74,4106.67,4090.26,4097.44,4091.79,4086.67,4081.03,4093.33,4117.95,4136.92,4106.67,4127.18,0
12_27_0,105,4124.62,4105.13,4115.9,4112.82,4091.79,4095.9,4090.77,4089.23,4084.1,4083.08,4118.97,4141.54,4110.77,4136.92,0
12_27_0,106,4148.21,4121.03,4128.72,4121.54,4105.13,4094.87,4094.36,4089.74,4090.77,4089.74,4126.67,4153.85,4121.54,4153.85,0
12_27_0,107,4168.72,4140,4134.36,4131.79,4111.28,4094.87,4096.41,4088.21,4087.18,4104.1,4138.97,4164.62,4123.59,4173.85,0
12_27_0,108,4184.1,4145.64,4135.38,4134.87,4105.13,4093.85,4090.26,4085.13,4077.95,4104.1,4135.38,4165.13,4125.13,4186.15,0
12_27_0,109,4194.36,4143.08,4135.9,4126.15,4094.36,4089.23,4087.18,4077.95,4074.36,4084.62,4122.05,4162.05,4137.95,4191.79,0
12_27_0,110,4200,4145.13,4138.46,4126.15,4091.28,4087.69,4091.79,4074.36,4074.87,4071.79,4133.33,4166.15,4140.51,4202.56,0
12_27_0,111,4204.1,4151.28,4137.95,4132.31,4094.36,4090.77,4089.74,4080.51,4074.87,4083.08,4145.64,4165.64,4127.18,4207.18,0
12_27_0,112,4199.49,4147.69,4127.18,4125.13,4091.79,4090.26,4083.08,4080.51,4074.36,4093.33,4125.64,4153.85,4122.56,4195.9,0
12_27_0,113,4193.85,4144.62,4123.08,4124.1,4084.1,4087.69,4086.67,4077.95,4073.85,4080.51,4116.41,4149.23,4122.56,4193.33,0
12_27_0,114,4193.85,4150.77,4128.72,4136.41,4091.28,4090.77,4091.28,4085.13,4073.85,4074.87,4131.28,4153.85,4119.49,4202.05,0
12_27_0,115,4187.69,4149.23,4128.21,4129.23,4105.13,4095.9,4089.74,4090.77,4077.95,4096.41,4131.28,4153.85,4128.21,4196.41,0
12_27_0,116,4169.23,4133.33,4122.05,4109.74,4101.54,4096.41,4091.79,4089.23,4084.1,4108.21,4116.92,4148.72,4131.79,4182.56,0
12_27_0,117,4150.77,4124.62,4113.33,4107.18,4093.85,4096.41,4093.85,4092.31,4087.18,4100.51,4113.33,4141.54,4122.56,4173.85,0
12_27_0,118,4141.54,4119.49,4106.15,4112.31,4094.87,4096.41,4090.26,4092.82,4087.18,4092.31,4117.44,4135.9,4119.49,4163.59,0
12_27_0,119,4132.31,4110.26,4111.79,4109.74,4094.87,4096.41,4089.74,4089.23,4088.72,4092.31,4121.54,4136.41,4125.13,4153.85,0
12_27_0,120,4126.67,4106.15,4118.46,4109.23,4093.33,4102.56,4095.38,4096.41,4098.97,4109.23,4125.13,4140.51,4130.77,4151.79,0
12_27_0,121,4123.08,4102.05,4108.21,4110.26,4094.87,4106.67,4102.56,4107.69,4107.18,4121.03,4123.08,4141.03,4140.51,4142.56,0
12_27_0,122,4115.9,4094.87,4104.1,4107.69,4096.41,4106.67,4106.15,4106.15,4109.23,4107.18,4121.03,4137.95,4150.26,4130.77,0
12_27_0,123,4111.28,4093.33,4113.85,4111.28,4106.15,4115.9,4106.67,4104.1,4116.92,4103.59,4125.13,4138.97,4157.44,4134.87,0
12_27_0,124,4110.77,4097.44,4115.9,4117.44,4121.54,4125.13,4107.69,4109.23,4124.62,4119.49,4125.13,4141.03,4159.49,4140.51,0
12_27_0,125,4103.59,4091.79,4107.69,4109.23,4116.92,4115.9,4107.69,4109.74,4116.92,4118.97,4117.95,4128.72,4147.69,4125.13,0
12_27_0,126,4088.72,4076.92,4098.46,4092.31,4101.54,4105.64,4103.59,4097.95,4104.62,4104.1,4108.21,4108.72,4135.9,4107.18,0
12_27_0,127,4080.51,4070.77,4091.28,4088.72,4094.36,4106.67,4098.46,4091.79,4107.69,4101.54,4100,4105.13,4137.95,4104.1,0
12_27_0,128,4077.95,4071.79,4088.72,4091.79,4093.33,4105.64,4097.95,4101.03,4114.87,4107.18,4098.46,4108.72,4140,4100.51,0
12_27_0,0,4073.85,4066.15,4088.21,4090.77,4093.85,4102.56,4101.54,4106.15,4111.28,4106.15,4099.49,4102.56,4131.28,4090.26,0
12_27_0,1,4072.31,4062.56,4088.21,4089.23,4092.31,4103.59,4098.97,4097.44,4106.15,4105.13,4097.95,4098.46,4126.67,4088.72,0
12_27_0,2,4074.36,4071.79,4090.77,4089.74,4092.82,4104.1,4091.28,4089.74,4108.21,4103.59,4096.41,4104.62,4133.85,4093.33,0
12_27_0,3,4075.9,4077.95,4094.87,4093.33,4100,4105.13,4092.82,4095.9,4113.33,4098.97,4100.51,4108.72,4138.97,4095.38,0
12_27_0,4,4078.46,4078.46,4097.44,4103.08,4099.49,4107.69,4098.97,4103.59,4121.03,4113.33,4108.21,4108.72,4138.97,4101.03,0
12_27_0,5,4082.05,4077.44,4096.92,4107.69,4098.97,4108.21,4097.44,4097.44,4118.97,4126.67,4108.72,4108.72,4138.46,4102.56,0
12_27_0,6,4078.46,4074.87,4097.95,4097.44,4101.54,4106.67,4094.87,4088.21,4108.21,4108.21,4105.13,4107.18,4130.26,4093.85,0
12_27_0,7,4074.36,4072.82,4101.03,4095.9,4096.92,4106.15,4097.95,4095.38,4115.9,4100,4108.72,4106.67,4124.1,4090.77,0
12_27_0,8,4073.85,4073.33,4098.97,4100,4098.46,4106.67,4098.97,4101.03,4124.1,4115.9,4110.26,4107.18,4127.69,4093.33,0
12_27_0,9,4073.85,4076.92,4097.44,4094.36,4104.62,4108.72,4096.92,4092.82,4110.26,4108.72,4100,4104.62,4129.23,4091.79,0
12_27_0,10,4077.95,4081.54,4106.67,4096.41,4097.95,4107.18,4096.41,4092.82,4105.13,4096.92,4099.49,4105.64,4130.77,4090.77,0
12_27_0,11,4078.46,4081.03,4106.15,4103.59,4086.67,4100,4095.9,4095.38,4110.26,4110.77,4107.69,4108.21,4136.92,4092.82,0
12_27_0,12,4068.72,4073.33,4091.79,4092.31,4086.15,4091.79,4091.28,4086.15,4103.59,4108.72,4102.05,4103.59,4133.33,4089.23,0
12_27_0,13,4068.72,4071.28,4093.85,4088.21,4088.72,4094.87,4089.74,4085.64,4100,4087.18,4100,4104.62,4126.15,4090.77,0
12_27_0,14,4078.97,4076.41,4106.15,4100,4094.87,4106.15,4095.38,4096.41,4108.72,4091.28,4110.26,4111.79,4129.74,4096.92,0
12_27_0,15,4076.41,4075.9,4102.56,4098.46,4095.38,4106.15,4100,4098.46,4106.67,4103.59,4104.62,4111.79,4132.82,4095.38,0
12_27_0,16,4069.23,4073.33,4095.9,4089.74,4086.67,4098.97,4097.44,4093.85,4096.92,4093.85,4092.82,4107.18,4125.13,4090.77,0
12_27_0,17,4074.87,4074.87,4101.03,4091.28,4085.13,4098.97,4096.92,4095.38,4099.49,4091.28,4099.49,4108.72,4121.03,4093.85,0
12_27_0,18,4080.51,4075.9,4105.64,4096.41,4091.79,4104.1,4100,4101.54,4107.18,4107.18,4109.23,4116.41,4128.72,4097.44,0
12_27_0,19,4080,4074.87,4105.64,4102.56,4100.51,4107.69,4103.59,4107.18,4110.77,4110.77,4109.23,4123.59,4132.82,4096.92,0
12_27_0,20,4083.08,4078.97,4107.69,4105.13,4105.13,4111.28,4104.62,4109.23,4110.77,4101.03,4107.69,4125.13,4129.23,4101.03,0
12_27_0,21,4078.97,4076.92,4104.1,4095.38,4093.33,4103.08,4101.54,4102.05,4105.64,4095.9,4102.56,4115.9,4123.59,4099.49,0
12_27_1,22,4067.69,4066.67,4094.87,4084.1,4079.49,4089.74,4092.31,4093.85,4096.92,4099.49,4092.82,4105.64,4112.31,4088.72,0
12_27_1,23,4070.77,4067.69,4094.36,4085.13,4085.13,4094.87,4086.67,4093.85,4097.95,4100,4090.77,4104.62,4109.74,4088.21,0
12_27_1,24,4080,4076.92,4103.08,4092.82,4093.85,4107.69,4095.9,4101.03,4106.15,4093.85,4095.9,4108.72,4121.54,4095.38,0
12_27_1,25,4076.41,4079.49,4106.15,4093.33,4090.77,4107.18,4107.18,4104.1,4106.67,4095.38,4100,4114.36,4122.05,4094.87,0
12_27_1,26,4077.44,4077.44,4105.13,4092.31,4090.77,4106.15,4104.62,4104.1,4106.15,4103.08,4105.13,4119.49,4111.28,4093.33,0
12_27_1,27,4086.15,4076.92,4108.21,4092.82,4096.92,4110.77,4098.46,4105.13,4107.18,4096.92,4109.23,4123.08,4108.72,4097.44,0
12_27_1,28,4078.46,4071.28,4107.69,4086.15,4091.79,4103.08,4094.87,4105.64,4103.59,4089.74,4105.13,4122.05,4104.62,4093.85,0
12_27_1,29,4073.33,4069.23,4104.62,4083.08,4083.59,4090.77,4093.85,4106.67,4103.08,4102.05,4100.51,4120.51,4100.51,4090.77,0
12_27_1,30,4085.13,4078.46,4107.69,4091.79,4089.23,4093.85,4100.51,4107.18,4108.72,4108.72,4106.15,4124.1,4110.26,4099.49,0
12_27_1,31,4087.18,4077.44,4108.72,4094.87,4092.82,4103.59,4108.21,4106.67,4108.72,4101.03,4108.21,4124.1,4116.92,4104.62,0
12_27_1,32,4081.03,4072.31,4106.15,4092.82,4090.26,4105.13,4100.51,4106.67,4104.1,4100,4104.62,4122.05,4116.41,4103.59,0
12_27_1,33,4088.72,4084.1,4115.9,4095.38,4093.85,4102.05,4094.87,4106.15,4109.23,4110.77,4114.87,4128.72,4127.69,4106.67,0
12_27_1,34,4095.9,4088.21,4122.56,4094.87,4094.87,4102.56,4102.05,4108.21,4115.9,4108.21,4118.46,4132.31,4135.9,4110.77,0
12_27_1,35,4090.77,4077.44,4116.92,4090.26,4090.77,4104.1,4105.13,4106.67,4107.69,4091.28,4111.28,4131.28,4124.62,4108.72,0
12_27_1,36,4090.26,4078.46,4115.9,4091.79,4096.92,4106.67,4105.13,4107.18,4106.15,4097.95,4116.41,4134.87,4118.97,4110.26,0
12_27_1,37,4092.31,4080,4115.9,4092.82,4100,4104.62,4107.18,4109.23,4117.44,4111.28,4119.49,4130.77,4124.1,4108.72,0
12_27_1,38,4088.21,4074.87,4111.79,4090.77,4090.77,4097.95,4102.56,4102.56,4109.23,4096.92,4105.13,4116.92,4114.87,4100.51,0
12_27_1,39,4088.72,4082.05,4113.85,4090.77,4088.72,4100,4099.49,4096.92,4095.38,4085.64,4099.49,4117.95,4106.67,4102.05,0
12_27_1,40,4093.85,4091.79,4118.97,4093.33,4095.9,4106.67,4106.15,4106.67,4104.62,4100,4112.31,4128.21,4117.95,4109.74,0
12_27_1,41,4093.33,4089.23,4114.87,4100,4102.56,4107.18,4110.77,4113.85,4118.46,4112.82,4122.56,4127.18,4125.13,4107.18,0
12_27_1,42,4093.33,4089.23,4112.82,4106.67,4105.64,4106.67,4109.23,4108.21,4115.38,4101.54,4118.97,4125.13,4122.05,4104.1,0
12_27_1,43,4097.95,4093.85,4114.36,4104.1,4103.59,4105.64,4107.69,4104.62,4109.74,4092.31,4114.36,4126.67,4122.05,4110.26,0
12_27_1,44,4099.49,4092.82,4111.28,4094.87,4100.51,4104.1,4107.18,4107.18,4109.23,4103.08,4115.9,4125.64,4126.15,4112.82,0
12_27_1,45,4094.36,4090.77,4107.69,4092.82,4098.97,4106.67,4108.21,4106.67,4105.64,4111.28,4114.87,4122.05,4124.1,4105.64,0
12_27_1,46,4092.31,4090.77,4107.18,4098.97,4096.41,4107.18,4107.18,4105.13,4106.67,4102.05,4113.85,4122.05,4116.92,4101.03,0
12_27_1,47,4094.36,4092.82,4108.21,4100,4094.36,4104.62,4106.15,4106.15,4113.85,4100.51,4119.49,4125.13,4113.33,4105.13,0
12_27_1,48,4090.77,4087.69,4107.18,4093.85,4093.85,4105.64,4107.69,4107.18,4111.79,4105.64,4112.82,4122.56,4112.82,4104.62,0
12_27_1,49,4085.64,4083.59,4104.62,4089.23,4095.9,4108.21,4106.15,4105.64,4108.72,4102.05,4103.08,4119.49,4113.33,4101.54,0
12_27_1,50,4092.82,4094.36,4106.67,4095.9,4102.05,4107.18,4104.62,4104.62,4117.95,4107.18,4114.36,4128.21,4117.95,4104.62,0
12_27_1,51,4102.56,4104.1,4114.87,4105.13,4107.69,4110.26,4107.69,4109.74,4127.69,4120,4128.72,4138.97,4126.67,4108.21,0
12_27_1,52,4105.64,4105.13,4121.03,4106.67,4107.18,4114.87,4109.74,4111.28,4123.59,4120,4127.69,4138.46,4126.15,4114.87,0
12_27_1,53,4107.69,4105.13,4118.46,4106.67,4107.69,4112.31,4108.21,4106.67,4118.97,4115.9,4124.62,4137.95,4123.08,4121.54,0
12_27_1,54,4105.13,4102.05,4113.85,4107.18,4109.74,4108.72,4106.67,4111.79,4122.05,4116.92,4123.08,4139.49,4124.1,4118.46,0
12_27_1,55,4098.46,4090.26,4111.28,4103.08,4102.56,4106.67,4107.18,4118.46,4126.15,4117.95,4123.08,4135.38,4119.49,4112.31,0
12_27_1,56,4096.41,4082.56,4109.23,4094.36,4091.28,4101.03,4104.62,4110.77,4123.08,4119.49,4122.56,4127.69,4115.38,4111.28,0
12_27_1,57,4092.31,4084.62,4107.18,4089.23,4090.77,4094.87,4097.95,4102.05,4108.72,4116.41,4118.97,4122.56,4117.95,4104.62,0
12_27_1,58,4088.21,4088.72,4105.64,4088.21,4094.87,4096.41,4098.97,4106.67,4107.69,4114.87,4117.44,4125.64,4123.08,4102.56,0
12_27_1,59,4101.54,4098.97,4110.26,4098.97,4092.82,4103.59,4107.18,4111.28,4120,4121.54,4124.62,4135.38,4127.18,4114.36,0
12_27_1,60,4106.67,4102.05,4113.85,4106.15,4089.74,4107.18,4107.18,4109.23,4116.41,4121.54,4129.23,4135.38,4127.18,4115.9,0
12_27_1,61,4090.77,4087.69,4106.67,4093.33,4090.77,4103.08,4104.1,4104.62,4102.05,4109.74,4120,4124.1,4121.03,4105.64,0
12_27_1,62,4086.15,4083.59,4101.54,4086.15,4093.85,4097.44,4105.13,4100,4104.1,4106.15,4116.41,4121.54,4119.49,4105.64,0
12_27_1,63,4091.79,4088.72,4107.18,4092.31,4089.74,4093.85,4100.51,4096.92,4110.26,4115.38,4120,4125.13,4119.49,4107.69,0
12_27_1,64,4086.67,4082.05,4107.69,4091.28,4087.69,4093.33,4097.44,4095.38,4103.08,4113.33,4116.92,4121.03,4113.33,4101.54,0
12_27_1,65,4084.62,4077.44,4101.54,4085.13,4092.31,4096.41,4104.1,4100,4097.95,4105.64,4107.69,4110.26,4107.18,4093.85,0
12_27_1,66,4088.21,4086.15,4102.05,4087.18,4092.31,4095.38,4106.67,4106.67,4104.62,4108.72,4106.15,4107.69,4106.15,4093.33,0
12_27_1,67,4086.15,4090.77,4104.1,4088.21,4090.26,4091.28,4102.56,4106.15,4109.74,4102.05,4112.82,4115.38,4106.15,4099.49,0
12_27_1,68,4088.72,4090.26,4106.15,4089.74,4097.95,4093.85,4104.62,4105.64,4102.56,4088.72,4114.36,4124.1,4107.69,4104.1,0
12_27_1,69,4092.82,4088.21,4107.18,4093.85,4103.59,4097.44,4107.69,4108.21,4092.31,4097.44,4108.72,4123.08,4103.59,4100,0
12_27_1,70,4082.05,4077.44,4096.92,4087.18,4089.74,4094.36,4100.51,4103.59,4089.23,4105.13,4097.44,4111.79,4091.79,4090.26,0
12_27_1,71,4070.77,4071.79,4088.21,4079.49,4081.54,4092.82,4094.87,4095.9,4090.26,4088.72,4090.77,4104.62,4086.15,4086.15,0
12_27_1,72,4074.87,4074.36,4095.38,4081.54,4086.67,4094.36,4097.95,4096.41,4092.31,4084.62,4090.77,4109.74,4090.77,4089.23,0
12_27_1,73,4084.1,4073.33,4106.15,4086.67,4087.18,4092.31,4097.44,4098.97,4091.79,4094.36,4092.31,4118.97,4092.31,4094.87,0
12_27_1,74,4088.21,4077.44,4105.13,4088.72,4084.62,4087.69,4096.41,4100.51,4086.67,4090.77,4096.41,4117.44,4088.72,4097.44,0
12_27_1,75,4087.18,4085.13,4101.03,4091.28,4085.64,4092.31,4104.1,4105.64,4092.31,4089.23,4101.03,4114.87,4094.87,4096.41,0
12_27_1,76,4091.28,4089.23,4103.08,4095.9,4096.92,4102.05,4109.74,4110.77,4104.1,4095.38,4106.15,4121.03,4105.64,4105.64,0
12_27_1,77,4090.77,4090.77,4102.05,4094.36,4104.62,4102.56,4104.62,4107.18,4100,4095.9,4108.21,4118.46,4103.59,4108.72,0
12_27_1,78,4082.56,4091.28,4094.87,4091.28,4098.46,4096.92,4102.05,4097.95,4090.77,4100.51,4106.15,4109.74,4095.9,4097.95,0
12_27_1,79,4081.03,4089.23,4092.31,4094.36,4091.79,4098.46,4103.59,4093.33,4093.33,4104.1,4102.05,4106.67,4093.33,4094.87,0
12_27_1,80,4085.13,4082.05,4094.36,4095.38,4092.82,4103.59,4102.05,4095.9,4095.9,4098.46,4100,4108.21,4090.77,4099.49,0
12_27_1,81,4080,4074.87,4093.33,4087.69,4092.31,4099.49,4100,4096.92,4092.31,4090.26,4100,4108.21,4088.72,4096.41,0
12_27_1,82,4072.31,4073.33,4090.26,4078.97,4087.18,4093.85,4100,4093.33,4089.74,4087.69,4097.95,4109.23,4085.64,4090.26,0
12_27_1,83,4073.85,4074.87,4090.77,4078.46,4089.23,4095.9,4097.44,4091.28,4086.15,4086.67,4094.87,4107.18,4078.97,4092.31,0
12_27_1,84,4073.85,4073.33,4089.74,4081.03,4093.33,4100,4093.33,4093.33,4090.77,4087.18,4096.92,4105.13,4075.9,4092.82,0
12_27_1,85,4073.33,4072.82,4089.23,4087.69,4092.31,4096.41,4091.28,4097.44,4101.54,4101.54,4105.13,4113.85,4082.05,4095.9,0
12_27_1,86,4080.51,4080,4090.77,4091.28,4089.23,4092.31,4091.28,4098.97,4098.97,4110.26,4108.21,4122.56,4088.72,4104.62,0
12_27_1,87,4087.69,4087.69,4096.41,4090.77,4093.33,4098.97,4098.97,4102.05,4097.44,4107.18,4112.31,4122.56,4089.74,4107.18,0
12_27_1,88,4095.38,4093.85,4106.15,4097.95,4107.18,4108.21,4108.21,4108.72,4109.74,4112.82,4121.03,4128.72,4097.44,4113.33,0
12_27_1,89,4100.51,4100.51,4109.74,4110.26,4111.28,4108.21,4107.18,4110.77,4117.95,4122.56,4122.56,4141.54,4111.79,4124.62,0
12_27_1,90,4097.95,4098.97,4105.64,4109.74,4100,4098.97,4097.95,4101.03,4109.23,4114.87,4114.87,4137.95,4106.67,4123.08,0
12_27_1,91,4087.69,4087.18,4098.97,4096.92,4091.28,4092.82,4090.26,4089.23,4092.31,4102.05,4108.72,4121.03,4089.74,4109.74,0
12_27_1,92,4080.51,4077.44,4094.36,4089.23,4087.18,4089.74,4090.77,4086.15,4085.64,4100.51,4106.15,4117.95,4093.33,4103.59,0
12_27_1,93,4085.13,4081.54,4097.44,4093.33,4081.54,4087.18,4091.28,4088.21,4096.41,4097.44,4106.67,4126.15,4109.23,4106.67,0
12_27_1,94,4091.79,4091.79,4103.08,4100.51,4086.15,4093.85,4093.33,4096.41,4108.72,4094.36,4109.74,4127.18,4115.9,4109.74,0
12_27_1,95,4093.85,4089.23,4108.21,4100,4095.9,4105.64,4100.51,4106.67,4110.26,4100,4110.77,4126.15,4125.64,4112.82,0
12_27_1,96,4091.28,4081.03,4111.28,4100.51,4095.9,4107.18,4105.64,4103.59,4109.23,4111.79,4112.31,4131.28,4130.26,4111.79,0
12_27_1,97,4090.26,4083.59,4109.23,4102.56,4095.38,4098.97,4099.49,4091.79,4106.15,4106.67,4112.82,4132.31,4113.33,4107.18,0
12_27_1,98,4092.82,4086.15,4104.62,4096.41,4099.49,4095.38,4096.41,4091.79,4105.13,4091.28,4100.51,4122.05,4108.21,4106.15,0
12_27_1,99,4086.15,4077.44,4102.05,4086.67,4092.31,4094.87,4098.97,4097.44,4107.18,4091.28,4084.1,4106.67,4122.05,4100.51,0
12_27_1,100,4078.46,4072.82,4101.54,4087.18,4087.18,4093.33,4093.85,4092.31,4100,4097.44,4083.59,4103.08,4123.59,4091.79,0
12_27_1,101,4083.59,4079.49,4100,4091.28,4095.38,4092.31,4090.26,4087.69,4095.9,4096.92,4091.28,4114.87,4122.05,4092.82,0
12_27_1,102,4089.23,4083.59,4096.92,4089.23,4095.38,4093.33,4094.87,4092.82,4105.64,4092.82,4092.31,4121.54,4128.21,4097.95,0
12_27_1,103,4076.92,4073.85,4092.31,4082.56,4087.18,4094.87,4093.85,4092.31,4108.21,4084.1,4088.72,4110.77,4122.56,4091.28,0
12_27_1,104,4070.77,4070.77,4089.23,4080,4091.28,4097.95,4092.31,4090.77,4105.13,4085.64,4089.23,4106.67,4116.92,4085.13,0
12_27_1,105,4084.1,4088.21,4092.82,4086.67,4097.44,4104.1,4101.03,4101.54,4114.87,4100,4099.49,4118.46,4132.82,4097.95,0
12_27_1,106,4088.72,4095.38,4094.87,4094.87,4095.9,4109.74,4105.13,4106.67,4125.13,4105.64,4108.72,4120.51,4138.46,4105.64,0
12_27_1,107,4080,4080,4093.85,4089.23,4097.44,4107.69,4097.44,4095.38,4122.05,4107.69,4104.62,4112.31,4129.23,4094.87,0
12_27_1,108,4075.38,4077.95,4090.77,4080.51,4098.46,4097.95,4091.79,4088.72,4112.82,4105.13,4095.9,4107.69,4130.77,4087.69,0
12_27_1,109,4082.05,4093.85,4089.74,4083.59,4093.33,4096.92,4093.85,4092.31,4113.33,4098.46,4097.44,4106.15,4136.41,4091.79,0
12_27_1,110,4091.28,4099.49,4096.41,4091.79,4094.36,4101.54,4094.36,4092.82,4121.03,4101.54,4106.67,4113.33,4139.49,4097.44,0
12_27_1,111,4090.77,4092.31,4098.46,4091.79,4095.9,4094.36,4092.82,4090.77,4120,4104.1,4114.36,4123.08,4136.92,4101.03,0
12_27_1,112,4086.15,4087.69,4094.36,4089.23,4089.23,4088.21,4091.79,4090.26,4111.79,4100.51,4110.77,4121.03,4126.67,4104.62,0
12_27_1,113,4088.72,4092.31,4098.46,4090.77,4092.31,4094.87,4091.79,4091.28,4111.79,4105.13,4105.64,4117.95,4128.72,4104.62,0
12_27_1,114,4093.85,4102.56,4106.67,4092.82,4097.44,4093.33,4090.77,4091.28,4111.79,4113.33,4111.28,4130.26,4142.56,4109.74,0
12_27_1,115,4095.9,4106.67,4107.69,4096.92,4093.33,4090.26,4088.72,4089.23,4108.72,4110.26,4118.97,4138.46,4143.08,4115.9,0
12_27_1,116,4101.54,4105.64,4108.72,4104.1,4100.51,4104.1,4090.77,4091.79,4116.41,4104.62,4121.54,4135.9,4141.03,4112.82,0
12_27_1,117,4108.21,4108.21,4111.79,4110.77,4114.36,4111.79,4095.38,4099.49,4126.15,4113.85,4127.69,4137.95,4152.31,4114.87,0
12_27_1,118,4108.21,4109.23,4109.74,4106.67,4109.23,4106.15,4095.9,4098.46,4124.1,4120.51,4125.13,4134.36,4151.28,4120,0
12_27_1,119,4107.18,4110.26,4108.21,4100.51,4098.97,4107.69,4094.87,4095.9,4122.56,4113.85,4113.85,4123.59,4145.64,4116.41,0
12_27_1,120,4111.28,4112.31,4110.77,4102.56,4102.56,4108.72,4095.38,4101.03,4124.62,4111.79,4114.36,4123.59,4149.74,4112.82,0
12_27_1,121,4107.69,4109.23,4111.28,4098.97,4101.54,4098.97,4095.38,4104.62,4121.54,4114.87,4118.46,4127.18,4145.13,4112.31,0
12_27_1,122,4097.44,4102.56,4108.21,4091.79,4091.79,4092.31,4093.33,4098.46,4117.44,4107.18,4112.82,4121.54,4134.87,4105.64,0
12_27_1,123,4098.97,4105.64,4105.64,4096.41,4091.28,4095.38,4091.79,4091.79,4115.9,4103.59,4112.82,4122.56,4135.38,4104.62,0
12_27_1,124,4103.08,4109.74,4107.18,4101.03,4098.46,4094.87,4089.74,4091.28,4111.28,4105.64,4115.9,4129.74,4133.33,4109.23,0
12_27_1,125,4094.87,4099.49,4105.64,4092.31,4088.72,4090.26,4088.21,4088.72,4102.05,4095.38,4108.21,4120.51,4118.97,4097.44,0
12_27_1,126,4090.77,4093.85,4104.62,4087.69,4080,4090.26,4091.79,4086.15,4094.36,4081.54,4103.59,4111.79,4112.31,4088.21,0
12_27_1,127,4095.9,4095.38,4106.15,4091.79,4091.28,4093.33,4094.87,4087.18,4092.31,4081.03,4105.13,4113.33,4117.95,4095.38,0
12_27_1,128,4094.36,4091.79,4105.64,4091.79,4096.41,4093.33,4091.79,4089.74,4096.41,4095.38,4104.62,4117.44,4121.54,4100,0
12_27_1,0,4093.33,4094.87,4107.18,4093.33,4091.28,4093.33,4090.26,4092.31,4104.1,4108.21,4110.26,4121.54,4118.97,4099.49,0
12_27_1,1,4094.87,4101.03,4104.1,4094.36,4092.82,4092.82,4089.74,4085.13,4099.49,4099.49,4110.77,4120,4111.28,4100,0
12_27_1,2,4088.72,4092.31,4094.87,4090.26,4093.85,4090.26,4085.64,4073.33,4088.21,4088.21,4095.9,4108.72,4105.64,4097.44,0
12_27_1,3,4088.21,4089.74,4095.38,4087.18,4092.31,4088.72,4086.15,4076.92,4090.26,4093.85,4091.28,4103.59,4109.74,4092.82,0
12_27_1,4,4094.36,4106.67,4105.64,4098.97,4098.97,4094.87,4093.33,4090.26,4104.1,4100.51,4105.13,4113.85,4119.49,4097.95,0
12_27_1,5,4094.87,4111.28,4105.64,4109.23,4108.21,4104.1,4094.87,4093.33,4111.79,4110.26,4112.31,4116.92,4124.62,4105.64,0
12_27_1,6,4092.31,4102.56,4098.46,4101.03,4107.18,4104.62,4092.31,4093.33,4109.23,4112.31,4107.18,4109.74,4123.08,4102.56,0
12_27_1,7,4093.33,4105.13,4095.9,4092.82,4101.54,4103.59,4096.92,4095.38,4102.56,4091.79,4108.21,4105.64,4116.41,4091.79,0
12_27_1,8,4092.82,4108.72,4095.38,4097.44,4097.95,4103.59,4098.97,4091.79,4099.49,4085.13,4109.23,4105.64,4109.74,4089.23,0
12_27_1,9,4090.77,4098.97,4092.82,4095.38,4096.41,4097.95,4092.82,4091.79,4100,4106.15,4103.08,4107.69,4109.23,4092.82,0
12_27_1,10,4088.72,4089.23,4091.79,4084.62,4094.36,4090.77,4091.28,4093.33,4097.95,4111.28,4100,4106.67,4107.18,4087.69,0
12_27_1,11,4091.28,4095.9,4099.49,4094.36,4095.9,4094.87,4093.85,4087.69,4094.87,4097.95,4103.59,4108.21,4108.72,4087.69,0
12_27_1,12,4094.36,4101.03,4105.13,4107.18,4098.46,4098.46,4091.79,4084.62,4095.38,4094.36,4104.62,4109.23,4116.41,4094.36,0
12_27_1,13,4093.85,4094.87,4096.92,4097.95,4095.38,4092.82,4088.72,4090.26,4094.87,4092.82,4106.15,4110.77,4122.05,4092.82,0
12_27_1,14,4093.85,4095.9,4091.28,4091.79,4094.87,4096.41,4090.77,4093.85,4097.44,4093.33,4112.31,4112.31,4119.49,4091.28,0
12_27_1,15,4095.38,4101.03,4093.33,4104.62,4100,4104.1,4093.33,4090.77,4105.13,4107.18,4113.33,4110.77,4115.9,4097.44,0
12_27_1,16,4099.49,4101.54,4093.33,4108.72,4101.54,4100,4091.79,4093.85,4107.18,4111.79,4106.15,4111.28,4117.44,4103.08,0
12_27_2,17,4105.13,4103.59,4097.95,4101.03,4100,4095.38,4092.31,4105.13,4106.15,4104.62,4108.72,4116.92,4124.62,4107.69,0
12_27_2,18,4107.18,4106.15,4101.03,4102.56,4105.13,4098.46,4093.85,4108.21,4112.82,4110.26,4120,4120.51,4133.33,4110.26,0
12_27_2,19,4105.64,4107.18,4097.44,4106.67,4104.1,4098.46,4094.36,4098.97,4117.44,4121.54,4124.1,4118.97,4134.36,4108.21,0
12_27_2,20,4106.67,4109.23,4102.05,4109.74,4095.9,4098.46,4092.31,4092.31,4109.23,4115.38,4121.03,4121.03,4132.82,4108.21,0
12_27_2,21,4107.69,4109.74,4109.23,4112.82,4102.05,4105.13,4091.79,4090.77,4102.05,4102.56,4122.56,4122.56,4131.79,4109.74,0
12_27_2,22,4106.15,4105.64,4106.67,4109.74,4110.26,4104.62,4093.33,4094.36,4107.18,4103.59,4127.69,4121.03,4127.18,4105.64,0
12_27_2,23,4105.64,4104.62,4103.08,4104.62,4104.62,4095.9,4091.79,4099.49,4108.72,4115.38,4122.56,4121.54,4122.56,4102.05,0
12_27_2,24,4107.18,4107.18,4105.64,4103.59,4105.64,4091.79,4090.77,4098.46,4100,4115.38,4109.74,4120,4123.59,4104.1,0
12_27_2,25,4107.69,4108.21,4107.69,4106.67,4108.21,4098.97,4094.87,4093.33,4096.92,4106.67,4110.26,4123.08,4126.15,4107.18,0
12_27_2,26,4107.69,4106.15,4110.26,4108.21,4096.41,4104.1,4095.38,4092.82,4103.59,4107.18,4122.05,4133.33,4121.54,4107.18,0
12_27_2,27,4111.79,4105.13,4113.85,4108.21,4094.36,4099.49,4094.36,4097.44,4105.64,4105.64,4124.1,4140,4122.05,4106.15,0
12_27_2,28,4111.79,4103.59,4112.31,4106.67,4104.62,4096.41,4100.51,4097.95,4104.1,4104.62,4120.51,4140,4120.51,4109.23,0
12_27_2,29,4105.64,4097.44,4109.74,4105.64,4104.62,4102.56,4104.1,4095.9,4106.67,4112.82,4121.03,4138.46,4110.77,4108.72,0
12_27_2,30,4105.13,4098.46,4112.31,4107.69,4103.59,4109.23,4098.97,4095.38,4105.64,4116.92,4119.49,4134.36,4109.23,4103.08,0
12_27_2,31,4108.72,4105.13,4111.79,4107.18,4106.15,4105.13,4093.85,4093.33,4095.38,4103.59,4108.72,4125.13,4110.26,4100.51,0
12_27_2,32,4106.15,4107.18,4105.64,4103.59,4106.67,4095.9,4092.82,4090.26,4090.26,4091.28,4104.1,4119.49,4104.1,4100.51,0
12_27_2,33,4106.15,4109.23,4106.15,4104.1,4102.56,4096.41,4093.33,4090.26,4095.38,4101.03,4109.74,4121.03,4105.64,4095.38,0
12_27_2,34,4106.15,4108.72,4107.69,4102.56,4098.46,4103.59,4096.92,4089.74,4095.38,4107.69,4111.79,4120.51,4110.26,4091.28,0
12_27_2,35,4096.92,4099.49,4099.49,4093.85,4102.05,4097.44,4095.38,4084.1,4086.67,4092.31,4103.08,4110.26,4101.54,4092.31,0
12_27_2,36,4085.13,4089.74,4090.77,4085.64,4101.54,4087.69,4089.74,4078.46,4077.44,4081.54,4091.28,4095.9,4094.87,4090.26,0
12_27_2,37,4080,4084.62,4090.77,4083.59,4092.82,4096.41,4090.77,4078.46,4076.41,4085.13,4085.13,4092.82,4094.87,4083.08,0
12_27_2,38,4083.59,4084.62,4094.87,4085.13,4096.41,4104.62,4093.33,4084.1,4084.1,4088.72,4091.28,4100.51,4090.26,4078.97,0
12_27_2,39,4090.26,4098.97,4100,4094.36,4108.21,4102.56,4096.41,4095.38,4097.44,4102.56,4107.18,4109.74,4095.9,4086.15,0
12_27_2,40,4090.77,4107.18,4104.1,4101.03,4107.69,4103.59,4099.49,4101.03,4101.03,4110.77,4104.62,4109.74,4107.18,4093.33,0
12_27_2,41,4088.72,4097.44,4103.08,4093.85,4103.59,4106.67,4094.36,4099.49,4092.31,4097.44,4088.72,4107.69,4105.13,4090.26,0
12_27_2,42,4091.79,4096.92,4102.05,4090.77,4106.67,4104.1,4095.38,4102.05,4093.85,4096.92,4095.9,4114.87,4108.72,4094.87,0
12_27_2,43,4098.46,4109.74,4105.64,4098.46,4109.74,4104.62,4104.62,4107.69,4106.15,4110.26,4111.79,4125.13,4119.49,4105.64,0
12_27_2,44,4099.49,4110.26,4108.21,4100.51,4106.67,4106.67,4103.08,4108.72,4107.69,4109.74,4108.21,4126.67,4114.87,4101.54,0
12_27_2,45,4094.87,4098.46,4104.1,4094.36,4097.44,4100.51,4096.92,4106.15,4100,4107.18,4100,4123.59,4104.1,4091.28,0
12_27_2,46,4090.26,4090.26,4097.95,4089.23,4092.31,4099.49,4102.56,4103.08,4097.95,4107.18,4097.95,4119.49,4103.59,4089.23,0
12_27_2,47,4090.77,4088.72,4101.03,4089.74,4098.97,4105.64,4107.18,4109.23,4103.59,4105.13,4101.03,4121.03,4107.18,4091.28,0
12_27_2,48,4093.85,4097.44,4106.67,4096.92,4107.18,4108.72,4107.18,4121.03,4109.74,4104.1,4107.69,4128.21,4109.23,4093.85,0
12_27_2,49,4093.33,4107.18,4105.64,4102.56,4110.77,4107.69,4106.15,4117.44,4109.74,4109.23,4110.26,4127.69,4109.74,4095.9,0
12_27_2,50,4096.92,4106.67,4104.62,4101.54,4106.67,4104.1,4101.54,4103.08,4107.18,4120,4112.31,4125.64,4110.26,4097.95,0
12_27_2,51,4107.69,4108.21,4108.21,4106.15,4107.69,4105.64,4102.56,4104.1,4107.18,4126.15,4121.54,4137.95,4121.54,4107.18,0
12_27_2,52,4109.74,4111.79,4110.77,4108.21,4118.97,4112.31,4109.23,4112.31,4107.69,4121.54,4123.08,4141.03,4128.21,4111.79,0
12_27_2,53,4098.46,4102.05,4107.69,4098.46,4115.38,4109.23,4105.64,4110.77,4106.15,4112.31,4111.28,4127.18,4113.85,4101.54,0
12_27_2,54,4089.74,4094.36,4100.51,4089.74,4103.59,4101.03,4101.54,4105.13,4098.97,4107.18,4101.54,4119.49,4097.95,4093.33,0
12_27_2,55,4091.28,4105.13,4095.9,4091.79,4095.9,4104.62,4105.64,4105.13,4092.82,4104.1,4103.08,4117.95,4095.38,4093.33,0
12_27_2,56,4092.82,4109.23,4098.46,4094.87,4095.9,4109.23,4108.21,4107.69,4094.87,4103.08,4108.21,4110.77,4092.82,4092.31,0
12_27_2,57,4090.77,4097.44,4099.49,4091.28,4104.1,4107.18,4106.15,4108.72,4096.92,4107.69,4105.64,4105.64,4087.69,4087.69,0
12_27_2,58,4088.72,4093.85,4093.85,4084.1,4110.77,4105.64,4105.64,4106.15,4092.31,4107.18,4092.31,4106.67,4089.23,4084.1,0
12_27_2,59,4089.23,4096.41,4093.33,4083.59,4104.1,4104.62,4105.64,4105.13,4088.72,4097.95,4087.69,4108.72,4093.33,4087.69,0
12_27_2,60,4091.79,4094.36,4095.38,4090.26,4101.54,4104.62,4104.62,4104.62,4089.23,4099.49,4098.46,4114.87,4097.44,4088.21,0
12_27_2,61,4092.82,4093.85,4096.92,4093.85,4110.77,4107.69,4105.13,4107.18,4095.9,4115.9,4109.23,4122.05,4105.64,4092.82,0
12_27_2,62,4096.41,4094.87,4101.54,4096.41,4108.72,4107.18,4105.64,4109.74,4104.62,4115.38,4109.74,4123.59,4117.95,4142.56,0
12_27_2,63,4102.05,4095.9,4104.62,4098.46,4103.59,4105.64,4106.15,4106.67,4104.1,4101.03,4108.72,4124.62,4123.59,4217.95,0
12_27_2,64,4101.54,4097.44,4098.97,4096.92,4108.72,4106.15,4106.67,4103.08,4103.08,4107.69,4111.79,4123.59,4115.38,4245.13,0
12_27_2,65,4094.36,4096.41,4091.79,4095.9,4110.77,4106.15,4106.67,4104.62,4113.33,4128.21,4109.74,4118.46,4114.87,4231.79,0
12_27_2,66,4090.77,4093.85,4093.85,4095.38,4107.69,4107.18,4105.13,4108.21,4121.54,4131.28,4101.54,4116.41,4132.82,4242.56,0
12_27_2,67,4094.36,4097.44,4099.49,4090.77,4110.77,4107.18,4105.64,4107.69,4120.51,4113.85,4102.56,4121.54,4143.59,4252.82,0
12_27_2,68,4095.38,4098.46,4096.41,4089.23,4113.85,4107.69,4109.23,4108.21,4124.62,4111.79,4109.74,4120,4133.33,4212.31,0
12_27_2,69,4090.77,4091.28,4089.23,4086.67,4097.44,4107.18,4108.72,4107.69,4123.08,4119.49,4098.97,4103.59,4121.54,4163.08,0
12_27_2,70,4087.18,4088.72,4086.67,4078.46,4084.62,4098.46,4104.62,4102.05,4112.82,4114.36,4087.18,4094.36,4123.08,4149.23,0
12_27_2,71,4088.21,4090.77,4086.15,4076.92,4096.92,4092.31,4102.56,4102.56,4114.87,4111.79,4090.77,4102.05,4126.67,4147.18,0
12_27_2,72,4089.23,4090.77,4084.62,4087.18,4107.69,4100.51,4104.1,4104.62,4123.59,4116.41,4093.85,4106.67,4122.56,4136.92,0
12_27_2,73,4087.69,4095.38,4087.69,4091.28,4105.64,4108.72,4105.13,4104.1,4122.05,4111.28,4094.87,4103.08,4123.59,4131.28,0
12_27_2,74,4095.38,4107.18,4099.49,4096.41,4108.21,4108.21,4108.72,4106.67,4120,4106.15,4105.64,4110.26,4135.9,4137.44,0
12_27_2,75,4108.72,4112.31,4110.77,4109.23,4111.79,4109.74,4112.82,4112.82,4127.18,4117.44,4114.87,4126.67,4142.56,4146.67,0
12_27_2,76,4108.72,4108.21,4109.74,4111.28,4108.72,4112.31,4110.77,4112.31,4127.18,4122.05,4111.28,4128.21,4136.92,4146.67,0
12_27_2,77,4098.97,4105.13,4102.56,4105.64,4106.67,4108.21,4105.64,4106.67,4117.44,4112.31,4104.62,4117.95,4131.28,4138.97,0
12_27_2,78,4101.03,4105.13,4103.08,4101.54,4104.62,4105.64,4107.69,4106.67,4115.38,4106.15,4104.1,4117.44,4127.18,4136.92,0
12_27_2,79,4108.21,4106.15,4105.64,4097.95,4107.18,4107.69,4110.77,4107.69,4123.59,4113.85,4109.23,4122.56,4126.15,4140.51,0
12_27_2,80,4100.51,4102.56,4100,4095.38,4109.74,4105.64,4107.18,4104.1,4118.46,4110.77,4104.62,4114.87,4123.08,4132.31,0
12_27_2,81,4093.33,4098.97,4095.38,4095.9,4096.92,4096.92,4102.56,4101.03,4104.1,4088.21,4100,4106.67,4110.77,4125.13,0
12_27_2,82,4099.49,4102.05,4096.92,4092.82,4092.31,4091.28,4103.59,4106.15,4112.31,4095.38,4107.18,4109.74,4102.56,4131.28,0
12_27_2,83,4107.18,4106.15,4101.54,4094.36,4107.18,4097.44,4106.67,4109.23,4121.03,4124.62,4103.08,4110.26,4117.44,4137.95,0
12_27_2,84,4110.77,4109.74,4108.21,4104.1,4114.36,4103.59,4106.67,4097.95,4110.26,4123.08,4089.23,4107.18,4135.38,4140,0
12_27_2,85,4109.74,4108.72,4107.18,4099.49,4098.97,4096.92,4099.49,4088.72,4103.08,4102.05,4087.18,4108.72,4130.77,4140,0
12_27_2,86,4102.05,4101.54,4100.51,4086.67,4090.26,4091.79,4094.36,4094.36,4106.15,4089.74,4095.38,4108.72,4116.92,4136.41,0
12_27_2,87,4103.59,4101.54,4102.56,4093.33,4101.54,4101.03,4101.54,4104.62,4109.74,4092.31,4102.05,4112.82,4118.46,4134.36,0
12_27_2,88,4115.9,4111.79,4111.28,4108.72,4109.23,4110.26,4111.28,4109.74,4118.97,4113.85,4109.74,4123.59,4126.15,4140.51,0
12_27_2,89,4113.85,4110.26,4111.28,4106.15,4103.59,4108.21,4112.82,4109.74,4128.21,4126.67,4111.28,4129.23,4120.51,4144.1,0
12_27_2,90,4103.08,4097.44,4106.67,4095.38,4097.95,4105.13,4109.23,4106.67,4117.95,4107.69,4107.69,4123.59,4107.69,4139.49,0
12_27_2,91,4104.62,4097.95,4106.15,4094.36,4105.13,4105.64,4108.72,4104.62,4105.13,4096.92,4107.18,4120,4104.1,4136.92,0
12_27_2,92,4110.77,4106.15,4111.79,4099.49,4111.28,4107.69,4110.77,4107.18,4111.28,4103.59,4107.69,4130.26,4107.69,4141.54,0
12_27_2,93,4108.72,4107.18,4114.36,4102.56,4107.69,4105.64,4108.21,4106.15,4117.44,4106.67,4106.15,4135.9,4109.23,4153.33,0
12_27_2,94,4106.67,4104.1,4112.31,4101.54,4104.62,4100,4104.1,4102.56,4109.74,4111.28,4101.54,4127.18,4109.74,4154.36,0
12_27_2,95,4108.21,4105.13,4109.74,4095.38,4104.62,4098.97,4105.13,4101.54,4102.56,4101.54,4096.92,4118.97,4102.56,4138.97,0
12_27_2,96,4110.77,4107.69,4109.74,4093.85,4106.67,4101.54,4105.64,4100.51,4103.08,4088.21,4097.44,4122.56,4096.92,4134.87,0
12_27_2,97,4116.41,4110.77,4110.26,4102.05,4106.67,4102.05,4104.1,4102.56,4107.18,4108.72,4104.62,4126.15,4107.69,4150.77,0
12_27_2,98,4115.9,4111.79,4111.28,4106.15,4104.62,4104.1,4105.64,4107.69,4113.33,4127.18,4110.26,4124.1,4114.87,4163.59,0
12_27_2,99,4111.79,4111.28,4109.74,4105.13,4103.59,4109.23,4109.74,4108.21,4111.79,4113.33,4104.62,4121.03,4106.15,4168.21,0
12_27_2,100,4114.36,4114.87,4109.74,4107.69,4108.72,4108.72,4111.79,4106.67,4111.28,4108.21,4104.1,4121.03,4106.67,4174.87,0
12_27_2,101,4112.31,4110.26,4110.26,4103.08,4108.72,4106.15,4108.72,4108.21,4118.46,4119.49,4106.67,4126.15,4111.79,4175.38,0
12_27_2,102,4101.54,4095.9,4106.15,4088.21,4095.9,4104.62,4104.1,4106.15,4110.77,4111.28,4097.44,4123.59,4101.03,4161.03,0
12_27_2,103,4098.97,4090.77,4104.1,4085.64,4090.77,4102.56,4104.1,4102.05,4097.95,4090.77,4089.23,4117.44,4091.79,4150.26,0
12_27_2,104,4105.13,4093.85,4107.69,4091.79,4094.87,4104.1,4108.21,4105.64,4103.08,4092.31,4096.92,4122.05,4097.44,4148.72,0
12_27_2,104,4105.13,4093.85,4107.69,4091.79,4094.87,4104.1,4108.21,4105.64,4103.08,4092.31,4096.92,4122.05,4097.44,4148.72,0
12_27_2,105,4104.62,4093.85,4110.26,4088.72,4091.79,4104.1,4106.67,4108.72,4112.82,4109.23,4104.1,4127.69,4102.05,4149.74,0
12_27_2,106,4104.62,4092.82,4109.74,4089.23,4087.69,4099.49,4101.54,4103.59,4109.74,4111.79,4107.18,4125.13,4098.97,4154.87,0
12_27_2,107,4105.13,4089.74,4109.23,4092.82,4093.85,4094.87,4102.56,4096.41,4102.05,4102.56,4109.74,4128.72,4096.92,4153.85,0
12_27_2,108,4102.56,4089.74,4107.18,4090.26,4104.62,4097.95,4106.15,4101.03,4103.08,4109.23,4107.69,4134.36,4103.08,4149.74,0
12_27_2,109,4104.62,4104.62,4107.69,4090.26,4111.28,4104.1,4108.21,4108.72,4109.23,4112.82,4106.15,4128.72,4109.74,4170.77,0
12_27_2,110,4105.13,4109.23,4108.21,4094.36,4105.13,4104.1,4107.18,4103.59,4108.72,4100,4112.31,4121.54,4099.49,4203.59,0
12_27_2,111,4100,4091.79,4106.67,4093.33,4097.44,4097.44,4104.62,4095.9,4105.13,4101.54,4112.82,4122.56,4082.05,4214.36,0
12_27_2,112,4100,4089.23,4105.13,4089.23,4104.62,4092.82,4103.08,4095.9,4105.64,4114.36,4100,4122.56,4088.72,4214.87,0
12_27_2,113,4106.15,4103.08,4105.13,4089.23,4110.26,4095.9,4104.62,4097.95,4104.1,4115.9,4087.69,4118.46,4108.21,4217.95,0
12_27_2,114,4105.64,4104.1,4110.77,4092.82,4105.13,4096.92,4106.15,4097.95,4100,4107.69,4093.33,4120,4106.15,4221.54,0
12_27_2,115,4103.59,4100.51,4114.36,4093.33,4101.54,4091.79,4105.13,4097.95,4101.54,4101.03,4106.67,4129.74,4094.36,4222.05,0
12_27_2,116,4106.15,4101.03,4113.85,4089.74,4096.92,4091.28,4103.59,4098.46,4106.67,4100,4107.69,4133.33,4093.85,4196.92,0
12_27_2,117,4107.18,4099.49,4115.9,4092.31,4094.36,4092.31,4098.46,4096.41,4106.15,4107.18,4104.1,4128.21,4093.33,4178.97,0
12_27_2,118,4108.72,4102.56,4117.44,4103.59,4102.56,4093.33,4096.92,4094.87,4105.13,4114.87,4110.26,4133.33,4094.87,4203.59,0
12_27_2,119,4111.79,4111.28,4112.82,4105.64,4107.18,4096.41,4104.1,4102.05,4111.28,4117.95,4115.38,4140,4105.64,4221.03,0
12_27_2,120,4108.72,4109.23,4107.18,4093.33,4105.13,4093.85,4104.62,4106.15,4111.79,4109.23,4108.21,4129.23,4107.69,4217.44,0
12_27_2,121,4102.05,4098.46,4104.1,4088.21,4105.13,4091.28,4094.87,4100,4101.03,4091.79,4106.67,4120.51,4092.82,4229.74,0
12_27_2,121,4102.05,4098.46,4104.1,4088.21,4105.13,4091.28,4094.87,4100,4101.03,4091.79,4106.67,4120.51,4092.82,4229.74,0
12_27_2,122,4104.62,4097.44,4107.69,4095.9,4107.18,4096.92,4092.82,4096.41,4100,4102.05,4111.28,4127.18,4080,4241.03,0
12_27_2,123,4109.23,4100.51,4109.23,4094.87,4108.72,4097.95,4096.92,4095.9,4104.62,4125.64,4101.03,4127.18,4087.69,4234.36,0
12_27_2,124,4100,4095.38,4101.54,4084.62,4105.13,4090.26,4092.31,4090.77,4094.36,4117.44,4085.13,4113.33,4097.95,4233.85,0
12_27_2,125,4090.77,4089.23,4099.49,4080,4097.44,4086.67,4091.28,4089.23,4086.67,4098.97,4080,4105.13,4094.87,4233.33,0
12_27_2,126,4092.31,4091.28,4101.54,4077.95,4093.85,4091.28,4095.38,4092.31,4094.87,4098.97,4081.03,4105.13,4088.21,4222.05,0
12_27_2,127,4094.36,4089.23,4092.31,4075.9,4094.36,4089.23,4092.31,4091.28,4097.44,4094.87,4085.13,4104.62,4085.64,4217.95,0
12_27_2,128,4089.74,4084.1,4089.23,4076.41,4088.72,4081.03,4088.72,4090.26,4089.74,4089.23,4092.82,4105.64,4080,4220.51,0
12_27_2,0,4081.54,4085.13,4091.28,4075.9,4086.15,4081.03,4090.26,4091.28,4087.69,4098.97,4089.74,4102.56,4071.28,4216.92,0
12_27_2,1,4083.59,4087.18,4089.23,4080.51,4097.44,4089.74,4090.77,4091.28,4091.28,4110.26,4081.54,4102.05,4075.9,4210.26,0
12_27_2,2,4093.85,4090.77,4096.41,4090.77,4106.15,4093.33,4090.26,4091.28,4094.36,4108.21,4088.21,4112.31,4089.74,4213.85,0
12_27_2,3,4095.9,4092.82,4105.13,4089.23,4101.54,4089.23,4091.28,4090.77,4093.33,4091.28,4095.38,4117.95,4089.74,4217.95,0
12_27_2,4,4090.26,4090.77,4101.54,4084.62,4098.97,4090.26,4091.79,4090.77,4087.18,4084.62,4091.28,4109.74,4081.03,4210.26,0
12_27_2,5,4090.77,4094.36,4102.05,4091.28,4105.13,4091.79,4090.77,4091.28,4086.15,4103.08,4089.74,4107.18,4083.59,4207.18,0
12_27_2,6,4095.9,4105.64,4108.21,4092.82,4104.62,4089.23,4090.77,4090.26,4089.74,4113.33,4093.33,4109.74,4087.18,4216.41,0
12_27_2,7,4101.03,4108.72,4107.69,4091.79,4100.51,4088.72,4093.33,4091.79,4091.28,4106.67,4091.79,4112.82,4084.1,4221.54,0
12_27_2,8,4096.92,4095.9,4100,4091.79,4095.38,4089.23,4095.38,4092.82,4090.26,4102.56,4088.72,4115.9,4079.49,4214.36,0
12_27_2,9,4088.21,4088.72,4096.92,4085.13,4094.36,4090.26,4094.36,4093.85,4092.31,4097.95,4088.21,4117.44,4077.44,4211.79,0
12_27_2,10,4095.9,4098.46,4102.05,4082.05,4101.54,4094.36,4097.44,4095.9,4095.9,4097.95,4090.26,4118.97,4081.54,4218.97,0
12_27_2,11,4103.08,4101.54,4107.69,4090.26,4102.05,4095.38,4099.49,4096.92,4096.41,4105.64,4090.77,4116.92,4083.59,4217.44,0
12_27_2,12,4100.51,4096.41,4105.64,4092.82,4097.44,4090.26,4094.87,4091.79,4090.77,4101.54,4085.64,4109.74,4078.46,4206.15,0
12_27_2,13,4103.08,4103.08,4106.15,4090.77,4103.08,4089.23,4091.79,4086.15,4085.64,4102.05,4085.13,4107.69,4077.95,4203.08,0
12_27_3,14,4104.62,4110.26,4107.18,4091.79,4107.69,4090.26,4090.26,4086.15,4084.1,4106.15,4089.74,4107.18,4085.13,4202.56,0
12_27_3,15,4101.03,4107.18,4102.05,4092.82,4106.15,4090.77,4089.23,4087.18,4088.21,4101.03,4088.21,4102.56,4089.23,4195.38,0
12_27_3,16,4104.1,4107.69,4104.1,4094.87,4110.26,4092.82,4093.33,4089.23,4093.33,4105.13,4087.18,4105.13,4093.33,4190.26,0
12_27_3,17,4109.74,4107.69,4109.23,4095.38,4104.1,4091.79,4095.38,4092.82,4093.85,4110.77,4092.82,4111.79,4097.44,4191.28,0
12_27_3,18,4107.69,4103.59,4107.18,4093.33,4093.33,4089.23,4091.28,4092.31,4090.77,4104.62,4094.87,4113.33,4094.36,4188.72,0
12_27_3,19,4105.13,4105.64,4104.1,4090.77,4098.46,4090.26,4089.74,4090.77,4088.21,4097.44,4093.85,4116.92,4089.74,4179.49,0
12_27_3,20,4106.15,4107.69,4105.13,4092.31,4102.05,4091.28,4092.82,4093.85,4095.38,4101.54,4098.97,4123.08,4087.69,4171.79,0
12_27_3,21,4109.74,4108.21,4108.21,4096.92,4101.03,4094.36,4095.9,4096.41,4099.49,4110.77,4100,4127.18,4091.28,4166.67,0
12_27_3,22,4107.69,4106.15,4106.67,4094.87,4105.64,4097.44,4095.38,4092.82,4087.69,4106.15,4088.21,4124.1,4091.28,4156.41,0
12_27_3,23,4102.56,4100,4106.15,4091.79,4108.72,4093.85,4089.74,4088.21,4082.56,4090.26,4091.79,4120.51,4088.72,4150.77,0
12_27_3,24,4108.21,4103.59,4110.26,4092.31,4109.23,4086.67,4087.18,4090.26,4092.31,4097.95,4108.21,4128.72,4094.87,4165.64,0
12_27_3,25,4113.85,4111.79,4111.28,4094.36,4106.15,4082.56,4089.74,4091.28,4092.31,4111.28,4108.72,4135.38,4105.13,4184.1,0
12_27_3,26,4109.74,4102.05,4108.21,4095.9,4099.49,4078.46,4089.74,4092.31,4086.67,4105.13,4106.15,4130.77,4107.69,4173.33,0
12_27_3,27,4107.18,4092.82,4109.74,4096.92,4101.54,4080.51,4089.23,4098.46,4097.95,4112.31,4107.18,4124.1,4102.56,4146.67,0
12_27_3,28,4103.08,4102.05,4103.08,4091.79,4110.26,4088.72,4089.23,4098.46,4098.97,4117.95,4096.92,4116.41,4096.41,4129.23,0
12_27_3,29,4101.54,4110.26,4095.38,4087.69,4110.77,4090.26,4089.23,4091.79,4083.59,4102.56,4086.15,4108.21,4091.28,4125.13,0
12_27_3,30,4106.15,4108.21,4101.54,4091.79,4109.23,4089.23,4090.77,4094.36,4086.15,4105.13,4092.82,4109.74,4094.36,4120.51,0
12_27_3,31,4099.49,4105.13,4101.03,4092.31,4108.21,4091.28,4092.31,4096.92,4093.85,4109.74,4093.85,4109.23,4094.36,4106.67,0
12_27_3,32,4093.85,4105.13,4094.36,4090.26,4109.23,4093.85,4091.28,4093.85,4092.31,4101.03,4091.28,4102.56,4091.28,4102.05,0
12_27_3,33,4105.13,4107.18,4101.54,4092.31,4109.23,4092.31,4091.28,4096.41,4095.38,4110.26,4100.51,4105.13,4095.38,4107.69,0
12_27_3,34,4109.74,4110.77,4104.1,4090.77,4105.13,4089.23,4092.31,4097.44,4096.41,4119.49,4097.95,4106.67,4093.85,4102.56,0
12_27_3,35,4095.38,4103.59,4092.31,4085.13,4105.13,4088.72,4093.33,4091.28,4082.05,4100,4085.13,4094.87,4081.03,4084.62,0
12_27_3,36,4079.49,4088.72,4087.69,4080.51,4102.56,4088.72,4090.77,4088.72,4071.28,4083.59,4078.46,4084.62,4068.72,4069.23,0
12_27_3,37,4076.92,4084.62,4089.74,4080,4097.95,4086.67,4086.67,4087.18,4077.44,4086.67,4074.36,4084.62,4062.56,4064.1,0
12_27_3,38,4084.62,4091.28,4090.77,4082.05,4103.59,4087.69,4088.72,4088.72,4085.64,4090.77,4077.44,4090.77,4065.13,4070.26,0
12_27_3,39,4091.79,4097.95,4092.82,4088.21,4102.56,4093.33,4093.85,4094.36,4085.13,4094.36,4091.79,4100.51,4072.82,4077.44,0
12_27_3,40,4089.74,4097.44,4094.36,4086.67,4092.82,4093.33,4091.79,4089.23,4078.46,4095.9,4088.72,4104.1,4071.79,4074.87,0
12_27_3,41,4088.72,4093.33,4101.03,4083.59,4099.49,4091.28,4089.23,4084.62,4080,4090.77,4079.49,4102.56,4077.44,4075.9,0
12_27_3,42,4094.36,4091.28,4108.21,4097.44,4109.74,4098.97,4095.9,4095.9,4098.46,4096.41,4093.33,4111.28,4101.03,4085.64,0
12_27_3,43,4099.49,4093.33,4107.69,4109.23,4112.82,4108.21,4100,4102.05,4108.72,4107.69,4101.03,4125.13,4112.31,4089.74,0
12_27_3,44,4099.49,4094.87,4108.72,4098.97,4120.51,4105.64,4094.87,4091.28,4095.38,4110.77,4090.26,4122.56,4105.64,4086.15,0
12_27_3,45,4095.9,4090.77,4106.67,4089.23,4123.59,4098.46,4094.36,4090.77,4090.77,4106.15,4089.23,4110.26,4108.72,4080,0
12_27_3,46,4096.41,4092.82,4102.05,4090.77,4115.9,4096.41,4099.49,4100,4104.62,4103.59,4095.9,4107.18,4121.03,4076.92,0
12_27_3,47,4104.62,4102.56,4102.05,4089.23,4113.33,4095.9,4097.44,4096.92,4110.26,4111.79,4095.38,4110.26,4126.15,4084.1,0
12_27_3,48,4106.15,4103.59,4100,4080,4108.72,4090.77,4094.36,4088.21,4102.56,4114.87,4088.21,4106.67,4120.51,4085.64,0
12_27_3,49,4095.9,4091.79,4095.9,4076.41,4100.51,4088.72,4098.46,4094.36,4105.13,4110.26,4084.62,4102.56,4120,4075.9,0
12_27_3,50,4095.9,4089.23,4103.08,4082.56,4109.23,4099.49,4107.69,4109.23,4119.49,4114.87,4092.82,4109.23,4130.77,4074.87,0
12_27_3,51,4107.69,4105.64,4111.28,4094.36,4122.05,4109.74,4110.26,4108.72,4124.1,4112.82,4096.41,4114.87,4128.21,4076.41,0
12_27_3,52,4105.64,4113.33,4104.1,4094.36,4110.77,4100,4100,4096.41,4113.33,4088.72,4087.18,4108.72,4107.69,4066.15,0
12_27_3,53,4091.28,4100,4095.9,4084.1,4089.23,4085.64,4089.23,4085.64,4100.51,4081.03,4081.54,4102.56,4100,4062.05,0
12_27_3,54,4086.67,4090.77,4100.51,4083.59,4092.82,4087.18,4092.31,4083.59,4100.51,4097.44,4081.03,4103.59,4107.18,4070.77,0
12_27_3,55,4098.97,4101.54,4107.18,4091.28,4109.74,4094.36,4096.41,4087.69,4106.15,4095.9,4084.1,4108.72,4111.28,4080,0
12_27_3,56,4109.23,4109.74,4109.23,4093.85,4111.28,4093.33,4090.77,4090.26,4107.69,4090.77,4091.79,4115.9,4112.82,4091.28,0
12_27_3,57,4105.64,4104.1,4107.69,4092.31,4105.13,4095.38,4093.33,4091.28,4108.21,4092.31,4090.26,4116.41,4110.26,4094.36,0
12_27_3,58,4097.95,4098.97,4106.67,4089.74,4103.59,4102.05,4103.08,4092.82,4107.69,4081.03,4084.1,4106.67,4100.51,4083.08,0
12_27_3,59,4101.03,4100.51,4107.18,4090.26,4107.69,4105.64,4100,4092.31,4107.18,4084.1,4087.69,4103.59,4100,4081.03,0
12_27_3,60,4108.72,4112.31,4111.79,4100.51,4111.79,4104.1,4095.38,4091.79,4113.33,4106.15,4092.82,4110.77,4112.82,4098.46,0
12_27_3,61,4108.72,4121.54,4116.41,4106.15,4111.28,4105.13,4104.1,4095.9,4121.54,4113.33,4094.87,4114.87,4120.51,4108.21,0
12_27_3,62,4098.97,4112.31,4113.33,4095.9,4107.69,4107.69,4108.21,4097.44,4120.51,4100.51,4094.36,4109.23,4109.74,4096.92,0
12_27_3,63,4094.36,4104.1,4107.18,4093.33,4114.36,4107.69,4098.97,4093.33,4116.41,4098.46,4088.21,4103.08,4098.97,4088.72,0
12_27_3,64,4103.59,4110.26,4106.67,4103.08,4123.59,4107.18,4096.41,4092.31,4123.59,4109.74,4093.85,4108.72,4114.36,4097.95,0
12_27_3,65,4104.62,4112.31,4110.26,4100.51,4116.92,4106.67,4100.51,4092.31,4126.15,4108.72,4102.56,4113.33,4123.59,4101.54,0
12_27_3,66,4092.82,4107.18,4107.69,4092.82,4106.67,4105.13,4097.44,4090.77,4114.87,4101.54,4096.92,4103.59,4107.69,4089.23,0
12_27_3,67,4091.28,4109.23,4101.54,4095.9,4111.28,4103.59,4092.31,4089.23,4110.77,4104.1,4091.79,4097.44,4107.18,4090.26,0
12_27_3,68,4096.92,4111.28,4101.54,4095.9,4112.82,4103.59,4095.38,4093.85,4120,4110.26,4094.87,4104.62,4123.59,4105.13,0
12_27_3,69,4100,4105.13,4107.18,4094.36,4103.59,4105.13,4104.62,4103.59,4124.62,4113.33,4094.36,4110.26,4124.1,4108.72,0
12_27_3,70,4105.64,4104.1,4109.23,4101.54,4109.23,4108.72,4109.23,4103.59,4123.08,4117.44,4094.36,4110.26,4118.97,4105.13,0
12_27_3,71,4110.26,4112.31,4111.28,4109.74,4124.1,4109.74,4107.69,4094.36,4124.62,4110.77,4103.59,4116.41,4123.59,4108.72,0
12_27_3,72,4109.74,4113.33,4115.38,4103.59,4127.18,4110.26,4105.64,4091.28,4125.64,4103.59,4105.64,4121.03,4122.56,4108.72,0
12_27_3,73,4106.67,4106.67,4115.38,4090.77,4112.31,4107.18,4102.56,4091.28,4118.46,4111.28,4090.77,4114.36,4113.85,4097.95,0
12_27_3,74,4097.44,4101.54,4114.36,4088.72,4094.36,4098.97,4097.95,4088.72,4107.69,4109.74,4077.95,4106.15,4105.13,4086.67,0
12_27_3,75,4088.21,4093.33,4113.33,4092.31,4092.82,4094.36,4095.38,4088.72,4104.1,4095.38,4081.54,4104.62,4101.54,4084.1,0
12_27_3,76,4094.36,4086.15,4114.36,4092.31,4104.1,4095.38,4099.49,4091.79,4108.21,4095.38,4091.28,4108.72,4099.49,4086.67,0
12_27_3,77,4105.64,4096.41,4117.95,4091.28,4113.33,4094.87,4101.03,4091.79,4110.77,4109.23,4093.33,4111.79,4098.97,4088.21,0
12_27_3,78,4106.67,4108.72,4114.36,4090.77,4108.72,4095.38,4102.05,4091.79,4108.21,4109.23,4089.74,4111.28,4100.51,4088.72,0
12_27_3,79,4103.08,4103.08,4105.13,4092.82,4098.97,4100,4104.1,4097.95,4107.18,4093.85,4083.59,4108.21,4101.03,4088.21,0
12_27_3,80,4105.64,4101.03,4108.72,4102.05,4108.21,4106.15,4108.72,4105.64,4115.9,4095.9,4085.64,4112.82,4102.56,4090.26,0
12_27_3,81,4111.28,4111.79,4118.46,4108.72,4128.21,4112.82,4113.85,4109.23,4125.13,4113.33,4097.95,4123.08,4107.18,4092.31,0
12_27_3,82,4108.72,4114.87,4112.82,4106.15,4124.62,4109.74,4109.74,4104.1,4117.95,4115.38,4098.97,4121.03,4107.18,4091.79,0
12_27_3,83,4105.13,4107.18,4107.69,4101.54,4105.13,4101.03,4103.59,4093.85,4105.64,4101.03,4092.31,4111.79,4105.64,4091.28,0
12_27_3,84,4106.67,4101.03,4108.72,4096.41,4102.56,4103.08,4105.64,4090.26,4106.67,4097.44,4094.36,4111.79,4107.69,4088.21,0
12_27_3,85,4101.03,4094.87,4106.67,4093.85,4108.21,4104.1,4106.67,4092.31,4110.77,4100.51,4090.26,4113.33,4101.03,4080,0
12_27_3,86,4089.74,4091.79,4105.64,4091.28,4104.62,4097.95,4101.54,4092.31,4107.69,4097.95,4077.44,4107.69,4090.77,4075.9,0
12_27_3,87,4088.21,4092.31,4106.67,4086.15,4101.03,4094.87,4101.03,4087.69,4103.08,4098.97,4075.38,4104.62,4091.28,4077.95,0
12_27_3,88,4092.31,4089.23,4103.08,4082.56,4099.49,4094.36,4099.49,4082.56,4097.44,4102.05,4076.41,4101.03,4090.26,4069.23,0
12_27_3,89,4091.28,4090.77,4102.56,4084.1,4090.77,4093.85,4097.44,4084.1,4092.82,4093.85,4071.28,4095.38,4088.72,4062.56,0
12_27_3,90,4088.72,4091.79,4107.18,4088.21,4086.15,4095.9,4100.51,4090.26,4098.46,4081.03,4069.74,4092.82,4093.33,4070.26,0
12_27_3,91,4089.23,4086.15,4106.15,4090.77,4101.03,4097.44,4104.1,4092.31,4105.64,4091.79,4078.46,4094.36,4092.31,4073.33,0
12_27_3,92,4092.82,4093.33,4104.62,4090.77,4113.33,4100.51,4102.05,4091.28,4107.18,4109.74,4089.23,4102.05,4094.36,4072.82,0
12_27_3,93,4095.9,4105.13,4107.69,4092.82,4109.74,4103.08,4096.41,4092.82,4107.18,4108.21,4087.18,4103.59,4100.51,4071.28,0
12_27_3,94,4091.28,4097.44,4104.62,4091.28,4106.67,4095.9,4098.97,4090.26,4105.13,4105.13,4072.31,4094.87,4094.36,4064.62,0
12_27_3,95,4087.69,4085.13,4100,4083.59,4103.08,4092.82,4106.15,4089.74,4106.15,4109.74,4077.95,4098.46,4096.92,4067.69,0
12_27_3,96,4090.77,4090.77,4102.05,4082.05,4096.92,4097.95,4105.64,4100,4114.87,4107.18,4100,4109.23,4116.41,4077.95,0
12_27_3,97,4094.87,4100,4105.64,4094.36,4101.54,4097.95,4098.97,4101.54,4122.05,4105.64,4098.97,4106.67,4120,4075.9,0
12_27_3,98,4101.54,4102.05,4113.85,4107.18,4110.77,4102.05,4103.08,4097.44,4123.08,4117.44,4096.92,4112.82,4114.87,4080,0
12_27_3,99,4107.69,4101.54,4123.08,4108.21,4111.28,4109.74,4109.74,4103.08,4123.59,4124.1,4108.72,4126.15,4116.92,4086.67,0
12_27_3,100,4108.21,4104.62,4123.08,4105.64,4108.72,4110.26,4111.79,4109.74,4123.59,4125.64,4105.64,4126.15,4115.9,4082.05,0
12_27_3,101,4111.28,4109.23,4123.59,4110.26,4108.21,4110.77,4113.85,4108.72,4123.08,4127.69,4094.87,4123.59,4116.92,4086.15,0
12_27_3,102,4109.23,4097.95,4124.62,4109.23,4109.23,4114.36,4112.31,4104.62,4115.9,4114.36,4094.87,4118.97,4106.67,4085.13,0
12_27_3,103,4091.79,4079.49,4111.28,4098.46,4106.15,4104.62,4103.08,4095.9,4101.54,4095.38,4086.67,4098.97,4080.51,4058.46,0
12_27_3,104,4077.95,4078.97,4095.38,4089.74,4102.56,4091.79,4093.33,4083.08,4092.82,4096.41,4071.79,4081.03,4077.44,4043.08,0
12_27_3,105,4078.46,4087.18,4093.33,4087.18,4096.92,4089.74,4091.28,4075.9,4089.23,4098.97,4068.21,4077.44,4087.69,4049.23,0
12_27_3,106,4076.92,4085.64,4091.79,4087.69,4086.15,4090.26,4092.31,4074.36,4083.59,4087.18,4065.64,4073.85,4081.03,4049.23,0
12_27_3,107,4078.97,4084.1,4090.26,4090.77,4093.85,4094.36,4091.79,4080.51,4085.13,4082.56,4067.18,4075.9,4081.03,4043.08,0
12_27_3,108,4086.67,4091.28,4095.9,4092.31,4111.79,4098.46,4090.26,4085.64,4092.82,4089.74,4078.46,4087.69,4094.36,4049.23,0
12_27_3,109,4088.21,4093.33,4097.44,4089.74,4103.08,4096.92,4091.28,4084.1,4091.79,4101.54,4079.49,4090.77,4096.41,4068.21,0
12_27_3,110,4087.18,4090.26,4096.41,4091.28,4094.87,4097.95,4093.33,4089.23,4093.85,4109.23,4075.9,4088.72,4093.85,4080.51,0
12_27_3,111,4085.13,4091.28,4100,4092.82,4109.74,4107.18,4095.9,4093.85,4098.97,4100,4079.49,4089.74,4092.31,4078.97,0
12_27_3,112,4086.15,4093.85,4105.64,4094.36,4115.38,4109.23,4095.9,4089.74,4094.36,4092.31,4083.59,4093.85,4090.77,4094.87,0
12_27_3,113,4090.77,4094.87,4106.15,4094.36,4098.97,4101.54,4092.31,4089.74,4091.79,4093.33,4088.21,4102.56,4092.31,4124.62,0
12_27_3,114,4087.18,4088.72,4100,4085.64,4087.69,4097.44,4091.28,4089.74,4091.28,4083.59,4084.1,4103.08,4088.21,4130.26,0
12_27_3,115,4082.56,4085.13,4100,4083.08,4096.92,4096.92,4091.79,4082.05,4088.21,4081.03,4074.87,4095.38,4083.59,4111.79,0
12_27_3,116,4089.74,4092.31,4108.72,4097.44,4101.03,4093.85,4092.82,4083.59,4091.79,4090.77,4083.08,4103.59,4083.08,4095.9,0
12_27_3,117,4091.79,4089.23,4108.21,4104.1,4094.36,4092.82,4094.36,4091.28,4095.38,4087.18,4099.49,4115.38,4077.95,4092.31,0
12_27_3,118,4081.54,4072.82,4099.49,4093.85,4097.44,4100.51,4093.33,4090.26,4090.26,4085.13,4091.28,4106.67,4078.46,4089.23,0
12_27_3,119,4084.1,4086.15,4096.92,4091.28,4115.38,4109.74,4094.87,4087.69,4090.26,4108.72,4075.38,4099.49,4096.92,4078.97,0
12_27_3,120,4094.36,4115.38,4097.95,4093.85,4118.97,4105.64,4096.92,4092.82,4096.92,4123.08,4076.41,4104.1,4112.31,4074.87,0
12_27_3,121,4091.79,4109.74,4093.33,4084.1,4102.56,4094.87,4093.33,4094.87,4094.87,4108.72,4081.54,4101.54,4109.23,4077.44,0
12_27_3,122,4080.51,4090.77,4091.79,4082.05,4088.21,4091.28,4090.26,4091.28,4089.74,4091.79,4087.18,4096.92,4098.46,4069.23,0
12_27_3,123,4075.38,4091.79,4091.79,4087.69,4088.21,4094.36,4091.79,4089.74,4089.23,4085.13,4091.28,4095.9,4089.74,4057.44,0
12_27_3,124,4076.41,4093.85,4090.77,4084.1,4093.33,4093.33,4092.82,4091.79,4089.74,4085.64,4088.72,4095.38,4087.18,4056.92,0
12_27_3,125,4080,4092.82,4090.26,4084.1,4094.36,4092.31,4091.79,4092.82,4092.31,4086.67,4091.79,4103.08,4095.38,4066.67,0
12_27_3,126,4085.13,4095.9,4095.38,4093.33,4096.41,4094.87,4093.33,4090.26,4091.79,4094.36,4099.49,4112.31,4103.59,4075.38,0
12_27_3,127,4090.26,4100,4103.08,4096.92,4100.51,4094.87,4093.85,4090.77,4092.31,4109.23,4097.95,4113.33,4106.15,4075.9,0
12_27_3,128,4094.36,4103.59,4110.26,4095.38,4100.51,4092.82,4093.33,4095.9,4097.44,4116.41,4094.36,4112.82,4109.23,4075.9,0
12_27_3,0,4089.74,4100,4107.18,4096.41,4097.95,4092.82,4094.36,4098.46,4100,4100.51,4095.9,4111.79,4110.26,4068.72,0
12_27_3,1,4083.08,4095.9,4098.97,4094.87,4100.51,4092.31,4092.31,4092.31,4092.31,4082.56,4092.31,4106.67,4105.64,4057.44,0
12_27_3,2,4088.21,4104.62,4101.03,4091.79,4106.15,4091.79,4089.74,4088.72,4087.18,4093.85,4091.28,4106.67,4107.69,4064.1,0
12_27_3,3,4095.38,4112.31,4101.54,4091.28,4103.08,4093.33,4093.33,4091.79,4091.28,4110.26,4098.97,4109.23,4114.87,4073.85,0
12_27_3,4,4090.26,4110.77,4097.44,4092.31,4100,4101.03,4095.38,4093.33,4094.87,4111.28,4099.49,4106.15,4111.79,4065.13,0
12_27_3,5,4082.56,4108.21,4096.92,4093.33,4107.18,4105.64,4092.82,4093.33,4097.44,4111.28,4096.41,4104.62,4111.28,4056.92,0
12_27_3,6,4080.51,4108.21,4096.92,4088.72,4107.18,4103.08,4094.87,4096.41,4096.41,4107.69,4102.05,4106.67,4115.9,4058.97,0
12_27_3,7,4081.03,4106.15,4092.31,4087.18,4094.87,4098.97,4097.95,4101.03,4093.33,4100.51,4110.77,4106.67,4111.79,4060.51,0
12_27_3,8,4082.05,4100,4091.28,4085.13,4092.82,4094.87,4092.31,4098.97,4094.87,4110.77,4108.21,4108.21,4107.69,4059.49,0
12_27_3,9,4077.95,4090.77,4090.77,4076.92,4097.44,4090.77,4089.74,4096.41,4097.95,4124.1,4095.9,4104.1,4110.77,4054.87,0
12_27_3,10,4072.31,4088.72,4087.69,4072.82,4092.82,4090.77,4092.31,4096.41,4093.85,4108.72,4086.67,4095.9,4110.77,4049.23,0
12_27_3,11,4078.97,4096.92,4090.77,4082.56,4088.21,4095.38,4092.31,4097.95,4091.28,4090.77,4091.28,4100.51,4108.72,4055.38,0
12_27_3,12,4090.26,4099.49,4095.38,4093.33,4096.41,4096.92,4097.95,4103.59,4096.92,4105.64,4100.51,4109.74,4108.72,4063.08,0
12_27_4,13,4091.28,4098.46,4098.46,4091.28,4102.56,4092.31,4102.05,4106.67,4097.95,4126.67,4096.41,4106.67,4107.18,4061.54,0
12_27_4,14,4088.72,4101.54,4102.56,4084.62,4094.36,4090.77,4098.97,4105.13,4096.92,4125.13,4087.18,4101.03,4107.18,4058.46,0
12_27_4,15,4091.79,4105.64,4104.62,4088.21,4093.33,4099.49,4100.51,4103.59,4098.97,4109.74,4090.77,4106.67,4112.31,4060,0
12_27_4,16,4093.85,4101.54,4105.64,4092.82,4102.56,4104.1,4104.1,4104.62,4096.92,4095.9,4100.51,4112.31,4110.26,4060.51,0
12_27_4,17,4090.26,4089.74,4107.18,4087.69,4102.05,4098.97,4101.54,4105.13,4090.26,4093.85,4092.82,4109.74,4096.92,4057.44,0
12_27_4,18,4093.85,4090.77,4108.72,4085.64,4098.46,4100.51,4103.59,4104.62,4090.26,4101.03,4085.64,4111.28,4094.36,4062.56,0
12_27_4,19,4101.54,4103.08,4108.72,4092.31,4105.13,4106.15,4105.13,4105.64,4098.97,4111.79,4100.51,4121.54,4108.72,4074.36,0
12_27_4,20,4102.56,4110.26,4107.69,4094.87,4111.28,4108.21,4099.49,4107.18,4107.69,4117.44,4108.72,4125.64,4116.92,4078.46,0
12_27_4,21,4098.46,4106.67,4107.69,4091.28,4106.15,4108.21,4100,4102.56,4105.13,4110.26,4096.41,4117.44,4110.77,4070.77,0
12_27_4,22,4091.79,4097.95,4103.08,4085.13,4098.97,4101.03,4100.51,4091.28,4087.69,4093.33,4085.13,4107.18,4098.46,4060,0
12_27_4,23,4088.21,4093.33,4096.41,4086.67,4102.56,4091.28,4095.9,4088.21,4081.54,4089.74,4080.51,4098.46,4099.49,4058.46,0
12_27_4,24,4090.77,4094.36,4093.85,4093.85,4107.69,4095.9,4096.41,4092.82,4088.72,4096.92,4080,4093.33,4106.67,4059.49,0
12_27_4,25,4088.72,4090.77,4093.33,4090.77,4106.67,4102.05,4097.95,4092.82,4091.28,4098.46,4087.18,4093.85,4098.46,4056.41,0
12_27_4,26,4083.59,4088.21,4091.28,4084.62,4104.62,4100,4095.9,4091.79,4092.31,4102.56,4089.23,4096.41,4093.85,4057.95,0
12_27_4,27,4082.05,4093.85,4090.26,4082.56,4098.46,4097.44,4095.38,4093.33,4091.79,4103.59,4076.92,4096.41,4101.03,4056.41,0
12_27_4,28,4075.9,4091.28,4088.72,4080.51,4087.69,4093.85,4094.36,4092.31,4085.64,4095.38,4070.77,4092.31,4094.87,4043.59,0
12_27_4,29,4075.9,4081.54,4088.72,4083.59,4094.87,4092.82,4091.79,4090.77,4083.59,4094.87,4077.95,4095.9,4089.23,4062.05,0
12_27_4,30,4087.69,4088.21,4095.38,4089.23,4107.18,4096.92,4095.38,4091.79,4091.79,4097.95,4086.67,4106.15,4096.92,4111.28,0
12_27_4,31,4085.64,4093.85,4095.38,4082.05,4096.41,4093.33,4096.41,4091.79,4090.77,4091.28,4083.08,4104.62,4088.72,4129.23,0
12_27_4,32,4076.92,4083.59,4086.67,4072.31,4085.64,4087.69,4091.28,4087.69,4080.51,4087.69,4070.77,4097.95,4074.87,4117.44,0
12_27_4,33,4085.13,4081.03,4092.31,4080.51,4093.33,4095.38,4093.33,4085.64,4083.08,4095.38,4070.77,4104.62,4085.64,4118.97,0
12_27_4,34,4094.36,4093.33,4104.62,4089.23,4096.41,4105.13,4097.95,4091.28,4093.33,4100.51,4080.51,4115.38,4097.95,4126.67,0
12_27_4,35,4096.41,4093.85,4102.05,4087.18,4093.33,4105.64,4096.41,4098.46,4091.79,4095.9,4085.13,4117.95,4091.79,4124.1,0
12_27_4,36,4104.1,4089.23,4101.54,4089.23,4102.56,4105.13,4098.46,4103.59,4091.28,4091.79,4091.28,4122.05,4091.79,4126.67,0
12_27_4,37,4107.69,4094.36,4110.77,4095.38,4112.31,4108.72,4107.18,4111.28,4106.67,4098.97,4097.95,4126.67,4104.62,4131.28,0
12_27_4,38,4101.54,4097.95,4107.69,4090.26,4106.67,4106.15,4107.69,4110.26,4110.77,4108.21,4088.72,4119.49,4110.26,4129.23,0
12_27_4,39,4102.56,4094.87,4103.08,4085.13,4094.87,4098.97,4101.03,4101.54,4100,4108.21,4078.46,4113.85,4108.21,4123.59,0
12_27_4,40,4104.1,4088.72,4107.18,4087.69,4091.79,4098.97,4097.44,4096.92,4099.49,4102.56,4085.13,4113.85,4110.77,4118.97,0
12_27_4,41,4092.82,4080,4103.08,4084.1,4093.33,4099.49,4095.38,4093.33,4099.49,4087.69,4090.77,4111.28,4107.18,4116.41,0
12_27_4,42,4087.18,4075.9,4097.95,4083.59,4094.36,4096.41,4095.38,4089.74,4091.79,4080,4080,4107.69,4100.51,4118.97,0
12_27_4,43,4097.44,4082.56,4104.62,4091.28,4100,4098.46,4097.95,4089.74,4096.41,4096.41,4077.95,4112.31,4111.79,4130.77,0
12_27_4,44,4104.62,4088.72,4107.18,4090.26,4108.72,4104.1,4100.51,4092.82,4107.69,4110.26,4090.77,4120,4124.1,4133.33,0
12_27_4,45,4102.56,4092.82,4105.13,4087.18,4106.67,4108.72,4104.62,4100.51,4117.44,4107.69,4094.87,4123.08,4124.1,4130.77,0
12_27_4,46,4106.15,4101.54,4108.21,4096.92,4102.05,4111.28,4109.23,4109.23,4123.59,4107.69,4092.31,4125.13,4121.54,4134.87,0
12_27_4,47,4109.23,4102.05,4109.23,4101.54,4113.33,4112.31,4105.13,4103.59,4116.41,4106.15,4093.33,4120.51,4117.44,4131.28,0
12_27_4,48,4105.13,4093.33,4106.67,4092.31,4122.05,4113.33,4095.38,4088.72,4103.08,4099.49,4085.64,4110.26,4110.26,4120.51,0
12_27_4,49,4104.62,4095.38,4107.18,4088.21,4113.33,4114.36,4100,4089.23,4106.15,4101.54,4073.33,4108.72,4111.28,4122.05,0
12_27_4,50,4108.21,4102.56,4108.21,4093.85,4101.54,4110.77,4108.72,4094.87,4111.28,4093.33,4080,4112.82,4114.36,4125.13,0
12_27_4,51,4103.59,4093.33,4106.67,4094.87,4102.05,4106.67,4100.51,4089.74,4103.08,4079.49,4089.23,4110.26,4109.23,4115.9,0
12_27_4,52,4095.38,4085.64,4103.59,4088.21,4113.33,4109.23,4093.33,4086.15,4102.05,4093.33,4083.59,4108.21,4107.69,4110.26,0
12_27_4,53,4087.69,4087.18,4096.92,4077.95,4114.36,4110.77,4098.46,4089.23,4109.23,4102.05,4075.9,4103.08,4105.13,4103.08,0
12_27_4,54,4079.49,4082.56,4089.74,4070.77,4104.1,4105.13,4096.92,4088.72,4102.56,4086.15,4070.26,4093.33,4098.46,4093.85,0
12_27_4,55,4083.08,4083.08,4095.9,4078.97,4101.54,4104.1,4096.92,4090.77,4103.59,4091.28,4077.95,4102.56,4101.54,4100,0
12_27_4,56,4096.92,4094.87,4109.74,4092.82,4109.74,4110.26,4109.23,4097.95,4122.05,4106.15,4094.36,4120,4110.77,4110.26,0
12_27_4,57,4097.95,4095.38,4109.74,4090.77,4106.67,4110.77,4107.18,4093.85,4121.03,4094.87,4093.33,4112.82,4107.18,4107.69,0
12_27_4,58,4094.87,4088.21,4102.56,4083.08,4102.05,4104.62,4096.41,4092.31,4108.21,4090.26,4085.13,4102.56,4102.05,4104.1,0
12_27_4,59,4107.18,4097.44,4108.72,4091.28,4113.33,4107.69,4104.1,4104.1,4119.49,4108.21,4094.87,4117.95,4116.41,4111.28,0
12_27_4,60,4113.85,4109.74,4115.38,4101.03,4116.41,4114.36,4109.23,4103.59,4124.1,4113.85,4099.49,4126.15,4125.13,4114.36,0
12_27_4,61,4104.62,4104.62,4110.26,4094.36,4104.1,4110.77,4098.46,4089.74,4105.64,4103.08,4091.79,4111.79,4109.74,4107.18,0
12_27_4,62,4103.59,4097.95,4108.21,4089.74,4096.92,4105.13,4096.92,4095.38,4106.15,4099.49,4092.82,4110.26,4106.15,4104.1,0
12_27_4,63,4108.72,4097.95,4111.28,4093.85,4095.9,4108.21,4106.15,4106.67,4119.49,4103.08,4093.33,4117.44,4118.46,4108.21,0
12_27_4,64,4102.56,4094.36,4109.23,4093.85,4099.49,4109.74,4105.13,4105.13,4120,4108.21,4090.26,4112.31,4115.38,4108.21,0
12_27_4,65,4097.95,4091.79,4105.13,4091.28,4105.13,4106.67,4101.03,4103.59,4122.05,4112.31,4093.85,4112.82,4107.69,4103.08,0
12_27_4,66,4101.03,4095.9,4106.15,4090.77,4104.1,4106.15,4101.54,4099.49,4122.05,4106.15,4095.38,4118.46,4111.79,4098.97,0
12_27_4,67,4100.51,4095.38,4107.18,4090.77,4097.95,4106.67,4099.49,4092.31,4110.26,4098.97,4089.23,4112.31,4112.31,4094.36,0
12_27_4,68,4094.87,4091.28,4106.67,4090.77,4092.82,4101.03,4095.9,4094.87,4110.77,4102.05,4088.21,4106.15,4107.69,4093.33,0
12_27_4,69,4089.23,4090.77,4107.18,4089.23,4086.67,4094.87,4093.33,4096.41,4117.95,4104.62,4089.23,4107.69,4105.64,4094.87,0
12_27_4,70,4092.31,4090.77,4105.13,4088.72,4093.33,4095.9,4094.36,4093.85,4114.87,4104.1,4092.31,4110.77,4105.64,4094.87,0
12_27_4,71,4103.08,4098.97,4106.15,4091.28,4103.59,4104.62,4098.97,4099.49,4114.87,4107.69,4100.51,4117.44,4108.72,4095.9,0
12_27_4,72,4106.15,4104.62,4109.23,4093.33,4098.46,4106.15,4100.51,4103.08,4121.54,4110.77,4103.08,4125.64,4109.74,4096.41,0
12_27_4,73,4099.49,4095.9,4107.69,4092.31,4099.49,4097.44,4094.36,4094.87,4116.41,4106.67,4094.87,4121.03,4105.13,4091.28,0
12_27_4,74,4102.05,4094.87,4106.67,4092.82,4106.15,4093.85,4091.79,4090.77,4105.13,4100.51,4089.23,4112.31,4106.15,4090.77,0
12_27_4,75,4110.77,4107.18,4109.23,4096.41,4092.31,4097.95,4095.9,4093.85,4104.62,4096.92,4093.33,4113.85,4111.79,4095.9,0
12_27_4,76,4107.69,4109.74,4109.23,4097.44,4085.64,4097.44,4094.36,4093.33,4107.69,4104.1,4098.97,4117.95,4111.28,4094.36,0
12_27_4,77,4101.03,4101.03,4106.67,4094.87,4104.1,4096.41,4091.79,4089.23,4105.13,4109.74,4096.92,4114.36,4105.13,4090.77,0
12_27_4,78,4097.44,4093.33,4106.15,4093.85,4111.28,4103.08,4099.49,4093.85,4104.62,4106.67,4092.31,4109.23,4102.56,4089.74,0
12_27_4,79,4097.44,4092.82,4106.67,4096.41,4100.51,4108.21,4104.62,4106.15,4109.74,4106.67,4089.74,4109.74,4108.21,4087.69,0
12_27_4,80,4098.46,4097.95,4106.15,4096.41,4098.46,4106.15,4102.56,4108.21,4115.38,4106.67,4089.23,4107.18,4110.77,4081.54,0
12_27_4,81,4094.36,4097.44,4104.1,4093.33,4097.44,4103.59,4100.51,4103.08,4113.33,4100.51,4091.28,4104.62,4099.49,4078.97,0
12_27_4,82,4091.79,4091.28,4102.56,4092.82,4089.23,4102.56,4098.46,4099.49,4105.64,4102.05,4090.26,4104.62,4091.79,4083.59,0
12_27_4,83,4103.08,4095.38,4105.13,4094.87,4092.82,4104.1,4100,4099.49,4105.64,4107.69,4090.77,4107.18,4101.54,4090.26,0
12_27_4,84,4111.79,4104.1,4108.72,4098.46,4107.18,4106.67,4103.59,4104.62,4114.36,4107.18,4098.46,4115.9,4110.77,4092.31,0
12_27_4,85,4098.97,4101.54,4105.64,4097.44,4104.62,4102.56,4097.44,4101.54,4112.31,4105.13,4095.9,4113.85,4103.59,4082.56,0
12_27_4,86,4091.79,4095.9,4103.08,4095.38,4089.23,4098.97,4092.82,4094.36,4102.56,4108.72,4084.62,4105.64,4099.49,4076.41,0
12_27_4,87,4103.08,4101.54,4105.64,4097.95,4092.31,4104.62,4100.51,4103.08,4108.21,4110.26,4089.74,4109.23,4106.67,4085.13,0
12_27_4,88,4106.15,4109.23,4107.18,4103.08,4103.08,4108.21,4104.1,4107.69,4116.41,4106.67,4096.41,4113.85,4108.72,4092.82,0
12_27_4,89,4097.95,4101.03,4105.64,4100.51,4098.97,4109.23,4104.1,4097.44,4109.23,4103.59,4084.62,4111.79,4104.62,4085.64,0
12_27_4,90,4092.31,4085.13,4102.56,4091.28,4096.41,4109.23,4109.23,4098.97,4108.72,4101.54,4082.05,4109.74,4095.38,4076.92,0
12_27_4,91,4094.36,4085.64,4102.56,4095.9,4105.13,4109.74,4108.21,4110.26,4117.95,4104.1,4092.31,4110.77,4090.77,4080,0
12_27_4,92,4100.51,4100,4105.64,4105.13,4110.77,4117.95,4108.21,4109.74,4115.9,4113.85,4088.21,4111.28,4102.05,4083.08,0
12_27_4,93,4101.03,4102.56,4101.54,4094.87,4106.15,4118.97,4107.69,4100.51,4106.67,4108.72,4076.92,4105.13,4105.13,4073.85,0
12_27_4,94,4090.77,4091.28,4093.85,4081.54,4094.36,4105.13,4098.97,4091.79,4097.44,4090.77,4071.79,4096.41,4088.72,4067.18,0
12_27_4,95,4087.18,4086.15,4093.33,4088.21,4085.64,4101.03,4093.85,4088.72,4090.77,4085.64,4076.41,4100,4080.51,4068.21,0
12_27_4,96,4093.33,4090.26,4095.9,4095.38,4090.77,4107.69,4095.9,4091.79,4090.77,4088.21,4083.59,4106.67,4086.15,4069.74,0
12_27_4,97,4093.85,4097.44,4091.79,4087.69,4104.62,4109.23,4099.49,4089.74,4093.85,4087.69,4082.05,4104.1,4088.72,4071.79,0
12_27_4,98,4098.46,4106.15,4091.28,4085.64,4109.74,4108.21,4102.05,4092.31,4096.92,4100,4082.05,4105.13,4094.87,4076.92,0
12_27_4,99,4104.1,4106.67,4097.95,4093.33,4102.56,4108.21,4102.05,4103.08,4106.15,4109.74,4090.26,4108.72,4103.08,4077.95,0
12_27_4,100,4102.05,4098.46,4100.51,4094.87,4097.44,4107.69,4095.9,4107.69,4110.77,4100.51,4093.85,4110.77,4100.51,4074.87,0
12_27_4,101,4101.54,4094.36,4098.46,4092.82,4102.05,4108.72,4097.95,4105.64,4105.64,4098.97,4091.28,4115.9,4095.9,4074.36,0
12_27_4,102,4105.64,4095.9,4101.03,4092.31,4104.1,4107.69,4106.15,4107.18,4106.15,4103.59,4092.31,4118.97,4093.85,4076.41,0
12_27_4,103,4107.18,4094.87,4106.15,4092.82,4102.05,4104.62,4103.08,4109.23,4109.23,4099.49,4092.82,4118.46,4090.77,4076.92,0
12_27_4,104,4105.64,4092.82,4107.18,4091.79,4104.62,4105.13,4099.49,4107.69,4107.18,4098.46,4090.26,4115.38,4089.23,4075.38,0
12_27_4,105,4106.67,4098.97,4109.74,4090.77,4107.18,4106.67,4102.05,4106.15,4103.59,4104.62,4089.74,4110.77,4091.79,4074.36,0
12_27_4,106,4109.23,4105.64,4113.33,4096.41,4105.64,4106.15,4106.67,4108.21,4107.69,4101.54,4091.79,4112.82,4093.85,4076.92,0
12_27_4,107,4107.69,4099.49,4110.77,4098.46,4104.62,4106.67,4105.13,4109.23,4111.79,4098.97,4091.28,4113.85,4089.74,4076.41,0
12_27_4,108,4103.59,4097.44,4107.69,4095.38,4102.56,4106.67,4096.92,4106.67,4106.67,4106.67,4087.69,4108.72,4088.21,4072.82,0
12_27_4,109,4105.13,4107.18,4109.74,4099.49,4102.05,4108.21,4097.95,4105.64,4104.62,4107.18,4087.18,4106.15,4093.85,4072.82,0
12_27_4,110,4108.21,4105.64,4109.23,4101.54,4102.56,4108.72,4104.62,4108.21,4108.72,4107.18,4085.13,4107.18,4096.41,4075.9,0
12_27_4,111,4105.13,4095.9,4106.67,4097.44,4097.44,4105.64,4100,4107.18,4108.21,4105.64,4083.08,4103.59,4092.82,4075.9,0
12_27_4,112,4103.59,4101.54,4106.15,4101.03,4097.44,4105.64,4094.36,4105.13,4104.1,4094.87,4087.69,4104.62,4089.23,4071.28,0
12_27_4,113,4105.13,4107.18,4106.67,4106.67,4106.67,4107.69,4102.05,4105.64,4106.15,4095.38,4093.85,4107.69,4091.79,4068.72,0
12_27_4,114,4108.21,4105.64,4110.26,4106.15,4109.23,4110.26,4109.23,4108.21,4111.79,4110.26,4094.36,4110.77,4100,4075.9,0
12_27_4,115,4109.74,4108.21,4112.82,4106.67,4102.56,4111.28,4107.69,4108.21,4110.26,4109.23,4092.82,4113.85,4101.54,4079.49,0
12_27_4,116,4100.51,4104.1,4107.18,4098.46,4096.41,4105.64,4101.03,4103.59,4104.62,4093.33,4090.77,4110.77,4093.33,4072.82,0
12_27_4,117,4094.36,4096.41,4102.56,4091.28,4096.92,4100.51,4095.38,4104.62,4105.13,4093.85,4091.28,4112.31,4095.9,4070.77,0
12_27_4,118,4102.05,4102.05,4107.18,4103.08,4103.59,4104.1,4102.05,4105.64,4108.72,4103.08,4095.9,4121.54,4103.08,4075.38,0
12_27_4,119,4111.79,4109.23,4108.21,4106.15,4108.21,4110.26,4109.23,4102.05,4107.69,4106.15,4095.38,4121.54,4096.41,4076.92,0
12_27_4,120,4105.64,4100.51,4102.05,4091.79,4106.67,4109.23,4101.03,4097.44,4106.15,4106.15,4094.36,4113.85,4092.82,4074.36,0
