TIME, ED_COUNTER, AF3, F7, F3, FC5, T7, P7, O1, O2, P8, T8, FC6, F4, F8, AF4, LABEL
11_56_12,89,4045.64,4088.21,4109.74,4185.13,4104.1,4104.62,4097.95,4099.49,4129.74,4071.79,4153.33,4218.46,4104.1,4076.92,0
11_56_12,90,4051.28,4092.31,4111.79,4187.69,4102.56,4092.31,4089.74,4088.21,4123.59,4074.87,4162.05,4215.38,4114.36,4086.67,0
11_56_12,91,4048.72,4084.62,4112.31,4186.67,4094.36,4084.1,4088.72,4090.77,4138.46,4070.77,4162.56,4204.1,4123.08,4086.67,0
11_56_12,92,4047.69,4080,4110.26,4187.18,4087.69,4084.1,4089.23,4089.74,4130.26,4057.44,4157.95,4208.21,4120,4078.97,0
11_56_12,93,4059.49,4088.21,4111.79,4185.13,4092.31,4092.31,4094.87,4089.74,4108.72,4062.56,4168.21,4220.51,4124.1,4092.82,0
11_56_12,94,4062.05,4091.28,4114.87,4182.56,4098.97,4094.87,4098.46,4105.13,4118.97,4076.41,4173.33,4214.87,4128.72,4104.62,0
11_56_12,95,4054.87,4087.69,4114.36,4184.62,4093.85,4091.28,4093.33,4114.87,4137.44,4077.95,4168.21,4201.03,4124.1,4094.36,0
11_56_12,96,4050.77,4085.64,4111.79,4182.05,4088.72,4093.33,4090.26,4102.56,4132.82,4076.92,4170.77,4206.15,4118.97,4088.21,0
11_56_12,97,4047.69,4086.15,4110.26,4182.05,4101.03,4094.36,4085.64,4090.26,4122.05,4073.85,4165.13,4215.38,4111.28,4088.21,0
11_56_12,98,4045.13,4089.74,4110.77,4189.23,4109.74,4090.26,4082.56,4091.28,4122.05,4069.74,4160.51,4209.23,4104.62,4083.08,0
11_56_12,99,4045.13,4091.28,4110.26,4185.64,4103.08,4090.77,4089.23,4094.87,4125.64,4067.69,4167.18,4194.36,4103.59,4077.44,0
11_56_12,100,4044.62,4089.74,4111.79,4173.33,4092.82,4092.31,4094.87,4091.79,4123.08,4057.95,4161.54,4191.79,4098.97,4073.33,0
11_56_12,101,4045.64,4089.74,4111.79,4171.79,4077.95,4089.74,4096.41,4092.82,4122.56,4057.95,4153.33,4196.92,4100.51,4074.36,0
11_56_12,102,4045.13,4081.54,4109.74,4170.77,4068.21,4089.23,4099.49,4103.59,4132.31,4071.79,4156.92,4194.36,4113.85,4076.92,0
11_56_12,103,4042.56,4075.9,4109.74,4164.1,4085.64,4093.33,4095.9,4111.79,4140.51,4076.41,4158.46,4188.21,4128.21,4074.87,0
11_56_12,104,4044.1,4087.18,4112.82,4167.69,4105.13,4091.79,4083.59,4107.18,4134.36,4080.51,4158.46,4184.1,4147.18,4072.82,0
11_56_12,105,4045.13,4088.21,4111.79,4173.85,4104.1,4089.23,4076.92,4096.92,4123.08,4092.31,4158.97,4183.59,4178.46,4073.85,0
11_56_12,106,4043.08,4071.79,4110.26,4168.72,4102.05,4090.77,4080.51,4098.46,4123.08,4089.23,4155.38,4182.05,4206.67,4074.36,0
11_56_12,107,4044.1,4074.87,4110.26,4166.15,4101.03,4088.72,4087.18,4106.67,4124.62,4074.36,4154.36,4175.38,4214.87,4071.79,0
11_56_12,108,4045.64,4089.23,4107.18,4168.72,4098.97,4088.21,4093.85,4104.62,4122.56,4068.21,4152.82,4170.77,4211.79,4065.64,0
11_56_12,109,4054.36,4091.28,4108.72,4169.23,4103.59,4098.46,4101.54,4110.26,4131.79,4077.44,4162.05,4189.74,4221.54,4074.87,0
11_56_12,110,4073.33,4097.44,4118.97,4169.74,4104.62,4110.26,4109.23,4128.21,4142.56,4092.31,4187.69,4218.46,4240.51,4101.03,0
11_56_12,111,4083.59,4103.59,4124.1,4172.82,4093.85,4105.64,4103.08,4128.21,4133.33,4094.87,4193.85,4215.9,4241.03,4110.77,0
11_56_12,112,4078.46,4093.33,4119.49,4172.82,4089.23,4090.77,4090.77,4120.51,4128.21,4086.15,4175.38,4200.51,4228.21,4097.44,0
11_56_12,113,4065.13,4081.03,4111.28,4168.21,4094.36,4090.26,4089.74,4121.03,4139.49,4078.46,4163.59,4195.38,4213.85,4082.56,0
11_56_12,114,4050.26,4078.97,4103.59,4159.49,4097.95,4103.08,4091.28,4112.82,4143.08,4083.08,4160.51,4186.67,4197.44,4069.74,0
11_56_12,115,4041.03,4077.44,4099.49,4154.36,4098.97,4109.23,4090.26,4108.21,4129.74,4091.79,4148.72,4168.72,4182.56,4056.92,0
11_56_12,116,4042.56,4082.56,4100.51,4159.49,4101.03,4101.03,4091.79,4112.82,4119.49,4088.21,4140.51,4156.41,4174.36,4054.36,0
11_56_12,117,4045.13,4088.21,4102.56,4157.44,4106.15,4093.33,4092.82,4106.15,4124.1,4076.41,4140,4156.92,4167.69,4057.95,0
11_56_12,118,4048.72,4089.23,4109.74,4153.85,4105.64,4099.49,4094.36,4101.03,4124.1,4069.74,4144.1,4167.69,4166.67,4064.1,0
11_56_12,119,4056.41,4087.18,4114.36,4162.56,4092.82,4103.59,4096.92,4104.1,4117.95,4067.69,4149.74,4172.82,4170.26,4075.38,0
11_56_12,120,4054.36,4077.95,4106.15,4160.51,4081.54,4093.33,4091.28,4093.85,4115.38,4061.03,4142.56,4156.92,4157.95,4069.23,0
11_56_12,121,4045.13,4082.56,4101.03,4151.79,4087.18,4087.18,4082.05,4084.62,4109.23,4050.26,4130.77,4150.26,4145.13,4051.79,0
11_56_12,122,4042.56,4096.41,4102.56,4152.82,4095.38,4094.36,4081.03,4094.36,4110.77,4049.74,4133.33,4159.49,4151.28,4051.28,0
11_56_12,123,4040,4089.23,4101.03,4153.85,4091.79,4098.97,4081.54,4101.54,4123.59,4063.59,4134.87,4151.79,4147.69,4050.77,0
11_56_12,124,4033.33,4077.44,4097.44,4149.74,4091.79,4095.38,4081.03,4106.67,4129.23,4079.49,4133.85,4138.97,4138.97,4042.56,0
11_56_12,125,4033.85,4080,4099.49,4149.74,4095.38,4092.82,4083.59,4121.03,4134.87,4093.85,4147.69,4148.21,4149.23,4048.72,0
11_56_12,126,4041.54,4085.13,4102.05,4151.79,4092.82,4090.77,4082.05,4127.18,4145.13,4098.46,4154.36,4161.54,4151.28,4056.92,0
11_56_12,127,4047.69,4090.77,4104.1,4153.33,4092.82,4088.21,4077.44,4109.74,4130.26,4086.67,4142.05,4155.9,4137.95,4050.77,0
11_56_12,128,4048.72,4096.92,4108.21,4154.87,4101.03,4089.23,4078.46,4090.26,4109.23,4073.33,4137.95,4150.26,4135.38,4051.28,0
11_56_13,0,4049.74,4095.9,4109.74,4151.28,4102.56,4091.79,4079.49,4082.56,4108.21,4066.15,4141.03,4154.36,4131.79,4058.97,0
11_56_13,1,4050.77,4092.31,4104.62,4145.64,4089.23,4089.74,4076.41,4080,4109.23,4062.05,4142.05,4156.41,4120.51,4056.92,0
11_56_13,2,4049.23,4090.77,4104.62,4141.54,4079.49,4082.56,4071.28,4086.15,4114.36,4064.1,4142.56,4152.31,4114.87,4051.28,0
11_56_13,3,4048.72,4092.31,4110.26,4148.21,4088.21,4083.08,4072.82,4101.54,4125.64,4072.82,4141.54,4149.74,4112.82,4051.28,0
11_56_13,4,4044.62,4088.72,4106.67,4151.79,4093.85,4090.26,4083.59,4110.26,4127.69,4081.54,4139.49,4151.28,4107.69,4048.72,0
11_56_13,5,4033.85,4080,4097.95,4136.92,4089.74,4095.9,4091.79,4107.69,4123.59,4085.13,4140.51,4149.74,4098.97,4041.03,0
11_56_13,6,4036.41,4084.62,4102.05,4132.82,4095.38,4104.62,4094.87,4105.64,4125.64,4083.08,4138.46,4150.77,4093.33,4040.51,0
11_56_13,7,4044.1,4095.38,4107.69,4145.64,4097.95,4103.59,4091.79,4110.77,4125.13,4072.82,4137.95,4154.36,4094.36,4043.08,0
11_56_13,8,4039.49,4093.33,4103.59,4145.64,4089.23,4087.18,4080.51,4110.77,4120.51,4067.69,4139.49,4147.69,4091.79,4038.97,0
11_56_13,9,4031.28,4083.08,4100.51,4136.41,4093.85,4083.59,4073.85,4106.67,4126.15,4078.46,4138.46,4137.44,4090.26,4036.92,0
11_56_13,10,4030.26,4075.38,4102.05,4135.38,4096.41,4092.82,4077.95,4107.18,4129.74,4087.69,4136.41,4134.87,4092.82,4038.97,0
11_56_13,11,4036.92,4083.59,4105.64,4138.97,4089.23,4089.74,4081.03,4107.69,4117.44,4075.9,4135.9,4135.38,4088.72,4041.54,0
11_56_13,12,4048.21,4101.03,4109.23,4142.05,4091.79,4085.13,4078.97,4106.67,4115.9,4071.28,4142.56,4134.87,4093.85,4051.79,0
11_56_13,13,4048.21,4096.92,4107.69,4136.92,4091.28,4088.21,4082.05,4100.51,4127.18,4078.97,4143.08,4128.21,4099.49,4053.33,0
11_56_13,14,4035.9,4084.62,4099.49,4132.82,4084.1,4091.28,4086.67,4088.72,4116.41,4068.21,4128.72,4113.85,4081.54,4036.41,0
11_56_13,15,4036.92,4094.36,4097.44,4140.51,4094.36,4095.9,4089.74,4092.82,4107.69,4064.1,4118.46,4109.74,4068.21,4027.69,0
11_56_13,16,4045.13,4110.26,4102.56,4146.67,4108.21,4100.51,4086.15,4112.31,4125.64,4079.49,4124.62,4119.49,4078.46,4035.9,0
11_56_13,17,4042.05,4103.08,4101.54,4137.44,4095.9,4091.79,4073.85,4111.28,4121.54,4071.28,4129.23,4122.56,4080.51,4036.41,0
11_56_13,18,4033.33,4085.13,4096.41,4126.67,4081.54,4084.1,4069.74,4096.41,4102.05,4056.92,4125.64,4122.05,4069.23,4029.23,0
11_56_13,19,4032.31,4083.08,4098.97,4131.28,4085.64,4087.18,4076.41,4092.31,4107.69,4071.28,4122.56,4121.03,4062.56,4026.67,0
11_56_13,20,4040,4091.79,4103.08,4136.41,4092.31,4087.18,4082.56,4091.79,4115.38,4076.92,4121.03,4116.41,4061.54,4028.72,0
11_56_13,21,4045.64,4094.36,4103.08,4127.69,4090.77,4079.49,4081.03,4090.26,4104.62,4061.54,4124.1,4115.9,4065.13,4034.36,0
11_56_13,22,4041.54,4088.72,4102.05,4118.97,4086.67,4077.95,4076.41,4089.23,4100,4060.51,4126.15,4120.51,4062.56,4036.92,0
11_56_13,23,4035.38,4084.62,4102.05,4124.1,4083.08,4081.03,4076.92,4089.23,4114.36,4065.13,4122.56,4120,4052.31,4032.82,0
11_56_13,24,4032.31,4082.05,4098.97,4125.64,4077.44,4078.46,4078.97,4091.28,4121.03,4056.41,4124.1,4120.51,4049.23,4031.28,0
11_56_13,25,4025.13,4076.41,4095.9,4116.41,4077.44,4075.9,4078.97,4086.67,4102.05,4050.26,4123.08,4119.49,4047.18,4028.21,0
11_56_13,26,4020,4077.95,4096.41,4115.9,4086.15,4077.95,4075.9,4080.51,4095.9,4054.36,4110.26,4108.21,4038.97,4022.05,0
11_56_13,27,4028.72,4088.21,4098.97,4124.1,4092.82,4084.1,4077.95,4098.46,4119.49,4065.64,4108.72,4108.72,4041.54,4025.64,0
11_56_13,28,4041.03,4100,4102.05,4129.23,4093.33,4092.31,4089.74,4118.97,4123.59,4073.85,4124.1,4122.56,4052.82,4039.49,0
11_56_13,29,4035.9,4094.36,4097.95,4120,4084.1,4096.92,4093.33,4101.03,4105.64,4067.18,4125.64,4123.08,4048.72,4038.97,0
11_56_13,30,4019.49,4076.92,4092.82,4109.23,4072.31,4083.59,4075.9,4072.82,4101.54,4054.87,4114.87,4114.36,4035.38,4025.13,0
11_56_13,31,4027.18,4081.03,4097.44,4118.97,4079.49,4066.15,4061.03,4073.33,4102.56,4060.51,4121.03,4120,4038.46,4030.26,0
11_56_13,32,4044.62,4096.41,4105.13,4129.74,4093.85,4068.72,4068.21,4075.9,4102.56,4078.97,4129.74,4128.21,4048.21,4046.15,0
11_56_13,33,4035.38,4087.18,4099.49,4116.92,4083.08,4076.41,4073.85,4069.23,4103.08,4069.74,4117.95,4115.9,4042.56,4038.97,0
11_56_13,34,4024.62,4072.31,4095.38,4103.59,4070.77,4075.38,4076.41,4083.59,4105.13,4047.18,4108.72,4108.72,4032.31,4025.64,0
11_56_13,35,4034.87,4086.67,4100,4112.82,4085.13,4078.97,4086.67,4102.05,4113.85,4061.54,4123.59,4118.97,4038.46,4035.38,0
11_56_13,36,4028.72,4093.33,4099.49,4111.79,4093.85,4087.69,4086.15,4095.38,4113.85,4078.46,4128.21,4112.31,4036.41,4031.28,0
11_56_13,37,4018.46,4090.26,4095.9,4109.74,4091.28,4089.23,4080,4088.21,4103.59,4068.21,4114.36,4095.9,4028.21,4016.92,0
11_56_13,38,4031.28,4096.92,4097.44,4123.08,4091.28,4091.79,4084.1,4094.87,4104.1,4065.13,4115.38,4103.59,4035.38,4027.18,0
11_56_13,39,4034.36,4095.38,4098.46,4121.03,4083.59,4092.82,4084.62,4094.87,4111.28,4067.18,4123.59,4112.82,4036.41,4032.31,0
11_56_13,40,4028.72,4095.38,4098.97,4113.33,4081.54,4085.13,4077.44,4090.26,4111.28,4064.1,4125.13,4109.23,4030.26,4025.64,0
11_56_13,41,4032.82,4099.49,4100.51,4120,4091.28,4079.49,4078.46,4088.72,4104.1,4065.13,4120.51,4108.72,4029.23,4027.18,0
11_56_13,42,4026.15,4086.67,4098.97,4116.92,4090.77,4077.44,4078.46,4076.41,4087.18,4054.36,4103.08,4103.08,4016.41,4017.44,0
11_56_13,43,4013.85,4075.9,4095.9,4103.08,4084.62,4074.36,4076.92,4071.79,4083.59,4041.54,4090.77,4094.36,3996.92,4002.05,0
11_56_13,44,4025.13,4089.74,4098.46,4109.74,4095.38,4082.05,4087.69,4092.82,4109.74,4056.41,4104.1,4102.05,4008.21,4014.87,0
11_56_13,45,4040.51,4096.41,4103.08,4123.08,4099.49,4091.28,4091.28,4106.67,4122.56,4068.72,4115.9,4112.31,4028.21,4032.82,0
11_56_13,46,4031.79,4088.21,4100.51,4115.38,4084.62,4086.15,4076.41,4093.85,4107.69,4062.05,4107.69,4106.15,4019.49,4026.15,0
11_56_13,47,4021.03,4088.21,4092.82,4105.13,4079.49,4079.49,4071.79,4088.72,4102.56,4065.64,4103.59,4094.36,4011.28,4018.46,0
11_56_13,48,4028.21,4091.28,4093.33,4108.72,4089.23,4086.15,4085.64,4103.08,4111.28,4073.33,4105.13,4092.82,4017.44,4020.51,0
11_56_13,49,4038.46,4096.92,4101.54,4112.82,4096.92,4092.31,4092.31,4110.26,4106.67,4067.18,4109.23,4102.05,4019.49,4026.67,0
11_56_13,50,4041.54,4097.95,4104.1,4107.18,4093.33,4090.77,4091.28,4105.13,4101.54,4061.03,4115.9,4111.28,4023.08,4032.82,0
11_56_13,51,4033.85,4081.03,4100.51,4105.13,4082.56,4090.77,4094.36,4093.33,4104.62,4062.56,4110.26,4109.74,4016.92,4026.15,0
11_56_13,52,4023.08,4075.38,4096.92,4108.72,4080,4090.26,4089.74,4083.08,4092.31,4060.51,4096.92,4102.56,3996.41,4012.31,0
11_56_13,53,4023.08,4089.23,4096.41,4104.62,4092.82,4088.72,4080.51,4077.95,4086.67,4056.41,4099.49,4102.05,3996.92,4012.31,0
11_56_13,54,4030.26,4092.82,4096.41,4104.62,4103.08,4096.41,4084.62,4078.46,4103.59,4062.05,4108.72,4107.18,4011.79,4021.03,0
11_56_13,55,4026.67,4085.13,4097.44,4106.67,4100.51,4104.62,4094.87,4090.26,4109.74,4067.69,4102.05,4101.03,4006.67,4020.51,0
11_56_13,56,4018.46,4082.56,4097.44,4096.92,4087.69,4092.82,4088.72,4111.79,4105.13,4061.03,4096.92,4089.23,3997.44,4015.38,0
11_56_13,57,4021.03,4077.44,4096.92,4095.9,4072.82,4077.44,4078.97,4123.59,4111.28,4063.59,4103.59,4094.87,4003.08,4016.41,0
11_56_13,58,4026.15,4073.33,4096.41,4105.64,4077.44,4081.54,4086.15,4121.03,4115.9,4075.38,4100,4106.15,4003.08,4014.87,0
11_56_13,59,4024.62,4084.1,4096.92,4102.56,4094.87,4093.33,4093.33,4116.41,4112.31,4074.87,4100.51,4101.03,4000,4009.23,0
11_56_13,60,4018.46,4088.72,4095.38,4096.92,4095.38,4094.87,4089.74,4098.46,4098.97,4058.97,4100.51,4089.74,3992.82,4003.59,0
11_56_13,61,4019.49,4082.05,4096.41,4105.64,4086.15,4089.74,4087.18,4075.38,4084.1,4050.77,4088.21,4089.23,3986.15,4002.05,0
11_56_13,62,4028.72,4081.03,4100.51,4105.13,4088.72,4089.23,4089.74,4075.38,4089.23,4054.87,4091.79,4101.03,3997.44,4014.87,0
11_56_13,63,4037.44,4091.28,4102.05,4098.97,4091.79,4093.85,4091.28,4090.77,4105.64,4061.54,4110.77,4110.26,4007.69,4030.26,0
11_56_13,64,4042.05,4101.54,4103.08,4112.31,4088.21,4094.36,4090.77,4100,4110.77,4072.31,4111.79,4109.74,4007.18,4034.36,0
11_56_13,65,4042.56,4097.95,4103.08,4115.9,4090.26,4088.21,4084.62,4101.54,4101.03,4074.36,4104.62,4109.23,4001.03,4027.69,0
11_56_13,66,4038.46,4093.33,4098.46,4100,4092.82,4082.56,4075.38,4094.87,4091.28,4058.97,4100.51,4104.1,3988.72,4015.38,0
11_56_13,67,4028.72,4088.72,4090.26,4091.79,4085.13,4076.41,4074.87,4080,4087.18,4042.05,4082.05,4085.13,3972.82,3998.46,0
11_56_13,68,4016.41,4080,4088.72,4090.26,4075.38,4071.28,4073.33,4078.97,4090.26,4045.13,4067.69,4074.36,3964.62,3988.72,0
11_56_13,69,4018.97,4088.21,4094.87,4097.44,4080.51,4081.03,4075.9,4088.72,4103.08,4057.95,4081.54,4084.62,3981.03,3997.44,0
11_56_13,70,4029.74,4106.15,4100.51,4107.69,4090.77,4097.44,4090.26,4100.51,4114.87,4064.1,4101.54,4094.36,4013.85,4008.72,0
11_56_13,71,4027.18,4101.54,4099.49,4098.97,4091.28,4098.46,4093.33,4110.26,4112.31,4065.64,4100.51,4091.79,4039.49,4008.72,0
11_56_13,72,4023.08,4086.15,4097.44,4087.18,4089.23,4088.72,4081.54,4095.9,4094.36,4061.54,4085.13,4086.67,4055.38,4004.62,0
11_56_13,73,4038.97,4096.92,4102.05,4095.9,4091.79,4089.74,4079.49,4081.03,4090.77,4060.51,4093.85,4096.41,4088.21,4012.82,0
11_56_13,74,4049.23,4107.69,4102.56,4102.05,4092.82,4092.31,4080.51,4090.26,4102.05,4066.15,4113.85,4110.26,4122.05,4020,0
11_56_13,75,4031.28,4091.79,4091.79,4091.28,4089.74,4082.05,4068.21,4079.49,4096.92,4063.59,4103.08,4101.03,4121.54,4004.62,0
11_56_13,76,4019.49,4081.03,4087.69,4088.21,4091.28,4077.44,4064.1,4057.95,4091.28,4062.56,4088.21,4087.18,4115.38,3992.31,0
11_56_13,77,4029.74,4088.21,4091.79,4094.36,4096.41,4086.15,4075.9,4087.69,4102.56,4070.77,4103.08,4093.33,4126.15,4002.05,0
11_56_13,78,4032.82,4087.18,4090.26,4092.31,4096.41,4092.31,4080.51,4115.38,4103.08,4068.21,4107.18,4094.87,4124.1,4005.64,0
11_56_13,79,4030.26,4081.54,4089.23,4091.28,4090.26,4092.31,4078.97,4101.03,4093.33,4055.38,4089.74,4088.21,4111.79,4000.51,0
11_56_13,80,4037.44,4083.08,4094.36,4094.36,4084.62,4092.31,4085.13,4100,4095.9,4058.97,4092.82,4090.77,4117.95,4011.28,0
11_56_13,81,4037.44,4078.46,4094.36,4084.1,4086.67,4095.38,4092.31,4109.23,4096.92,4064.1,4107.69,4097.44,4117.95,4015.9,0
11_56_13,82,4031.28,4076.92,4094.36,4079.49,4094.36,4096.92,4091.79,4096.41,4088.72,4056.41,4107.18,4102.05,4097.44,4006.67,0
11_56_13,83,4035.9,4090.26,4097.44,4100,4095.9,4092.31,4081.03,4078.46,4091.28,4059.49,4103.59,4106.67,4093.33,4011.79,0
11_56_13,84,4037.44,4093.33,4094.87,4103.08,4089.23,4080.51,4066.67,4071.79,4082.05,4064.62,4103.08,4108.21,4097.95,4017.95,0
11_56_13,85,4032.31,4086.15,4092.31,4085.13,4089.74,4076.92,4066.15,4078.97,4071.28,4057.95,4101.03,4105.64,4088.72,4011.28,0
11_56_13,86,4039.49,4093.85,4096.41,4095.38,4097.95,4084.1,4072.82,4093.33,4091.28,4061.03,4103.59,4105.64,4086.15,4014.36,0
11_56_13,87,4054.36,4107.69,4101.54,4114.36,4097.95,4088.72,4077.44,4092.82,4110.77,4073.85,4114.36,4111.79,4095.38,4027.69,0
11_56_13,88,4058.46,4107.18,4100.51,4106.67,4094.87,4094.36,4086.15,4090.26,4107.69,4081.54,4118.46,4117.95,4096.41,4029.23,0
11_56_13,89,4049.23,4095.9,4096.92,4092.31,4098.97,4099.49,4095.9,4102.05,4105.64,4078.97,4107.18,4112.82,4084.62,4021.03,0
11_56_13,90,4042.56,4090.77,4093.33,4091.79,4101.03,4098.97,4095.38,4107.69,4104.1,4071.79,4093.85,4098.46,4073.85,4014.87,0
11_56_13,91,4043.59,4092.31,4093.85,4093.33,4094.36,4102.05,4095.38,4105.13,4094.87,4059.49,4089.74,4093.85,4071.28,4014.87,0
11_56_13,92,4043.59,4090.26,4095.38,4092.31,4095.38,4109.23,4095.38,4106.15,4091.28,4053.33,4093.33,4100.51,4072.82,4019.49,0
11_56_13,93,4046.67,4092.82,4097.44,4093.85,4106.67,4107.69,4091.28,4107.69,4096.41,4063.59,4098.97,4105.64,4081.54,4024.62,0
11_56_13,94,4057.95,4104.1,4100.51,4105.64,4107.18,4098.97,4091.79,4097.95,4105.13,4081.54,4106.15,4106.67,4089.23,4032.82,0
11_56_13,95,4065.13,4110.77,4104.1,4113.85,4095.9,4090.26,4087.69,4082.05,4102.56,4089.23,4115.38,4110.26,4086.15,4039.49,0
11_56_13,96,4055.9,4104.62,4100,4094.87,4089.74,4083.08,4077.44,4082.05,4091.79,4083.08,4117.95,4113.33,4079.49,4036.92,0
11_56_13,97,4040,4093.33,4092.31,4075.38,4091.79,4081.54,4072.31,4090.26,4094.87,4078.97,4106.67,4105.64,4070.77,4026.15,0
11_56_13,98,4032.31,4091.28,4090.26,4081.54,4093.85,4085.64,4074.87,4088.21,4104.62,4080.51,4092.31,4094.87,4056.41,4015.38,0
11_56_13,99,4033.85,4093.33,4090.77,4083.59,4096.41,4096.41,4084.1,4102.56,4107.69,4091.28,4093.85,4092.31,4052.31,4011.79,0
11_56_13,100,4029.23,4087.18,4087.69,4072.31,4096.92,4105.13,4093.33,4122.05,4110.77,4089.23,4097.95,4088.72,4050.26,4009.23,0
11_56_13,101,4022.05,4080.51,4086.67,4076.41,4091.28,4103.59,4096.41,4115.9,4106.67,4068.21,4085.64,4077.95,4035.38,4006.15,0
11_56_13,102,4022.05,4078.97,4087.18,4077.95,4090.26,4102.05,4095.38,4103.08,4090.77,4066.67,4067.69,4071.79,4026.15,3999.49,0
11_56_13,103,4020.51,4075.38,4085.13,4060,4092.82,4098.46,4095.9,4100,4087.69,4076.41,4063.59,4078.97,4026.67,3993.33,0
11_56_13,104,4023.08,4075.9,4087.18,4061.54,4088.21,4084.1,4091.79,4087.69,4090.77,4068.72,4074.36,4087.69,4027.18,4000,0
11_56_13,105,4038.46,4085.64,4094.36,4077.44,4087.69,4074.87,4081.54,4072.82,4089.23,4073.85,4089.74,4097.44,4037.44,4022.05,0
11_56_13,106,4052.31,4097.95,4100,4081.54,4089.74,4080.51,4074.36,4076.41,4096.92,4095.38,4096.41,4112.82,4055.38,4040.51,0
11_56_13,107,4046.67,4092.31,4096.41,4075.38,4081.03,4082.05,4073.85,4083.59,4094.87,4079.49,4080.51,4105.13,4046.15,4030.77,0
11_56_13,108,4032.82,4072.82,4089.74,4066.15,4080,4077.95,4077.44,4087.69,4080.51,4053.33,4058.97,4081.03,4018.46,4005.64,0
11_56_13,109,4031.28,4073.85,4089.74,4067.18,4099.49,4091.79,4088.21,4099.49,4088.72,4068.21,4066.67,4081.54,4020.51,4003.59,0
11_56_13,110,4037.95,4096.41,4094.36,4074.87,4110.26,4114.36,4104.1,4117.95,4110.77,4086.67,4080,4094.87,4042.56,4017.95,0
11_56_13,111,4043.59,4109.74,4095.38,4072.82,4100,4117.44,4108.72,4124.62,4113.33,4083.59,4076.41,4093.85,4045.64,4020,0
11_56_13,112,4038.97,4101.03,4090.77,4063.08,4090.77,4100.51,4099.49,4107.69,4098.46,4078.46,4071.79,4084.1,4031.28,4009.74,0
11_56_13,113,4034.36,4094.36,4091.28,4066.67,4094.36,4095.9,4092.31,4094.87,4091.79,4076.41,4075.38,4082.05,4027.69,4007.69,0
11_56_13,114,4041.03,4102.05,4098.46,4076.41,4099.49,4106.67,4098.46,4109.74,4100,4080.51,4082.05,4091.79,4035.9,4016.92,0
11_56_13,115,4051.79,4110.77,4101.03,4080,4097.95,4108.21,4103.59,4125.13,4110.77,4100,4091.79,4108.72,4047.69,4029.74,0
11_56_13,116,4056.41,4109.74,4101.03,4078.97,4097.95,4102.56,4101.54,4116.92,4110.77,4111.79,4098.46,4114.36,4054.87,4038.97,0
11_56_13,117,4053.33,4106.15,4101.03,4070.77,4094.36,4096.92,4095.9,4105.13,4098.46,4100,4091.79,4109.74,4046.67,4034.36,0
11_56_13,118,4046.15,4105.13,4096.92,4068.21,4090.26,4090.77,4092.31,4098.97,4096.92,4090.26,4083.59,4106.15,4035.9,4026.15,0
11_56_13,119,4042.05,4101.03,4090.77,4064.62,4095.38,4093.33,4095.9,4093.85,4104.62,4089.74,4083.08,4101.03,4033.33,4026.15,0
11_56_13,120,4044.62,4095.9,4090.26,4055.9,4099.49,4101.03,4095.38,4091.28,4093.85,4082.05,4077.44,4094.87,4028.72,4024.1,0
11_56_13,121,4035.9,4088.21,4091.28,4049.23,4094.36,4096.92,4086.15,4090.77,4075.9,4072.82,4064.1,4087.18,4013.33,4014.36,0
11_56_13,122,4026.15,4081.03,4091.28,4044.1,4092.82,4087.69,4082.05,4090.26,4080.51,4071.79,4060.51,4080.51,4003.08,4011.28,0
11_56_13,123,4038.46,4087.18,4095.38,4052.31,4090.26,4089.74,4093.33,4101.54,4098.97,4076.92,4072.31,4086.15,4008.72,4020,0
11_56_13,124,4047.18,4094.87,4097.95,4058.97,4078.97,4091.28,4100,4113.33,4106.67,4079.49,4078.97,4093.85,4013.33,4023.08,0
11_56_13,125,4040,4092.31,4096.41,4051.79,4078.97,4087.18,4093.85,4107.18,4100.51,4073.85,4075.38,4091.79,4010.26,4020.51,0
11_56_13,126,4040,4089.74,4095.9,4047.69,4090.77,4089.74,4091.79,4103.59,4091.79,4075.38,4073.33,4087.69,4011.79,4022.56,0
11_56_13,127,4047.18,4094.36,4098.46,4050.77,4093.33,4094.36,4094.87,4107.18,4100.51,4085.64,4078.46,4091.28,4018.46,4025.13,0
11_56_14,128,4042.56,4095.38,4096.41,4049.74,4090.26,4094.36,4091.79,4096.92,4104.62,4076.92,4083.08,4090.77,4012.31,4020.51,0
11_56_14,0,4034.36,4090.77,4090.26,4047.69,4092.31,4092.82,4086.67,4083.08,4084.62,4064.62,4074.36,4079.49,3997.44,4010.77,0
11_56_14,1,4039.49,4091.79,4091.28,4053.85,4091.79,4093.85,4088.21,4090.77,4079.49,4071.28,4069.74,4077.95,3996.41,4011.79,0
11_56_14,2,4046.67,4094.87,4098.97,4052.82,4090.77,4096.92,4093.33,4101.54,4094.36,4074.87,4083.08,4090.77,4004.62,4021.54,0
11_56_14,3,4038.97,4093.85,4096.41,4050.26,4092.31,4095.9,4091.28,4093.85,4093.85,4070.26,4086.67,4090.26,3995.9,4018.46,0
11_56_14,4,4030.26,4090.26,4090.26,4052.82,4090.77,4091.28,4088.72,4089.74,4089.23,4073.33,4075.38,4080,3985.13,4009.23,0
11_56_14,5,4038.46,4092.31,4094.87,4050.77,4095.38,4093.33,4095.38,4104.62,4100,4082.05,4076.41,4086.15,3997.95,4015.9,0
11_56_14,6,4048.72,4096.92,4100.51,4048.72,4102.05,4098.97,4103.59,4120,4109.74,4090.77,4085.64,4096.92,4011.28,4027.69,0
11_56_14,7,4044.62,4092.31,4094.87,4045.13,4090.77,4094.87,4101.54,4117.95,4111.79,4088.72,4077.44,4090.77,3996.41,4022.56,0
11_56_14,8,4035.38,4081.54,4087.69,4035.38,4077.95,4086.15,4090.77,4103.08,4101.54,4069.23,4065.64,4077.95,3975.38,4008.72,0
11_56_14,9,4034.36,4075.9,4087.69,4032.31,4086.67,4084.1,4082.56,4094.36,4084.1,4057.95,4064.62,4073.33,3974.36,4004.1,0
11_56_14,10,4036.92,4083.08,4091.28,4040.51,4090.77,4080.51,4077.44,4085.64,4075.9,4062.05,4062.56,4074.36,3978.46,4006.15,0
11_56_14,11,4031.28,4088.72,4092.82,4037.44,4082.56,4075.38,4072.82,4070.26,4073.85,4057.95,4060,4074.87,3975.9,4005.64,0
11_56_14,12,4028.21,4082.05,4089.23,4030.26,4081.54,4078.97,4075.38,4073.85,4080,4057.95,4062.05,4071.79,3975.38,4004.1,0
11_56_14,13,4026.15,4075.9,4084.1,4034.36,4077.95,4077.44,4076.41,4085.13,4084.62,4057.95,4059.49,4064.1,3972.82,3999.49,0
11_56_14,14,4020.51,4081.54,4083.08,4038.97,4073.85,4069.74,4074.36,4076.41,4082.05,4049.74,4053.33,4059.49,3969.74,3995.9,0
11_56_14,15,4024.62,4087.69,4090.26,4039.49,4086.15,4078.97,4082.56,4076.92,4081.03,4059.49,4062.56,4070.26,3979.49,4005.13,0
11_56_14,16,4041.54,4090.26,4097.44,4045.64,4102.56,4096.41,4093.33,4104.1,4100,4086.15,4083.08,4089.23,3998.46,4024.1,0
11_56_14,17,4052.31,4102.56,4101.03,4050.26,4106.67,4096.41,4090.77,4123.59,4121.03,4097.95,4094.87,4096.41,4007.69,4033.33,0
11_56_14,18,4050.26,4106.15,4100,4051.79,4095.38,4087.18,4087.18,4118.97,4107.69,4089.74,4091.79,4094.87,4006.15,4032.31,0
11_56_14,19,4046.15,4092.82,4098.97,4055.38,4082.56,4087.69,4090.26,4109.23,4087.69,4075.9,4084.62,4091.79,3998.46,4028.21,0
11_56_14,20,4044.62,4089.23,4098.46,4048.72,4087.69,4092.82,4090.77,4100.51,4094.87,4078.46,4090.26,4094.36,4000,4029.23,0
11_56_14,21,4043.59,4093.33,4095.9,4035.9,4094.87,4093.33,4090.77,4092.31,4095.9,4082.05,4093.33,4093.85,4002.56,4031.28,0
11_56_14,22,4038.46,4084.62,4090.77,4033.85,4087.18,4090.26,4090.77,4088.72,4076.92,4071.79,4080.51,4083.59,3994.87,4024.62,0
11_56_14,23,4033.33,4076.92,4090.26,4039.49,4084.62,4090.77,4083.08,4089.23,4081.54,4067.69,4069.74,4077.44,3987.69,4019.49,0
11_56_14,24,4038.46,4090.26,4094.87,4045.13,4093.33,4090.26,4073.33,4091.79,4097.44,4074.36,4075.38,4085.13,3987.18,4024.62,0
11_56_14,25,4049.23,4102.56,4097.44,4050.77,4092.82,4087.18,4077.44,4092.31,4091.28,4076.41,4083.08,4093.85,3994.36,4035.38,0
11_56_14,26,4042.56,4083.08,4091.28,4040,4076.92,4083.08,4083.08,4091.28,4088.72,4075.38,4075.9,4090.26,3995.9,4032.82,0
11_56_14,27,4022.05,4060.51,4086.15,4018.97,4069.74,4077.95,4080,4087.69,4087.69,4070.77,4065.64,4080,3981.03,4014.87,0
11_56_14,28,4023.08,4072.31,4092.31,4027.69,4081.03,4081.03,4083.59,4095.9,4085.13,4063.59,4065.13,4075.9,3973.33,4007.18,0
11_56_14,29,4034.87,4085.64,4095.9,4041.03,4091.79,4091.79,4090.26,4105.64,4087.18,4066.67,4066.15,4076.41,3983.59,4015.38,0
11_56_14,30,4032.82,4075.38,4091.28,4026.15,4093.33,4096.92,4093.33,4097.95,4091.28,4074.87,4064.1,4078.46,3988.72,4018.97,0
11_56_14,31,4032.82,4074.87,4092.31,4024.62,4089.23,4090.26,4091.28,4097.44,4100,4088.21,4073.33,4087.18,3990.26,4022.56,0
11_56_14,32,4038.97,4083.08,4097.44,4043.08,4084.1,4081.54,4083.08,4108.21,4098.46,4097.44,4084.62,4094.36,3997.95,4030.77,0
11_56_14,33,4037.44,4078.46,4095.38,4040,4088.72,4085.13,4082.05,4107.69,4085.13,4087.18,4080,4093.33,3994.87,4028.72,0
11_56_14,34,4033.33,4073.85,4090.77,4025.64,4093.85,4091.28,4089.23,4105.13,4087.18,4076.41,4076.41,4088.72,3985.13,4020,0
11_56_14,35,4029.74,4075.38,4089.23,4027.69,4089.74,4089.74,4085.64,4107.69,4096.92,4076.41,4073.33,4076.41,3983.08,4012.82,0
11_56_14,36,4028.72,4077.95,4088.21,4034.36,4090.77,4092.82,4082.56,4103.08,4090.26,4082.56,4062.56,4069.23,3986.67,4012.82,0
11_56_14,37,4034.36,4081.03,4091.28,4034.36,4089.23,4097.44,4091.79,4104.1,4092.82,4082.56,4061.03,4080,3990.77,4022.05,0
11_56_14,38,4031.28,4076.41,4093.33,4034.36,4077.44,4085.64,4084.62,4100,4094.36,4071.28,4063.08,4078.97,3979.49,4016.41,0
11_56_14,39,4023.08,4071.79,4089.23,4033.85,4083.59,4076.41,4073.85,4083.59,4077.44,4064.1,4058.46,4064.1,3968.72,4004.1,0
11_56_14,40,4029.74,4078.97,4090.26,4034.36,4094.87,4090.26,4086.67,4091.79,4091.28,4077.44,4059.49,4067.69,3980,4012.82,0
11_56_14,41,4030.77,4076.92,4089.74,4028.72,4082.05,4100,4097.44,4107.69,4106.67,4078.97,4061.54,4076.41,3988.72,4018.97,0
11_56_14,42,4018.46,4063.59,4085.13,4023.08,4073.85,4091.28,4089.74,4094.36,4081.54,4064.1,4055.38,4072.82,3978.46,4006.67,0
11_56_14,43,4022.56,4071.28,4089.74,4024.62,4085.64,4091.79,4089.23,4091.28,4078.46,4072.82,4065.13,4075.38,3983.59,4012.31,0
11_56_14,44,4038.46,4090.26,4096.92,4028.72,4093.33,4106.15,4097.95,4113.33,4112.31,4095.38,4080.51,4082.56,4001.54,4030.77,0
11_56_14,45,4041.03,4093.85,4093.85,4034.36,4091.28,4102.05,4092.31,4115.38,4111.28,4095.9,4073.33,4076.41,4000,4029.23,0
11_56_14,46,4045.64,4093.85,4093.85,4043.08,4090.26,4081.54,4075.38,4098.97,4086.67,4086.15,4065.13,4075.38,3993.33,4029.23,0
11_56_14,47,4062.05,4102.56,4102.05,4052.31,4094.87,4079.49,4076.92,4094.87,4090.77,4090.77,4074.87,4092.82,3996.41,4043.59,0
11_56_14,48,4057.95,4097.44,4098.97,4046.67,4093.85,4090.77,4090.26,4097.44,4097.95,4089.74,4078.46,4097.44,3994.87,4044.62,0
11_56_14,49,4034.87,4077.95,4090.26,4033.85,4075.9,4091.28,4092.31,4094.36,4086.15,4069.23,4062.56,4076.41,3984.62,4026.15,0
11_56_14,50,4032.82,4077.44,4088.72,4034.36,4073.33,4093.85,4095.9,4104.62,4090.26,4075.9,4061.03,4071.79,3988.21,4022.05,0
11_56_14,51,4046.15,4092.82,4092.31,4038.46,4098.97,4108.21,4105.64,4122.56,4111.28,4103.59,4074.87,4087.18,4000.51,4034.36,0
11_56_14,52,4044.62,4093.33,4094.36,4036.41,4108.21,4111.79,4100,4113.85,4104.1,4097.44,4075.38,4083.08,3996.41,4033.85,0
11_56_14,53,4044.62,4085.64,4096.92,4041.54,4093.85,4096.41,4088.21,4094.87,4082.56,4081.03,4075.9,4077.44,3995.38,4034.36,0
11_56_14,54,4070.26,4100,4103.59,4061.03,4090.77,4090.77,4091.79,4104.1,4093.85,4097.95,4094.87,4098.97,4013.85,4053.33,0
11_56_14,55,4078.46,4112.31,4102.56,4057.44,4089.74,4090.26,4093.33,4108.21,4099.49,4104.62,4093.33,4104.62,4022.56,4056.41,0
11_56_14,56,4047.18,4090.77,4092.31,4033.33,4080,4082.05,4088.21,4089.23,4079.49,4079.49,4058.97,4075.9,4009.74,4027.69,0
11_56_14,57,4028.72,4073.85,4087.18,4028.21,4084.1,4083.59,4093.85,4088.72,4083.59,4070.77,4052.31,4064.1,4024.62,4011.28,0
11_56_14,58,4037.44,4086.67,4086.15,4044.1,4092.31,4092.82,4093.33,4098.46,4092.82,4082.05,4075.38,4074.36,4067.69,4017.95,0
11_56_14,59,4043.08,4094.87,4090.26,4057.44,4091.79,4097.44,4082.05,4086.67,4083.59,4087.69,4076.41,4081.54,4098.46,4021.54,0
11_56_14,60,4048.21,4091.79,4095.38,4059.49,4091.28,4100.51,4080,4082.56,4087.69,4091.79,4065.64,4089.23,4118.46,4022.05,0
11_56_14,61,4053.85,4091.28,4091.79,4051.79,4086.67,4096.92,4086.67,4096.41,4088.21,4085.13,4062.05,4093.85,4127.69,4021.54,0
11_56_14,62,4050.77,4086.67,4082.56,4041.03,4082.56,4088.72,4089.23,4103.08,4075.38,4071.79,4060,4088.72,4127.69,4017.95,0
11_56_14,63,4053.85,4083.59,4086.67,4042.56,4090.77,4097.44,4097.95,4108.21,4085.64,4074.36,4065.64,4090.77,4134.87,4023.59,0
11_56_14,64,4061.54,4088.21,4091.79,4049.23,4095.9,4109.23,4103.08,4115.9,4101.03,4087.69,4074.87,4096.92,4140.51,4029.74,0
11_56_14,65,4057.95,4088.21,4086.15,4049.74,4090.77,4105.13,4095.9,4114.36,4092.82,4093.33,4070.77,4092.31,4130.26,4022.56,0
11_56_14,66,4059.49,4088.72,4086.67,4053.33,4093.33,4104.1,4093.33,4104.1,4091.79,4092.82,4063.08,4091.28,4124.62,4023.08,0
11_56_14,67,4074.87,4097.44,4095.9,4061.54,4095.9,4101.03,4091.28,4092.82,4094.87,4092.82,4069.23,4105.13,4130.77,4037.44,0
11_56_14,68,4081.03,4098.46,4099.49,4064.62,4089.23,4089.74,4083.59,4088.21,4082.56,4088.21,4077.44,4110.77,4128.21,4046.15,0
11_56_14,69,4077.44,4090.77,4096.41,4062.56,4093.85,4091.28,4085.64,4088.21,4080,4084.62,4076.41,4105.13,4124.62,4045.13,0
11_56_14,70,4076.92,4094.36,4096.92,4062.56,4104.1,4105.13,4096.92,4088.72,4089.23,4081.54,4075.38,4105.64,4123.08,4045.13,0
11_56_14,71,4072.31,4098.46,4094.87,4059.49,4102.56,4109.74,4098.97,4095.38,4087.69,4074.36,4074.87,4102.56,4113.85,4039.49,0
11_56_14,72,4061.03,4086.15,4088.21,4052.31,4095.38,4105.13,4095.38,4104.62,4089.23,4077.95,4071.28,4090.26,4105.13,4028.72,0
11_56_14,73,4056.92,4074.87,4086.67,4056.92,4092.31,4102.56,4093.33,4106.15,4096.41,4087.69,4066.15,4087.18,4105.13,4024.62,0
11_56_14,74,4060.51,4080,4090.77,4065.64,4090.77,4106.15,4091.79,4105.13,4090.26,4081.03,4062.05,4092.82,4100,4028.72,0
11_56_14,75,4060,4083.59,4090.77,4060.51,4090.77,4104.1,4091.79,4109.74,4081.54,4071.28,4059.49,4094.36,4090.77,4027.69,0
11_56_14,76,4060.51,4077.44,4089.74,4063.08,4093.85,4094.36,4092.31,4109.23,4088.21,4078.46,4059.49,4092.31,4091.28,4022.05,0
11_56_14,77,4058.97,4073.85,4091.79,4072.82,4094.87,4092.82,4094.36,4106.67,4095.38,4086.15,4061.03,4092.31,4090.77,4019.49,0
11_56_14,78,4053.33,4074.36,4089.74,4064.1,4091.79,4098.46,4093.85,4106.15,4088.72,4080,4059.49,4092.82,4084.1,4017.44,0
11_56_14,79,4056.41,4074.87,4085.13,4057.95,4088.72,4097.44,4091.79,4093.85,4074.36,4072.82,4059.49,4092.82,4082.56,4016.41,0
11_56_14,80,4060.51,4075.38,4086.67,4071.79,4090.26,4094.36,4089.23,4075.38,4072.82,4073.33,4054.87,4090.77,4082.56,4018.46,0
11_56_14,81,4053.85,4076.41,4088.21,4072.31,4093.33,4094.36,4084.62,4071.28,4080,4074.36,4031.28,4091.79,4076.92,4018.97,0
11_56_14,82,4051.28,4072.31,4085.64,4063.59,4089.74,4089.23,4081.03,4080.51,4076.41,4065.64,4005.13,4091.79,4068.21,4017.44,0
11_56_14,83,4059.49,4072.31,4086.15,4071.79,4089.74,4084.62,4084.1,4086.15,4071.28,4058.46,3998.46,4089.23,4059.49,4016.92,0
11_56_14,84,4062.56,4079.49,4089.23,4077.44,4091.79,4087.18,4087.69,4087.69,4077.44,4068.72,4009.74,4090.77,4058.97,4020,0
11_56_14,85,4059.49,4075.9,4087.69,4074.36,4090.26,4086.67,4086.15,4087.69,4078.97,4077.44,4016.92,4090.26,4060.51,4022.56,0
11_56_14,86,4058.46,4077.95,4085.13,4075.9,4090.26,4083.08,4082.05,4083.59,4074.87,4073.85,4017.95,4083.59,4050.77,4020.51,0
11_56_14,87,4060,4090.77,4086.67,4078.46,4092.82,4085.13,4082.56,4078.97,4078.97,4075.38,4020.51,4084.1,4047.18,4017.95,0
11_56_14,88,4062.56,4093.33,4090.77,4084.62,4098.97,4089.74,4089.23,4080.51,4079.49,4081.03,4026.15,4091.79,4057.44,4023.59,0
11_56_14,89,4064.62,4087.18,4091.28,4093.33,4104.1,4091.28,4090.26,4087.18,4074.87,4080,4036.41,4095.9,4065.13,4033.85,0
11_56_14,90,4064.62,4087.18,4087.69,4087.18,4097.44,4087.18,4084.1,4093.85,4085.13,4089.23,4045.64,4095.9,4073.33,4035.38,0
11_56_14,91,4060.51,4084.62,4085.64,4078.46,4087.69,4082.56,4078.46,4088.72,4091.28,4094.87,4044.62,4089.74,4078.46,4025.64,0
11_56_14,92,4054.36,4082.05,4084.1,4084.62,4092.31,4084.1,4077.44,4075.38,4075.38,4082.56,4036.92,4078.46,4071.79,4017.44,0
11_56_14,93,4055.38,4089.74,4085.13,4093.33,4103.59,4090.26,4085.64,4071.79,4071.79,4081.03,4046.15,4080.51,4073.33,4022.05,0
11_56_14,94,4060.51,4093.85,4090.26,4094.36,4109.23,4092.82,4090.77,4080.51,4088.21,4094.87,4064.62,4093.33,4087.18,4031.28,0
11_56_14,95,4060,4090.77,4092.31,4090.77,4103.59,4091.28,4082.56,4093.85,4094.87,4100,4067.18,4093.85,4088.72,4033.33,0
11_56_14,96,4060,4090.26,4089.23,4094.36,4091.28,4086.67,4078.46,4104.1,4092.82,4100.51,4068.72,4090.26,4081.03,4032.31,0
11_56_14,97,4064.1,4092.82,4088.72,4106.67,4090.26,4081.03,4087.69,4104.1,4091.79,4106.67,4074.87,4097.44,4077.95,4033.33,0
11_56_14,98,4063.08,4091.28,4088.72,4105.13,4095.9,4079.49,4085.64,4103.59,4092.82,4107.69,4067.69,4100.51,4076.41,4029.74,0
11_56_14,99,4056.41,4085.13,4085.64,4093.85,4094.87,4077.95,4077.95,4103.59,4098.46,4104.62,4058.46,4089.23,4073.33,4022.56,0
11_56_14,100,4063.08,4090.26,4087.69,4100.51,4089.23,4080,4085.64,4096.41,4091.28,4104.62,4071.28,4092.82,4076.92,4029.74,0
11_56_14,101,4075.9,4094.36,4091.79,4113.33,4083.59,4082.05,4090.26,4085.13,4076.41,4102.56,4085.64,4107.18,4084.62,4044.62,0
11_56_14,102,4070.77,4084.62,4087.18,4104.62,4084.62,4077.44,4083.59,4077.44,4071.79,4091.28,4076.41,4097.44,4078.97,4038.46,0
11_56_14,103,4062.56,4083.59,4083.08,4098.97,4091.28,4081.54,4083.08,4074.36,4072.31,4082.56,4064.62,4081.54,4068.21,4025.64,0
11_56_14,104,4068.21,4092.82,4086.67,4108.72,4091.79,4088.21,4086.67,4086.15,4077.44,4086.15,4060.51,4081.03,4065.64,4027.69,0
11_56_14,105,4071.28,4092.31,4087.18,4111.79,4091.28,4085.13,4087.69,4103.08,4091.79,4091.28,4062.56,4082.05,4063.08,4029.23,0
11_56_14,106,4064.62,4089.74,4084.62,4107.18,4093.33,4085.64,4091.79,4105.64,4096.41,4091.79,4071.28,4078.46,4058.46,4027.69,0
11_56_14,107,4061.54,4089.74,4083.59,4106.67,4087.18,4086.67,4092.82,4096.41,4083.59,4091.28,4074.36,4080.51,4060.51,4028.72,0
11_56_14,108,4060,4082.56,4085.13,4105.64,4082.05,4077.44,4084.1,4090.77,4078.97,4088.72,4075.38,4081.54,4058.97,4025.13,0
11_56_14,109,4057.95,4083.08,4086.15,4109.74,4088.72,4075.9,4082.56,4100,4091.28,4092.31,4075.38,4080,4058.46,4020.51,0
11_56_14,110,4063.59,4094.87,4088.21,4119.49,4094.87,4086.67,4090.77,4111.79,4095.38,4097.95,4071.79,4080.51,4058.46,4019.49,0
11_56_14,111,4064.62,4096.41,4088.21,4113.85,4093.85,4093.85,4097.44,4106.67,4078.97,4075.38,4065.13,4079.49,4046.15,4016.41,0
11_56_14,112,4060,4085.13,4086.15,4102.56,4085.13,4089.74,4092.82,4086.15,4058.46,4045.13,4061.03,4076.92,4029.74,4013.33,0
11_56_14,113,4057.95,4076.41,4085.64,4104.62,4082.05,4081.54,4081.03,4068.21,4053.33,4052.31,4057.44,4072.82,4021.54,4009.74,0
11_56_14,114,4059.49,4075.38,4086.67,4108.21,4090.77,4078.46,4081.54,4071.28,4070.26,4082.05,4060,4073.33,4021.03,4012.31,0
11_56_14,115,4061.54,4078.97,4085.64,4111.28,4092.82,4081.03,4090.77,4085.13,4090.26,4092.31,4073.33,4074.87,4028.72,4023.59,0
11_56_14,116,4071.28,4088.72,4088.72,4119.49,4089.74,4084.1,4090.77,4096.92,4091.79,4095.9,4078.46,4074.87,4041.54,4030.26,0
11_56_14,117,4082.05,4098.46,4093.85,4122.05,4096.92,4089.74,4094.36,4114.87,4091.79,4107.69,4075.38,4075.9,4047.18,4030.77,0
11_56_14,118,4081.03,4096.92,4093.85,4118.97,4094.36,4096.92,4104.62,4130.26,4101.03,4100.51,4079.49,4081.03,4048.21,4032.82,0
11_56_14,119,4072.82,4087.69,4090.77,4116.92,4080.51,4094.36,4098.97,4117.44,4094.36,4081.54,4081.54,4082.56,4042.56,4029.74,0
11_56_14,120,4066.15,4085.64,4088.72,4112.31,4083.08,4084.62,4087.18,4094.36,4075.9,4074.36,4067.69,4077.44,4023.59,4020,0
11_56_14,121,4062.56,4085.64,4087.69,4108.72,4095.38,4078.97,4084.1,4083.59,4063.59,4063.59,4050.77,4070.77,4008.72,4015.38,0
11_56_14,122,4063.08,4080,4087.18,4111.79,4095.9,4077.44,4077.95,4071.28,4057.44,4044.1,4054.36,4072.82,4006.15,4021.03,0
11_56_15,123,4062.05,4073.33,4087.18,4110.26,4089.23,4071.28,4072.31,4060,4052.82,4040,4061.54,4074.87,4005.13,4020,0
11_56_15,124,4057.95,4070.77,4086.15,4104.1,4081.03,4060,4072.82,4058.46,4046.67,4040,4049.23,4066.67,3994.36,4008.21,0
11_56_15,125,4059.49,4074.87,4086.15,4106.15,4072.82,4062.56,4077.95,4071.28,4049.23,4045.64,4047.18,4060.51,3994.36,4004.62,0
11_56_15,126,4061.03,4077.95,4084.1,4107.18,4076.92,4076.92,4085.64,4090.26,4071.79,4078.97,4069.23,4063.08,4012.31,4013.33,0
11_56_15,127,4055.9,4073.33,4084.1,4097.95,4087.69,4086.67,4092.82,4096.92,4091.28,4104.62,4080.51,4066.67,4024.62,4018.46,0
11_56_15,128,4063.08,4078.46,4089.74,4100,4093.85,4089.74,4091.28,4101.03,4091.28,4101.03,4082.05,4075.38,4029.23,4024.62,0
11_56_15,0,4078.46,4093.33,4092.82,4116.92,4096.41,4085.64,4084.62,4110.77,4096.92,4098.46,4093.33,4087.18,4034.87,4040,0
11_56_15,1,4077.95,4096.41,4089.23,4122.56,4097.95,4076.41,4077.44,4108.21,4096.92,4095.38,4097.95,4085.13,4031.79,4045.13,0
11_56_15,2,4072.82,4089.74,4090.26,4118.97,4098.97,4072.82,4072.82,4096.41,4078.46,4080,4088.21,4077.44,4019.49,4036.41,0
11_56_15,3,4075.38,4088.21,4093.33,4118.97,4096.41,4075.9,4072.31,4083.59,4063.59,4063.59,4081.03,4072.82,4011.79,4031.28,0
11_56_15,4,4071.79,4083.59,4089.74,4115.9,4086.67,4073.33,4072.82,4063.59,4051.28,4045.13,4073.33,4065.13,4001.54,4026.15,0
11_56_15,5,4062.05,4074.36,4084.62,4109.74,4077.95,4071.28,4078.97,4052.82,4042.05,4033.33,4060,4057.95,3985.64,4012.82,0
11_56_15,6,4058.46,4069.74,4084.1,4106.67,4084.1,4082.05,4090.77,4062.05,4048.21,4041.54,4051.79,4056.41,3985.64,4005.13,0
11_56_15,7,4065.13,4084.1,4084.1,4111.79,4096.92,4093.33,4095.9,4075.9,4068.72,4058.97,4065.13,4064.1,4004.62,4023.59,0
11_56_15,8,4084.62,4107.69,4086.15,4129.23,4096.92,4087.69,4094.87,4095.9,4085.64,4077.44,4096.92,4085.13,4028.21,4051.79,0
11_56_15,9,4090.26,4105.64,4088.72,4136.41,4092.31,4080,4092.82,4120.51,4094.87,4090.77,4109.23,4095.9,4037.95,4059.49,0
11_56_15,10,4065.64,4079.49,4085.64,4118.46,4092.82,4079.49,4084.1,4126.15,4102.56,4092.82,4094.36,4075.9,4029.23,4042.05,0
11_56_15,11,4041.03,4058.97,4079.49,4101.03,4090.26,4074.87,4074.87,4109.23,4101.54,4097.44,4085.64,4053.85,4020.51,4023.08,0
11_56_15,12,4036.92,4052.31,4076.41,4098.46,4087.69,4077.44,4075.38,4086.15,4088.21,4094.87,4082.05,4047.69,4014.36,4012.31,0
11_56_15,13,4045.13,4055.9,4080.51,4101.54,4098.46,4089.74,4077.44,4078.97,4075.9,4077.95,4077.95,4047.69,4006.15,4010.77,0
11_56_15,14,4055.9,4070.77,4083.59,4112.82,4111.28,4095.38,4079.49,4087.69,4078.97,4078.46,4092.31,4061.03,4011.79,4025.64,0
11_56_15,15,4067.69,4085.13,4084.1,4121.03,4107.69,4095.38,4089.23,4089.74,4081.03,4090.77,4108.21,4080,4030.77,4043.08,0
11_56_15,16,4082.05,4095.38,4091.28,4126.15,4092.82,4092.31,4100,4095.38,4085.64,4098.46,4112.82,4092.31,4047.69,4055.9,0
11_56_15,17,4096.92,4102.56,4098.97,4135.9,4084.1,4080.51,4100,4111.28,4102.05,4107.18,4118.97,4101.54,4056.41,4070.77,0
11_56_15,18,4096.92,4098.97,4094.36,4135.38,4080,4071.79,4091.79,4109.23,4094.36,4097.95,4116.41,4100.51,4045.13,4070.77,0
11_56_15,19,4075.38,4069.74,4084.62,4113.85,4073.85,4072.82,4082.05,4080,4058.46,4064.1,4090.26,4076.41,4010.26,4042.56,0
11_56_15,20,4050.26,4035.9,4077.44,4093.33,4079.49,4076.92,4078.97,4065.13,4046.67,4048.72,4066.15,4051.28,3986.67,4013.85,0
11_56_15,21,4040.51,4036.92,4074.87,4093.33,4094.87,4086.67,4086.67,4079.49,4067.18,4061.03,4066.67,4050.77,3989.23,4006.15,0
11_56_15,22,4042.05,4055.9,4073.33,4100,4096.41,4096.41,4090.26,4095.9,4085.13,4077.44,4075.9,4053.33,3998.97,4011.79,0
11_56_15,23,4050.77,4065.13,4076.92,4106.67,4094.87,4101.54,4092.31,4110.77,4094.36,4095.38,4093.33,4060,4018.97,4028.72,0
11_56_15,24,4072.31,4077.95,4086.67,4118.46,4109.74,4107.18,4104.1,4130.77,4110.26,4117.95,4123.08,4082.05,4052.31,4054.87,0
11_56_15,25,4091.28,4094.87,4091.79,4129.23,4113.85,4095.9,4106.67,4131.28,4111.28,4125.64,4140,4099.49,4071.79,4070.77,0
11_56_15,26,4085.64,4095.38,4087.69,4128.21,4092.31,4072.82,4090.77,4107.18,4094.87,4110.77,4132.82,4094.36,4060,4067.18,0
11_56_15,27,4075.38,4086.67,4086.15,4121.54,4081.03,4074.87,4084.62,4086.15,4087.69,4101.03,4122.56,4084.1,4046.15,4055.9,0
11_56_15,28,4083.08,4083.08,4090.77,4121.54,4089.74,4093.85,4096.92,4086.67,4090.26,4107.69,4126.15,4090.26,4055.38,4056.41,0
11_56_15,29,4089.74,4080,4092.31,4122.56,4092.82,4095.38,4105.64,4106.15,4092.31,4110.26,4131.28,4101.54,4059.49,4064.1,0
11_56_15,30,4082.56,4078.46,4089.74,4122.56,4088.72,4086.67,4099.49,4124.62,4102.56,4106.15,4124.62,4098.97,4042.05,4060.51,0
11_56_15,31,4072.31,4073.33,4083.59,4116.92,4093.85,4089.23,4090.77,4136.41,4110.77,4103.08,4110.26,4083.08,4022.56,4047.69,0
11_56_15,32,4065.13,4066.15,4077.44,4109.23,4098.97,4099.49,4093.85,4136.92,4098.46,4088.21,4093.33,4065.13,4009.74,4033.33,0
11_56_15,33,4058.97,4064.62,4075.9,4110.26,4094.87,4100,4098.46,4116.41,4088.21,4078.46,4083.59,4055.38,4002.05,4024.1,0
11_56_15,34,4058.46,4064.62,4079.49,4115.38,4097.44,4092.31,4092.82,4095.38,4090.26,4086.67,4090.26,4056.92,4007.69,4026.15,0
11_56_15,35,4074.87,4080,4086.67,4126.67,4110.26,4094.36,4094.36,4100.51,4091.28,4097.95,4111.28,4071.79,4026.15,4041.54,0
11_56_15,36,4093.33,4101.03,4094.87,4137.44,4110.77,4097.95,4106.15,4115.9,4095.9,4104.62,4124.1,4085.64,4037.44,4054.87,0
11_56_15,37,4092.31,4095.38,4096.41,4131.79,4093.33,4088.21,4103.08,4110.26,4097.95,4107.69,4121.54,4091.79,4044.62,4056.92,0
11_56_15,38,4080.51,4076.41,4092.82,4122.05,4087.18,4081.54,4090.26,4098.97,4091.28,4107.69,4115.9,4094.36,4056.41,4052.31,0
11_56_15,39,4076.92,4076.41,4090.77,4123.59,4100,4088.72,4087.18,4094.87,4090.26,4105.64,4110.26,4089.74,4073.85,4045.13,0
11_56_15,40,4077.44,4080,4091.28,4121.54,4105.13,4092.31,4094.36,4094.87,4092.31,4104.1,4107.69,4083.08,4100.51,4040.51,0
11_56_15,41,4072.31,4073.85,4088.21,4116.92,4101.54,4093.33,4103.59,4100,4092.31,4107.69,4110.77,4078.97,4126.67,4039.49,0
11_56_15,42,4068.72,4070.77,4085.64,4121.03,4103.59,4101.54,4107.69,4107.69,4098.46,4113.85,4111.28,4078.46,4138.97,4034.87,0
11_56_15,43,4064.1,4065.64,4083.08,4117.44,4109.23,4107.18,4102.05,4113.85,4095.38,4105.13,4104.1,4073.85,4141.54,4026.67,0
11_56_15,44,4057.44,4056.92,4078.97,4105.64,4114.36,4104.1,4093.33,4104.1,4074.87,4077.44,4091.28,4062.56,4136.41,4016.41,0
11_56_15,45,4058.46,4058.97,4077.95,4108.72,4122.05,4098.97,4087.18,4090.26,4066.67,4058.97,4083.59,4057.95,4126.15,4009.23,0
11_56_15,46,4073.85,4068.21,4085.13,4123.08,4124.1,4095.38,4084.1,4090.26,4081.54,4067.69,4093.85,4067.18,4129.74,4015.9,0
11_56_15,47,4090.26,4080,4096.41,4130.77,4114.87,4093.85,4087.69,4096.41,4092.82,4082.56,4114.36,4085.13,4148.21,4037.44,0
11_56_15,48,4097.95,4090.26,4099.49,4127.69,4107.18,4091.79,4090.77,4093.33,4087.69,4091.79,4132.82,4100.51,4164.1,4056.92,0
11_56_15,49,4100.51,4089.74,4095.38,4124.62,4104.1,4088.72,4092.31,4091.28,4085.64,4111.28,4143.59,4108.72,4167.18,4063.59,0
11_56_15,50,4100.51,4082.05,4093.33,4127.18,4104.62,4092.82,4097.95,4102.05,4097.95,4133.33,4144.62,4111.79,4163.08,4064.1,0
11_56_15,51,4093.33,4074.36,4090.77,4124.1,4113.85,4099.49,4097.95,4107.69,4108.72,4135.9,4141.03,4105.13,4156.41,4062.05,0
11_56_15,52,4079.49,4063.59,4083.59,4114.87,4120.51,4096.92,4091.79,4101.54,4109.74,4121.54,4128.72,4092.31,4141.03,4049.74,0
11_56_15,53,4072.82,4055.9,4082.05,4115.38,4111.79,4094.36,4090.77,4100.51,4104.1,4110.26,4114.87,4080.51,4124.1,4035.9,0
11_56_15,54,4071.28,4056.41,4082.05,4116.41,4099.49,4099.49,4092.31,4107.69,4092.31,4106.67,4114.87,4074.87,4115.9,4030.77,0
11_56_15,55,4069.23,4064.62,4081.03,4112.31,4108.21,4106.67,4093.85,4116.41,4085.13,4100,4122.05,4076.41,4117.44,4033.85,0
11_56_15,56,4075.38,4076.92,4087.18,4117.44,4127.18,4108.21,4099.49,4120,4092.31,4094.36,4123.08,4084.1,4119.49,4037.95,0
11_56_15,57,4084.1,4083.59,4093.33,4125.64,4124.1,4099.49,4099.49,4111.79,4095.38,4091.28,4123.59,4085.13,4118.97,4038.46,0
11_56_15,58,4080.51,4076.41,4087.69,4120.51,4104.62,4086.15,4089.23,4094.36,4081.54,4081.54,4123.08,4078.97,4111.79,4035.9,0
11_56_15,59,4079.49,4072.31,4087.69,4118.97,4098.97,4080.51,4086.67,4090.26,4076.92,4074.36,4117.95,4084.62,4105.13,4039.49,0
11_56_15,60,4087.69,4077.44,4093.33,4126.15,4109.23,4083.08,4091.28,4089.74,4082.56,4088.21,4122.56,4098.97,4110.77,4049.74,0
11_56_15,61,4081.54,4073.33,4089.74,4117.95,4110.77,4082.56,4085.13,4072.31,4080,4099.49,4126.67,4099.49,4110.77,4048.72,0
11_56_15,62,4071.79,4064.1,4083.59,4108.21,4110.77,4083.08,4080.51,4066.15,4083.08,4096.41,4122.05,4090.77,4102.56,4041.03,0
11_56_15,63,4075.9,4066.15,4085.64,4118.46,4114.36,4096.92,4090.26,4088.21,4092.82,4103.08,4125.64,4091.79,4104.62,4044.62,0
11_56_15,64,4078.46,4074.87,4087.69,4125.13,4109.74,4108.21,4096.92,4110.26,4094.87,4113.85,4130.26,4091.79,4106.67,4050.77,0
11_56_15,65,4073.33,4075.38,4085.13,4115.38,4102.05,4099.49,4091.79,4112.31,4091.79,4103.59,4118.97,4078.46,4095.38,4044.1,0
11_56_15,66,4074.87,4074.36,4084.62,4112.82,4104.62,4089.23,4089.74,4102.05,4089.74,4084.1,4104.62,4069.23,4080.51,4038.46,0
11_56_15,67,4083.59,4081.54,4086.67,4121.03,4110.26,4086.67,4093.33,4093.85,4082.56,4071.28,4105.64,4077.95,4076.41,4045.64,0
11_56_15,68,4085.13,4080.51,4088.21,4124.1,4111.28,4082.56,4093.33,4089.23,4082.56,4067.18,4110.26,4088.21,4072.31,4049.74,0
11_56_15,69,4080.51,4071.79,4087.18,4117.95,4109.74,4085.64,4090.77,4085.64,4086.67,4078.46,4113.85,4088.72,4068.72,4048.21,0
11_56_15,70,4080,4073.33,4086.15,4109.74,4106.15,4092.82,4088.72,4083.59,4083.08,4092.82,4122.05,4091.79,4080,4051.28,0
11_56_15,71,4080,4078.97,4084.1,4106.15,4105.64,4093.33,4090.26,4091.79,4085.13,4096.41,4125.64,4092.31,4093.33,4054.36,0
11_56_15,72,4076.41,4075.38,4084.1,4110.77,4110.26,4092.82,4091.28,4099.49,4097.44,4109.74,4123.08,4082.05,4092.31,4051.79,0
11_56_15,73,4078.46,4073.85,4087.18,4118.46,4111.28,4094.36,4091.28,4103.08,4108.21,4125.13,4130.26,4082.56,4092.31,4052.31,0
11_56_15,74,4088.72,4084.1,4091.28,4123.08,4104.62,4091.28,4090.77,4110.77,4106.67,4118.46,4136.41,4092.82,4097.44,4055.38,0
11_56_15,75,4084.1,4087.69,4084.1,4118.97,4096.41,4084.62,4088.72,4106.15,4097.95,4106.15,4123.59,4082.05,4089.23,4050.26,0
11_56_15,76,4067.18,4077.95,4074.36,4107.69,4101.03,4083.08,4087.69,4092.31,4087.69,4096.41,4105.13,4066.15,4070.26,4036.92,0
11_56_15,77,4065.64,4072.31,4075.9,4105.13,4113.33,4086.67,4089.74,4095.9,4084.62,4086.15,4105.13,4072.31,4064.62,4032.82,0
11_56_15,78,4072.82,4073.85,4081.54,4111.28,4111.28,4085.64,4089.23,4104.1,4088.21,4083.08,4111.79,4080.51,4070.26,4040,0
11_56_15,79,4077.95,4076.92,4083.59,4116.92,4105.13,4085.64,4088.21,4094.36,4086.67,4081.54,4110.26,4080,4074.87,4045.13,0
11_56_15,80,4088.72,4086.67,4089.23,4124.62,4116.92,4092.82,4091.79,4087.69,4086.67,4080,4114.36,4087.69,4076.92,4048.21,0
11_56_15,81,4097.95,4094.87,4091.79,4127.69,4123.59,4094.87,4093.33,4097.44,4088.72,4083.59,4117.95,4095.38,4077.95,4057.44,0
11_56_15,82,4092.82,4087.18,4085.13,4114.87,4113.33,4090.77,4090.77,4096.92,4082.05,4086.67,4112.31,4091.79,4075.9,4061.54,0
11_56_15,83,4087.69,4078.46,4081.54,4106.67,4106.67,4095.38,4092.82,4089.74,4078.97,4088.21,4107.18,4086.67,4072.82,4056.41,0
11_56_15,84,4092.31,4084.62,4086.15,4117.44,4102.56,4094.36,4093.33,4095.38,4094.36,4101.54,4111.28,4088.72,4073.33,4062.05,0
11_56_15,85,4094.36,4086.67,4087.69,4123.59,4095.38,4083.08,4088.21,4102.05,4103.08,4109.23,4113.33,4091.79,4072.31,4074.87,0
11_56_15,86,4093.85,4082.56,4086.67,4120,4103.59,4085.64,4087.69,4106.67,4104.62,4108.72,4108.72,4088.21,4065.64,4077.44,0
11_56_15,87,4094.36,4095.9,4091.28,4123.08,4120,4095.9,4090.77,4113.85,4110.77,4114.87,4110.77,4083.08,4063.08,4073.85,0
11_56_15,88,4093.85,4109.74,4091.28,4127.69,4120.51,4089.74,4084.1,4107.69,4098.46,4110.77,4113.33,4076.92,4063.08,4068.21,0
11_56_15,89,4090.77,4101.03,4085.13,4125.64,4115.9,4080,4074.87,4089.74,4078.97,4093.33,4103.08,4069.74,4055.9,4058.46,0
11_56_15,90,4089.23,4096.92,4086.15,4123.59,4119.49,4086.15,4079.49,4087.18,4074.87,4083.08,4095.38,4077.95,4052.31,4061.54,0
11_56_15,91,4095.38,4106.67,4090.26,4125.13,4122.56,4093.33,4090.26,4085.64,4069.74,4075.38,4101.54,4090.26,4052.31,4071.79,0
11_56_15,92,4104.1,4110.26,4091.79,4130.26,4119.49,4091.79,4091.28,4075.9,4073.33,4070.26,4105.64,4089.74,4050.77,4074.36,0
11_56_15,93,4110.26,4116.92,4097.44,4137.44,4113.33,4091.79,4091.28,4087.69,4094.36,4084.62,4110.26,4096.92,4056.41,4081.54,0
11_56_15,94,4113.33,4123.59,4099.49,4140.51,4107.69,4094.87,4096.92,4108.72,4097.95,4103.08,4124.62,4110.26,4062.05,4090.26,0
11_56_15,95,4110.77,4112.82,4092.31,4133.33,4107.18,4096.92,4096.92,4109.23,4087.69,4101.03,4122.56,4099.49,4054.36,4080.51,0
11_56_15,96,4101.03,4106.67,4089.23,4127.69,4117.44,4092.82,4092.82,4106.15,4100.51,4101.03,4103.08,4082.56,4043.59,4066.15,0
11_56_15,97,4091.79,4109.23,4089.23,4128.72,4121.54,4085.64,4090.26,4107.18,4108.72,4104.1,4095.38,4083.59,4039.49,4059.49,0
11_56_15,98,4088.21,4101.54,4084.1,4125.13,4109.74,4080,4083.08,4090.77,4082.05,4094.87,4090.77,4078.97,4027.69,4049.23,0
11_56_15,99,4086.67,4097.44,4083.59,4119.49,4101.54,4078.97,4076.92,4072.31,4065.64,4086.67,4079.49,4067.18,4016.92,4041.54,0
11_56_15,100,4089.74,4107.18,4087.69,4122.05,4112.82,4080.51,4078.46,4075.9,4086.15,4093.33,4080.51,4072.31,4021.54,4052.31,0
11_56_15,101,4094.36,4111.79,4088.21,4127.18,4121.03,4080,4076.41,4082.05,4088.72,4092.82,4091.28,4083.08,4029.74,4064.62,0
11_56_15,102,4091.28,4105.64,4086.15,4122.56,4114.36,4075.38,4072.31,4075.9,4064.62,4071.79,4089.74,4079.49,4028.72,4062.56,0
11_56_15,103,4089.23,4106.15,4087.18,4119.49,4107.18,4075.9,4082.05,4077.44,4064.1,4058.46,4080.51,4077.44,4022.05,4059.49,0
11_56_15,104,4092.82,4105.64,4090.26,4121.03,4103.08,4085.13,4094.36,4082.56,4076.41,4067.69,4078.46,4082.05,4016.41,4060.51,0
11_56_15,105,4085.13,4090.77,4090.26,4114.36,4103.08,4091.28,4095.9,4077.44,4077.95,4076.92,4077.44,4078.97,4007.18,4051.79,0
11_56_15,106,4077.95,4087.69,4089.74,4110.26,4104.62,4093.33,4095.38,4082.56,4086.15,4084.62,4071.79,4073.33,4006.67,4044.1,0
11_56_15,107,4087.69,4104.62,4092.82,4119.49,4107.69,4088.21,4092.31,4093.85,4094.87,4096.41,4078.46,4078.46,4018.97,4053.85,0
11_56_15,108,4094.87,4109.23,4092.82,4124.1,4112.31,4082.56,4085.13,4090.77,4093.33,4103.59,4095.9,4089.23,4032.82,4066.67,0
11_56_15,109,4091.79,4106.67,4089.23,4123.08,4114.36,4087.18,4080,4095.38,4094.36,4108.72,4101.54,4093.33,4037.44,4068.21,0
11_56_15,110,4093.85,4119.49,4090.77,4128.72,4111.28,4089.23,4075.9,4101.54,4089.74,4108.72,4090.26,4084.1,4032.31,4063.08,0
11_56_15,111,4087.18,4113.33,4087.69,4122.56,4109.23,4084.62,4078.46,4090.26,4076.92,4092.31,4077.44,4070.77,4022.05,4056.41,0
11_56_15,112,4072.31,4088.21,4080.51,4106.67,4107.69,4081.03,4088.21,4083.59,4076.41,4076.92,4070.26,4066.67,4007.18,4049.74,0
11_56_15,113,4072.82,4092.82,4081.54,4106.15,4106.15,4078.97,4090.77,4084.1,4074.36,4077.95,4064.1,4065.13,4000,4048.72,0
11_56_15,114,4082.56,4103.08,4085.13,4111.79,4101.54,4078.97,4088.72,4074.36,4065.64,4074.36,4064.62,4067.18,4001.54,4053.85,0
11_56_15,115,4086.15,4092.31,4084.1,4106.67,4090.26,4081.03,4089.23,4071.28,4069.23,4069.74,4070.77,4073.33,4003.08,4057.44,0
11_56_15,116,4088.72,4093.33,4087.69,4104.1,4091.79,4077.44,4088.72,4082.05,4079.49,4085.13,4078.46,4074.87,4012.31,4062.56,0
11_56_15,117,4100,4112.31,4093.85,4115.9,4108.72,4081.54,4085.13,4090.26,4090.77,4107.18,4087.18,4081.54,4029.23,4072.31,0
11_56_15,118,4109.23,4117.44,4092.82,4123.59,4109.74,4091.28,4080,4098.46,4103.08,4117.44,4097.95,4093.33,4031.28,4076.92,0
11_56_15,119,4101.03,4106.15,4087.69,4120,4101.03,4088.72,4078.46,4103.08,4103.59,4113.33,4094.36,4087.18,4013.85,4064.1,0
11_56_15,120,4084.62,4103.08,4086.15,4118.97,4108.21,4087.18,4085.13,4097.95,4089.23,4094.87,4076.92,4071.79,4000,4047.18,0
11_56_15,121,4076.92,4103.08,4083.59,4118.46,4111.28,4089.74,4086.67,4084.62,4069.23,4080,4065.13,4065.13,3991.79,4036.92,0
11_56_16,122,4069.23,4093.33,4078.97,4109.74,4104.62,4085.13,4079.49,4065.13,4053.85,4074.36,4055.9,4055.38,3977.95,4024.1,0
11_56_16,123,4063.08,4088.21,4080.51,4101.03,4106.15,4087.18,4082.56,4058.46,4055.9,4067.69,4046.67,4049.23,3968.72,4017.44,0
11_56_16,124,4078.46,4102.56,4089.23,4106.15,4109.74,4092.82,4090.26,4074.36,4076.92,4072.82,4054.87,4063.59,3978.46,4031.79,0
11_56_16,125,4094.87,4113.33,4094.36,4117.44,4109.23,4090.26,4089.74,4095.38,4090.26,4089.23,4072.82,4077.44,3994.36,4053.33,0
11_56_16,126,4095.38,4104.62,4092.31,4120.51,4105.64,4089.23,4090.26,4106.15,4088.72,4091.28,4077.95,4079.49,4001.03,4062.56,0
11_56_16,127,4095.9,4100.51,4089.74,4120.51,4098.46,4091.28,4091.79,4111.28,4095.9,4089.74,4076.92,4078.46,3996.92,4061.03,0
11_56_16,128,4100,4105.13,4088.21,4120.51,4098.97,4087.69,4085.64,4099.49,4096.92,4094.87,4076.92,4076.92,3991.28,4060,0
11_56_16,0,4102.56,4108.21,4088.21,4113.85,4107.18,4086.15,4084.1,4073.85,4076.92,4090.26,4074.87,4080,3994.87,4062.56,0
11_56_16,1,4106.67,4111.79,4090.26,4111.79,4110.26,4089.23,4091.79,4065.64,4064.62,4091.79,4083.59,4090.77,4008.72,4070.26,0
11_56_16,2,4109.23,4119.49,4094.36,4124.62,4105.64,4089.74,4096.41,4080,4078.46,4107.18,4095.38,4095.38,4016.92,4075.38,0
11_56_16,3,4107.18,4125.64,4094.36,4130.77,4108.72,4092.31,4095.38,4100.51,4101.54,4113.33,4093.85,4092.31,4012.82,4074.36,0
11_56_16,4,4108.72,4126.15,4095.38,4122.05,4119.49,4098.97,4094.87,4115.38,4111.79,4107.69,4087.69,4093.33,4008.21,4071.28,0
11_56_16,5,4107.69,4123.08,4097.44,4122.05,4120,4104.1,4095.9,4123.08,4109.23,4106.67,4084.1,4093.33,4001.54,4067.18,0
11_56_16,6,4097.95,4112.31,4092.82,4124.1,4109.74,4103.08,4095.9,4126.15,4102.56,4109.23,4073.85,4085.13,3992.31,4058.46,0
11_56_16,7,4087.18,4104.1,4085.64,4115.9,4102.05,4096.41,4092.82,4117.95,4102.56,4105.13,4062.05,4074.87,3984.62,4047.69,0
11_56_16,8,4082.56,4106.15,4084.62,4106.67,4101.03,4090.26,4090.77,4093.85,4093.85,4091.28,4061.54,4069.23,3982.05,4041.54,0
11_56_16,9,4084.62,4105.13,4085.64,4106.15,4103.59,4091.28,4093.33,4075.38,4074.87,4083.59,4062.56,4074.87,3992.31,4045.13,0
11_56_16,10,4091.28,4102.05,4085.64,4111.79,4110.77,4091.79,4095.9,4080,4071.79,4091.79,4061.54,4086.15,4016.92,4055.38,0
11_56_16,11,4103.08,4110.26,4092.82,4117.95,4112.31,4093.33,4098.46,4092.31,4083.08,4100.51,4075.38,4098.46,4054.36,4068.21,0
11_56_16,12,4113.33,4123.08,4098.46,4123.59,4106.67,4102.56,4104.1,4113.85,4102.56,4109.74,4095.9,4105.13,4094.87,4080.51,0
11_56_16,13,4109.23,4120,4093.33,4124.62,4105.13,4107.69,4102.56,4136.41,4117.44,4117.44,4092.82,4098.46,4110.26,4075.38,0
11_56_16,14,4095.9,4110.77,4085.13,4117.44,4107.18,4096.92,4088.72,4135.38,4118.97,4116.92,4073.85,4083.59,4100.51,4055.9,0
11_56_16,15,4085.64,4104.62,4082.05,4107.69,4107.69,4088.21,4078.97,4112.31,4102.05,4107.69,4057.95,4072.82,4094.87,4041.54,0
11_56_16,16,4086.67,4102.56,4082.56,4105.13,4113.85,4089.74,4076.92,4088.72,4081.03,4092.82,4049.23,4072.31,4094.36,4041.03,0
11_56_16,17,4098.97,4112.82,4086.67,4110.26,4120,4090.77,4079.49,4077.95,4080.51,4088.21,4049.74,4078.46,4094.87,4049.74,0
11_56_16,18,4104.1,4120.51,4086.67,4109.23,4113.85,4090.77,4083.59,4073.85,4079.49,4091.28,4058.46,4079.49,4103.59,4057.95,0
11_56_16,19,4092.82,4102.05,4077.95,4097.95,4097.95,4087.18,4083.59,4067.18,4060,4077.95,4058.97,4071.28,4101.54,4052.31,0
11_56_16,20,4081.54,4079.49,4073.85,4088.72,4096.92,4083.59,4083.59,4062.05,4052.82,4064.62,4052.31,4063.08,4090.77,4043.08,0
11_56_16,21,4083.08,4085.64,4081.03,4089.74,4112.31,4090.77,4090.26,4073.85,4079.49,4086.67,4051.28,4063.08,4091.79,4043.08,0
11_56_16,22,4090.26,4106.15,4086.15,4098.97,4116.41,4098.46,4095.9,4099.49,4101.54,4111.28,4057.44,4071.28,4094.36,4047.69,0
11_56_16,23,4096.41,4115.38,4087.18,4107.18,4102.56,4093.85,4091.79,4112.82,4101.54,4113.33,4069.23,4083.08,4096.41,4055.38,0
11_56_16,24,4099.49,4109.23,4087.69,4108.72,4092.31,4087.69,4088.21,4114.36,4098.97,4113.85,4076.92,4093.33,4101.03,4064.1,0
11_56_16,25,4095.38,4101.03,4085.64,4101.54,4099.49,4090.77,4087.18,4113.85,4101.03,4110.26,4072.82,4096.41,4089.74,4064.1,0
11_56_16,26,4090.77,4101.54,4081.03,4093.85,4110.26,4092.82,4083.08,4106.15,4098.97,4100.51,4061.54,4088.21,4071.28,4056.92,0
11_56_16,27,4088.72,4095.9,4082.56,4092.82,4111.28,4089.74,4081.03,4087.69,4079.49,4090.26,4047.18,4073.85,4059.49,4049.23,0
11_56_16,28,4088.21,4085.64,4083.59,4095.9,4103.59,4087.18,4081.54,4069.23,4057.95,4079.49,4036.41,4064.1,4050.26,4044.1,0
11_56_16,29,4090.26,4095.38,4083.08,4097.95,4100.51,4091.28,4085.64,4061.54,4060.51,4073.33,4033.33,4061.03,4043.59,4043.59,0
11_56_16,30,4090.26,4109.74,4083.08,4098.97,4105.64,4091.79,4089.74,4065.64,4072.31,4079.49,4034.87,4057.44,4040.51,4042.56,0
11_56_16,31,4094.87,4107.69,4084.62,4102.56,4110.26,4089.23,4089.23,4082.56,4078.46,4086.67,4042.05,4062.56,4044.1,4047.18,0
11_56_16,32,4110.26,4113.33,4089.74,4107.69,4111.79,4093.85,4087.69,4095.9,4096.41,4098.97,4057.44,4080,4058.97,4064.62,0
11_56_16,33,4123.08,4132.82,4092.31,4109.74,4110.77,4095.9,4091.79,4096.41,4109.74,4115.38,4066.67,4091.79,4067.18,4076.92,0
11_56_16,34,4122.56,4142.05,4087.18,4110.26,4103.59,4090.77,4091.28,4096.41,4093.85,4106.15,4062.05,4086.15,4054.87,4068.72,0
11_56_16,35,4114.87,4136.41,4085.13,4110.77,4098.46,4088.72,4084.1,4093.85,4074.87,4090.77,4057.44,4078.97,4042.05,4060,0
11_56_16,36,4108.72,4131.79,4088.21,4107.69,4105.13,4085.64,4078.97,4082.56,4074.87,4091.79,4052.82,4077.95,4041.03,4061.03,0
11_56_16,37,4107.18,4135.38,4084.62,4105.64,4112.31,4080.51,4081.54,4074.36,4077.44,4081.54,4036.41,4066.67,4030.26,4055.38,0
11_56_16,38,4106.67,4138.97,4078.97,4111.28,4117.95,4087.69,4082.56,4072.82,4070.77,4064.62,4022.05,4053.85,4007.18,4042.56,0
11_56_16,39,4102.05,4139.49,4084.1,4114.36,4117.44,4098.46,4078.46,4074.87,4075.9,4077.44,4025.13,4056.41,3997.95,4038.97,0
11_56_16,40,4103.08,4137.44,4089.23,4110.26,4107.69,4093.33,4074.87,4081.54,4082.56,4088.21,4031.28,4062.05,4003.08,4049.23,0
11_56_16,41,4108.72,4142.05,4086.15,4113.85,4106.15,4087.69,4073.85,4080,4076.41,4074.36,4028.72,4062.05,4003.08,4057.44,0
11_56_16,42,4113.33,4151.28,4087.69,4119.49,4114.87,4094.36,4077.44,4077.44,4074.36,4074.36,4027.69,4064.62,3999.49,4056.41,0
11_56_16,43,4120,4154.36,4092.82,4116.92,4115.38,4096.92,4082.05,4088.21,4083.08,4085.13,4032.31,4071.79,4002.05,4058.46,0
11_56_16,44,4125.64,4157.95,4093.33,4115.9,4107.18,4087.69,4083.08,4090.26,4082.56,4079.49,4034.87,4071.79,4004.62,4063.08,0
11_56_16,45,4126.15,4162.56,4088.21,4121.03,4105.64,4081.54,4081.54,4074.87,4072.82,4071.28,4027.18,4059.49,3992.31,4054.87,0
11_56_16,46,4120,4163.08,4085.64,4122.05,4106.67,4083.08,4081.54,4064.62,4067.69,4066.67,4005.64,4045.64,3968.21,4037.95,0
11_56_16,47,4110.77,4158.97,4086.15,4116.92,4105.64,4080.51,4075.9,4064.1,4060,4053.33,3989.74,4040,3948.21,4027.69,0
11_56_16,48,4103.59,4155.9,4079.49,4111.79,4106.15,4074.87,4065.64,4063.08,4057.95,4047.18,3988.21,4036.92,3945.13,4020.51,0
11_56_16,49,4097.95,4154.36,4073.85,4106.67,4108.21,4075.38,4061.54,4062.05,4066.67,4053.85,3990.26,4034.87,3952.82,4016.92,0
11_56_16,50,4094.87,4152.82,4075.9,4105.64,4109.23,4078.46,4060.51,4059.49,4067.69,4055.9,3990.26,4035.9,3956.92,4022.05,0
11_56_16,51,4097.95,4154.87,4080.51,4108.21,4106.15,4075.38,4062.05,4062.56,4060,4052.82,3986.15,4035.9,3946.67,4021.03,0
11_56_16,52,4106.15,4159.49,4086.15,4112.82,4097.95,4073.33,4066.15,4075.38,4067.18,4060.51,3991.79,4041.54,3946.67,4021.54,0
11_56_16,53,4114.87,4167.18,4088.72,4117.95,4094.87,4075.38,4066.15,4078.97,4083.08,4072.31,4010.26,4050.77,3968.72,4038.97,0
11_56_16,54,4123.08,4171.28,4086.67,4117.95,4103.08,4074.87,4066.67,4067.69,4077.95,4063.59,4004.1,4046.15,3964.62,4046.67,0
11_56_16,55,4125.64,4167.69,4086.67,4120.51,4108.72,4074.87,4075.38,4062.05,4059.49,4043.08,3983.59,4044.62,3941.54,4040,0
11_56_16,56,4124.1,4169.74,4088.72,4122.56,4109.74,4076.92,4075.38,4061.03,4053.85,4042.56,3991.28,4054.36,3945.13,4044.1,0
11_56_16,57,4124.1,4170.77,4087.69,4114.36,4108.21,4075.9,4065.64,4056.41,4066.67,4058.46,4006.67,4055.38,3951.79,4048.72,0
11_56_16,58,4124.1,4162.05,4086.67,4104.1,4100.51,4073.33,4067.18,4063.08,4072.82,4062.56,3995.9,4054.36,3942.05,4043.08,0
11_56_16,59,4121.54,4158.46,4089.74,4106.15,4102.05,4074.87,4074.87,4074.87,4063.59,4057.44,3993.85,4058.97,3944.62,4047.69,0
11_56_16,60,4124.62,4167.69,4091.28,4118.46,4109.74,4076.92,4074.87,4073.33,4060.51,4055.9,4013.85,4060.51,3960.51,4060.51,0
11_56_16,61,4134.87,4172.31,4093.85,4124.62,4108.72,4074.87,4073.33,4071.79,4071.28,4060.51,4023.59,4062.56,3964.1,4062.05,0
11_56_16,62,4137.44,4169.23,4094.87,4122.05,4106.67,4075.38,4076.41,4078.97,4081.03,4073.85,4021.03,4069.23,3965.13,4063.59,0
11_56_16,63,4129.74,4165.64,4093.33,4124.1,4103.59,4078.46,4079.49,4077.95,4077.95,4076.92,4017.44,4070.26,3963.59,4065.13,0
11_56_16,64,4120.51,4161.03,4089.23,4124.1,4095.38,4081.03,4081.54,4073.33,4071.79,4066.15,4008.72,4062.56,3952.31,4055.38,0
11_56_16,65,4109.74,4150.77,4082.56,4111.79,4100,4084.1,4081.54,4082.05,4072.82,4061.54,3998.97,4057.44,3947.18,4044.62,0
11_56_16,66,4101.03,4140.51,4081.03,4102.05,4110.77,4084.62,4080,4083.59,4077.44,4068.72,4002.05,4058.97,3950.26,4041.54,0
11_56_16,67,4098.97,4135.38,4083.59,4103.59,4108.21,4081.54,4078.46,4072.31,4073.33,4067.69,4008.21,4060,3955.38,4040,0
11_56_16,68,4095.9,4132.31,4084.62,4103.08,4102.56,4074.87,4075.38,4066.15,4065.13,4060,4005.64,4054.87,3954.87,4035.9,0
11_56_16,69,4098.46,4125.64,4087.18,4104.62,4102.05,4076.92,4080,4067.69,4064.62,4071.28,4016.92,4062.56,3964.62,4045.13,0
11_56_16,70,4107.69,4120,4091.79,4107.69,4101.03,4088.21,4092.31,4072.82,4071.28,4089.23,4037.44,4078.97,3986.67,4062.56,0
11_56_16,71,4110.26,4129.74,4093.33,4108.21,4104.1,4090.26,4096.41,4080,4084.1,4088.72,4035.9,4078.97,3986.67,4064.62,0
11_56_16,72,4109.23,4141.03,4090.77,4112.31,4108.21,4079.49,4085.13,4087.69,4083.08,4076.92,4021.03,4068.72,3971.79,4057.44,0
11_56_16,73,4107.18,4128.21,4085.13,4110.26,4099.49,4073.33,4074.87,4091.28,4070.77,4069.74,4019.49,4065.13,3971.79,4055.38,0
11_56_16,74,4096.92,4107.18,4083.59,4095.9,4086.67,4077.44,4075.38,4088.21,4069.74,4066.67,4024.1,4065.64,3978.46,4056.92,0
11_56_16,75,4090.77,4105.13,4085.64,4089.74,4093.33,4074.87,4074.87,4075.38,4074.87,4073.33,4020.51,4064.62,3976.41,4054.36,0
11_56_16,76,4092.31,4109.74,4085.13,4094.36,4107.18,4068.21,4071.79,4066.67,4077.44,4082.05,4017.44,4063.59,3973.85,4050.77,0
11_56_16,77,4091.79,4106.67,4084.62,4097.95,4106.67,4070.26,4074.87,4075.38,4075.38,4074.87,4021.54,4058.97,3975.38,4049.23,0
11_56_16,78,4092.31,4111.28,4087.69,4098.46,4103.08,4083.59,4085.64,4089.23,4077.44,4077.95,4032.82,4063.59,3986.67,4054.36,0
11_56_16,79,4090.26,4105.64,4086.15,4095.9,4101.54,4095.38,4093.85,4097.95,4089.74,4094.87,4044.1,4075.9,3998.46,4059.49,0
11_56_16,80,4076.92,4084.62,4082.05,4089.74,4093.33,4089.74,4093.85,4098.46,4091.79,4091.28,4040,4069.74,3991.28,4047.69,0
11_56_16,81,4070.26,4080.51,4082.05,4088.21,4095.38,4081.03,4091.79,4093.33,4076.92,4079.49,4026.67,4058.46,3982.56,4038.46,0
11_56_16,82,4076.92,4093.85,4084.1,4093.85,4107.69,4083.59,4090.26,4083.08,4069.23,4088.72,4030.77,4068.21,3992.31,4050.77,0
11_56_16,83,4080.51,4093.85,4085.64,4090.77,4105.64,4089.74,4092.31,4078.97,4076.92,4095.38,4044.1,4079.49,4002.05,4061.54,0
11_56_16,84,4074.87,4078.46,4084.1,4081.03,4092.82,4090.77,4094.87,4085.64,4080.51,4082.05,4036.92,4070.26,3991.28,4049.74,0
11_56_16,85,4067.18,4069.74,4076.41,4079.49,4090.26,4089.74,4090.77,4087.69,4072.31,4065.64,4014.87,4055.9,3971.28,4034.36,0
11_56_16,86,4069.23,4078.46,4075.9,4085.64,4100,4088.21,4085.64,4089.74,4073.33,4058.46,4010.77,4054.87,3965.13,4036.41,0
11_56_16,87,4085.64,4091.28,4086.15,4092.82,4107.69,4089.74,4089.74,4105.64,4089.74,4073.85,4032.31,4069.23,3980,4052.31,0
11_56_16,88,4091.79,4087.69,4088.72,4091.79,4099.49,4091.79,4093.33,4109.74,4091.28,4097.95,4046.15,4079.49,3995.38,4060.51,0
11_56_16,89,4075.9,4074.36,4081.03,4082.05,4087.18,4085.64,4089.23,4094.87,4073.85,4092.31,4036.41,4070.26,3989.74,4050.77,0
11_56_16,90,4069.74,4073.33,4078.97,4081.54,4090.77,4079.49,4087.69,4093.33,4079.49,4079.49,4031.28,4063.08,3988.21,4043.08,0
11_56_16,91,4073.33,4078.46,4082.56,4088.21,4100,4083.08,4090.26,4097.95,4097.44,4092.31,4041.03,4066.15,4000.51,4047.69,0
11_56_16,92,4063.08,4073.33,4080,4080.51,4098.97,4087.69,4089.23,4090.77,4088.21,4095.9,4037.95,4061.54,3999.49,4046.67,0
11_56_16,93,4060,4069.74,4080,4081.03,4096.41,4091.79,4091.79,4088.21,4070.77,4077.44,4029.23,4054.36,3992.82,4040.51,0
11_56_16,94,4074.87,4079.49,4085.64,4097.44,4095.9,4093.33,4094.36,4086.67,4069.23,4076.41,4039.49,4058.97,4004.62,4045.64,0
11_56_16,95,4073.33,4078.46,4085.13,4091.79,4093.33,4081.54,4087.69,4076.92,4076.41,4085.64,4042.05,4061.54,4006.67,4046.67,0
11_56_16,96,4057.44,4062.05,4080,4072.82,4089.74,4068.72,4077.44,4071.28,4075.9,4079.49,4026.15,4055.9,3991.28,4036.41,0
11_56_16,97,4058.97,4060.51,4078.97,4078.97,4088.21,4076.92,4077.95,4076.41,4067.69,4071.79,4023.08,4054.36,3988.72,4032.31,0
11_56_16,98,4072.31,4076.41,4080,4087.69,4094.87,4092.82,4089.23,4091.79,4076.92,4077.44,4040,4060,4001.03,4047.69,0
11_56_16,99,4076.41,4076.41,4081.54,4082.56,4097.44,4093.85,4094.36,4108.21,4095.38,4086.67,4050.26,4064.62,4010.77,4062.56,0
11_56_16,100,4071.28,4063.59,4080,4081.03,4090.26,4087.18,4089.23,4104.62,4089.23,4088.72,4039.49,4060,4017.44,4057.44,0
11_56_16,101,4070.26,4066.15,4078.46,4081.03,4095.9,4091.28,4090.26,4089.23,4072.82,4088.21,4035.9,4057.44,4036.92,4054.87,0
11_56_16,102,4080,4076.41,4083.08,4083.59,4107.69,4097.44,4096.92,4089.74,4075.38,4087.69,4047.18,4069.23,4070.26,4071.28,0
11_56_16,103,4092.31,4079.49,4089.23,4093.33,4109.23,4094.87,4095.38,4095.38,4079.49,4086.67,4058.46,4082.05,4097.95,4082.56,0
11_56_16,104,4092.82,4076.41,4087.69,4094.36,4104.62,4088.72,4088.72,4091.28,4077.44,4086.67,4058.46,4084.1,4113.85,4076.41,0
11_56_16,105,4083.08,4069.74,4083.59,4081.54,4093.85,4087.69,4089.74,4095.9,4088.21,4090.77,4051.79,4080,4123.59,4070.77,0
11_56_16,106,4075.38,4064.1,4081.03,4078.46,4083.08,4090.26,4094.87,4108.21,4096.92,4096.92,4044.62,4077.44,4126.67,4065.13,0
11_56_16,107,4075.38,4064.62,4078.97,4085.13,4090.77,4091.28,4095.9,4108.21,4091.79,4097.44,4042.56,4074.87,4122.56,4058.46,0
11_56_16,108,4076.41,4062.05,4078.46,4085.64,4099.49,4089.74,4092.82,4101.54,4085.64,4093.33,4049.74,4072.31,4124.1,4061.03,0
11_56_16,109,4073.33,4057.44,4081.03,4078.97,4094.87,4086.67,4088.72,4097.95,4082.56,4090.77,4056.92,4078.46,4125.64,4066.67,0
11_56_16,110,4080,4062.05,4088.21,4082.05,4096.92,4089.74,4090.77,4093.85,4082.56,4093.85,4062.05,4089.23,4125.13,4072.31,0
11_56_16,111,4090.77,4064.1,4088.72,4090.26,4097.95,4094.87,4094.87,4091.28,4089.23,4093.85,4064.62,4087.69,4120.51,4074.36,0
11_56_16,112,4087.18,4060,4083.08,4085.64,4095.38,4095.38,4095.9,4098.97,4104.62,4090.77,4055.9,4076.41,4110.77,4069.74,0
11_56_16,113,4077.95,4060.51,4082.05,4080,4102.56,4095.38,4093.85,4105.13,4104.62,4096.41,4046.67,4074.36,4106.15,4064.62,0
11_56_16,114,4074.87,4058.97,4082.56,4081.54,4102.05,4094.36,4092.82,4096.41,4087.69,4092.31,4043.08,4072.82,4103.59,4060,0
11_56_16,115,4080.51,4062.05,4082.56,4082.05,4092.31,4092.82,4092.82,4079.49,4084.1,4085.13,4049.23,4070.77,4104.1,4063.59,0
11_56_16,116,4088.21,4064.62,4085.64,4081.03,4088.72,4086.15,4090.26,4075.38,4092.82,4091.28,4057.44,4081.03,4106.15,4074.36,0
11_56_16,117,4087.69,4061.03,4085.13,4081.03,4089.74,4075.9,4089.23,4087.18,4092.82,4093.85,4060,4086.67,4101.54,4076.41,0
11_56_16,118,4087.18,4065.64,4081.54,4083.59,4089.23,4078.46,4092.31,4100,4098.46,4093.85,4059.49,4083.59,4100,4074.36,0
11_56_16,119,4088.72,4068.72,4083.08,4081.03,4091.28,4090.77,4093.85,4104.62,4110.77,4104.62,4060.51,4081.54,4107.18,4078.97,0
11_56_16,120,4086.15,4060,4084.1,4077.95,4093.85,4097.44,4095.38,4109.74,4108.21,4111.28,4060,4081.54,4109.23,4079.49,0
11_56_17,121,4086.15,4065.64,4082.56,4084.62,4094.87,4098.46,4096.92,4120,4105.64,4103.08,4058.97,4084.62,4104.1,4074.87,0
11_56_17,122,4093.85,4082.56,4083.08,4090.77,4096.92,4097.95,4093.33,4114.36,4106.15,4097.95,4064.62,4087.69,4107.18,4077.44,0
11_56_17,123,4087.69,4068.21,4081.54,4078.46,4094.36,4091.79,4087.69,4086.15,4089.74,4093.33,4066.67,4081.54,4108.72,4075.9,0
11_56_17,124,4074.36,4047.18,4080,4069.23,4090.77,4078.97,4086.15,4072.31,4078.46,4084.1,4061.03,4073.33,4098.97,4070.26,0
11_56_17,125,4074.87,4054.87,4082.56,4078.46,4091.79,4068.72,4080.51,4082.05,4091.79,4084.1,4059.49,4074.36,4095.9,4070.77,0
11_56_17,126,4079.49,4063.59,4083.08,4081.03,4091.79,4067.18,4074.87,4084.62,4096.92,4090.26,4061.54,4074.87,4094.87,4070.26,0
11_56_17,127,4078.46,4060,4083.08,4075.9,4088.72,4079.49,4083.08,4082.05,4084.1,4094.87,4065.13,4073.85,4091.79,4068.72,0
11_56_17,128,4077.44,4058.97,4083.08,4078.97,4090.77,4089.74,4092.82,4088.21,4089.23,4096.92,4067.69,4075.38,4092.31,4073.85,0
11_56_17,0,4076.92,4061.03,4081.54,4082.56,4094.36,4085.64,4091.28,4086.67,4099.49,4091.28,4062.56,4075.38,4087.18,4075.38,0
11_56_17,1,4076.92,4060,4081.54,4081.03,4093.85,4078.46,4087.18,4074.36,4087.69,4080.51,4055.9,4075.38,4074.36,4069.74,0
11_56_17,2,4079.49,4062.05,4082.05,4078.97,4090.77,4080,4090.26,4075.9,4080,4082.56,4058.46,4075.38,4069.74,4067.69,0
11_56_17,3,4082.05,4063.08,4081.03,4078.46,4082.56,4081.03,4092.31,4091.28,4092.82,4091.28,4060.51,4070.77,4072.31,4069.74,0
11_56_17,4,4077.95,4059.49,4080.51,4074.36,4077.44,4072.31,4088.21,4094.36,4103.08,4089.74,4056.41,4065.64,4068.72,4066.15,0
11_56_17,5,4075.9,4059.49,4081.03,4071.79,4087.69,4075.9,4088.21,4090.77,4103.59,4090.77,4058.46,4067.18,4073.85,4066.67,0
11_56_17,6,4078.97,4058.46,4082.56,4076.41,4096.41,4088.72,4094.36,4094.87,4097.44,4097.44,4062.05,4073.33,4078.46,4072.82,0
11_56_17,7,4078.97,4057.95,4083.08,4081.54,4090.77,4089.23,4095.9,4098.46,4086.67,4092.82,4057.95,4073.85,4068.21,4073.85,0
11_56_17,8,4082.05,4063.08,4082.56,4080.51,4092.31,4089.74,4092.82,4094.87,4092.82,4089.74,4064.62,4074.87,4073.33,4075.38,0
11_56_17,9,4085.13,4066.15,4082.56,4080,4098.97,4092.82,4091.79,4088.72,4103.08,4097.44,4075.9,4077.44,4090.26,4079.49,0
11_56_17,10,4078.46,4063.08,4079.49,4080,4093.85,4089.74,4092.82,4088.72,4091.28,4095.38,4070.77,4070.77,4089.74,4075.38,0
11_56_17,11,4074.36,4061.54,4076.41,4077.44,4090.26,4084.62,4092.31,4098.97,4085.13,4084.62,4067.18,4066.67,4084.62,4076.92,0
11_56_17,12,4087.18,4067.18,4079.49,4078.97,4092.31,4085.13,4092.82,4110.26,4104.1,4095.9,4078.97,4076.41,4094.87,4087.69,0
11_56_17,13,4092.82,4071.28,4082.05,4083.59,4090.26,4086.15,4092.82,4107.18,4110.77,4114.36,4083.08,4082.05,4101.03,4086.67,0
11_56_17,14,4078.97,4066.15,4077.95,4081.03,4088.72,4087.18,4090.77,4095.38,4093.85,4108.72,4074.87,4070.77,4093.33,4075.38,0
11_56_17,15,4069.23,4059.49,4077.44,4073.33,4093.33,4086.15,4087.69,4088.72,4087.18,4098.46,4070.26,4063.59,4088.21,4073.33,0
11_56_17,16,4074.87,4059.49,4081.03,4076.41,4098.46,4085.64,4087.69,4088.72,4094.87,4106.15,4078.46,4072.31,4090.77,4075.9,0
11_56_17,17,4081.03,4061.54,4083.59,4082.56,4100.51,4091.28,4090.26,4089.23,4098.46,4112.31,4090.77,4081.03,4091.79,4077.95,0
11_56_17,18,4081.54,4062.56,4084.62,4081.03,4097.44,4091.79,4091.79,4091.79,4099.49,4107.18,4091.28,4081.54,4093.33,4084.62,0
11_56_17,19,4082.56,4065.13,4086.15,4078.97,4090.26,4082.05,4092.82,4095.9,4092.31,4094.87,4080,4076.41,4092.82,4085.64,0
11_56_17,20,4084.1,4063.59,4083.59,4078.46,4088.72,4077.95,4091.79,4092.31,4075.38,4077.95,4071.79,4071.79,4080,4078.46,0
11_56_17,21,4082.56,4059.49,4083.08,4077.95,4091.79,4079.49,4087.18,4082.05,4067.69,4073.85,4069.74,4070.77,4068.72,4073.85,0
11_56_17,22,4081.54,4058.97,4086.67,4076.41,4091.79,4079.49,4085.13,4078.97,4079.49,4084.1,4070.77,4073.85,4072.82,4077.44,0
11_56_17,23,4086.67,4058.97,4088.21,4077.95,4090.77,4078.97,4088.72,4076.92,4092.82,4096.92,4078.46,4074.87,4078.97,4079.49,0
11_56_17,24,4090.26,4059.49,4084.62,4081.54,4090.26,4081.03,4091.79,4071.79,4089.23,4101.03,4080.51,4072.82,4072.31,4074.36,0
11_56_17,25,4090.77,4065.13,4085.13,4087.69,4095.38,4085.13,4092.82,4079.49,4084.62,4097.44,4076.92,4074.36,4067.69,4076.41,0
11_56_17,26,4091.28,4063.59,4085.13,4088.72,4104.62,4090.26,4098.46,4100,4098.97,4100,4084.62,4079.49,4084.1,4086.15,0
11_56_17,27,4092.82,4060.51,4083.59,4088.21,4106.15,4093.85,4103.59,4120,4112.31,4110.77,4093.33,4081.03,4096.41,4090.77,0
11_56_17,28,4095.38,4071.79,4085.13,4094.36,4097.95,4091.79,4101.03,4123.59,4107.18,4104.62,4092.82,4080,4088.72,4089.74,0
11_56_17,29,4093.85,4076.41,4085.64,4094.36,4093.33,4087.69,4095.38,4104.62,4096.92,4085.64,4089.23,4078.46,4078.97,4087.69,0
11_56_17,30,4088.72,4064.62,4082.05,4087.18,4100,4088.72,4093.85,4087.18,4082.56,4078.97,4088.72,4074.87,4078.46,4083.08,0
11_56_17,31,4089.74,4065.13,4083.08,4086.15,4105.64,4090.77,4093.85,4083.59,4067.69,4081.54,4087.18,4072.82,4074.36,4078.46,0
11_56_17,32,4096.92,4080,4089.23,4093.33,4106.67,4092.31,4096.41,4083.59,4074.36,4085.13,4088.72,4079.49,4076.41,4083.59,0
11_56_17,33,4093.85,4077.44,4086.67,4092.31,4108.72,4094.87,4098.46,4085.13,4091.79,4094.36,4093.33,4081.03,4079.49,4081.54,0
11_56_17,34,4080,4062.56,4080.51,4084.62,4099.49,4093.85,4094.36,4089.74,4095.38,4106.15,4091.79,4070.77,4067.69,4067.69,0
11_56_17,35,4077.44,4063.08,4082.56,4085.13,4086.67,4089.23,4089.74,4091.79,4094.36,4110.77,4089.74,4068.72,4064.1,4068.72,0
11_56_17,36,4085.64,4067.69,4088.21,4091.28,4093.33,4087.69,4089.23,4090.77,4084.62,4100,4090.26,4075.38,4067.18,4077.44,0
11_56_17,37,4089.23,4064.1,4086.67,4093.85,4106.15,4090.77,4093.33,4097.95,4074.87,4090.77,4091.28,4077.95,4063.08,4076.92,0
11_56_17,38,4090.26,4063.08,4083.59,4091.28,4106.67,4092.31,4100.51,4104.62,4083.59,4097.95,4092.31,4079.49,4062.56,4080,0
11_56_17,39,4090.26,4067.18,4085.64,4090.77,4101.54,4090.26,4101.03,4095.9,4084.62,4101.03,4088.72,4077.44,4066.67,4086.15,0
11_56_17,40,4085.13,4066.67,4086.15,4092.31,4094.36,4087.69,4092.82,4085.64,4063.08,4088.72,4085.13,4074.87,4059.49,4078.97,0
11_56_17,41,4084.62,4061.54,4084.1,4089.23,4089.23,4087.69,4089.23,4086.15,4059.49,4084.1,4088.72,4075.9,4054.87,4072.31,0
11_56_17,42,4085.13,4056.92,4081.54,4082.56,4092.31,4089.74,4093.85,4086.15,4073.33,4090.77,4096.41,4076.92,4067.18,4080.51,0
11_56_17,43,4082.05,4057.44,4082.05,4083.59,4094.36,4089.74,4097.44,4082.56,4063.59,4084.1,4091.28,4073.33,4071.79,4082.05,0
11_56_17,44,4087.18,4069.23,4086.67,4093.85,4093.33,4089.23,4103.59,4087.69,4048.72,4068.72,4082.05,4073.85,4065.13,4076.41,0
11_56_17,45,4093.85,4078.46,4087.18,4095.9,4095.38,4091.28,4108.21,4087.69,4063.08,4073.85,4086.67,4073.85,4068.72,4083.59,0
11_56_17,46,4090.77,4071.79,4084.62,4092.82,4091.28,4091.28,4100.51,4083.08,4079.49,4089.23,4092.82,4075.9,4077.95,4092.82,0
11_56_17,47,4088.72,4060.51,4084.1,4090.77,4088.72,4087.69,4095.38,4094.87,4076.92,4094.87,4094.87,4087.18,4078.97,4089.74,0
11_56_17,48,4091.28,4065.64,4087.18,4091.28,4101.54,4088.72,4098.46,4107.18,4076.92,4096.92,4101.54,4092.31,4076.92,4087.18,0
11_56_17,49,4093.85,4078.46,4090.77,4095.38,4107.18,4093.85,4098.97,4097.95,4084.1,4100,4101.54,4085.13,4078.97,4089.74,0
11_56_17,50,4094.36,4078.46,4091.28,4099.49,4094.87,4093.33,4097.95,4087.18,4086.15,4099.49,4097.44,4080.51,4080,4087.69,0
11_56_17,51,4090.26,4066.15,4087.18,4094.36,4087.69,4085.64,4095.38,4100,4088.21,4102.05,4104.1,4082.05,4078.97,4080.51,0
11_56_17,52,4089.23,4060,4083.59,4087.69,4094.36,4084.62,4092.31,4105.64,4084.62,4102.05,4110.26,4082.56,4078.97,4077.95,0
11_56_17,53,4091.79,4066.67,4085.64,4086.67,4095.9,4090.77,4097.95,4099.49,4072.82,4089.74,4103.59,4083.59,4078.97,4084.62,0
11_56_17,54,4092.82,4072.82,4087.69,4089.23,4092.31,4093.33,4106.15,4108.21,4076.41,4086.15,4103.59,4088.72,4077.95,4091.79,0
11_56_17,55,4098.97,4076.92,4089.23,4097.44,4096.92,4092.82,4104.1,4107.18,4084.62,4095.9,4111.79,4094.36,4080,4094.87,0
11_56_17,56,4099.49,4075.9,4087.69,4094.36,4098.97,4091.79,4097.95,4082.05,4067.69,4083.59,4105.13,4088.72,4076.92,4091.28,0
11_56_17,57,4090.26,4069.23,4082.56,4082.05,4094.36,4083.59,4095.38,4069.74,4052.31,4062.05,4088.21,4073.85,4065.64,4081.03,0
11_56_17,58,4089.23,4063.08,4081.54,4083.08,4095.38,4083.08,4095.38,4086.67,4069.23,4076.41,4087.69,4070.77,4068.21,4077.44,0
11_56_17,59,4089.23,4057.95,4083.59,4087.69,4099.49,4094.87,4097.44,4096.41,4085.64,4097.95,4095.9,4076.41,4076.41,4078.46,0
11_56_17,60,4077.95,4052.82,4083.08,4074.87,4093.33,4090.26,4095.38,4096.92,4080.51,4090.77,4093.33,4074.87,4069.74,4073.85,0
11_56_17,61,4076.92,4050.26,4084.62,4071.79,4084.1,4074.87,4089.74,4110.77,4089.23,4092.82,4094.87,4075.38,4066.67,4075.9,0
11_56_17,62,4091.79,4059.49,4087.69,4090.77,4082.56,4077.44,4090.26,4118.46,4101.03,4114.36,4108.72,4084.62,4085.13,4088.72,0
11_56_17,63,4096.92,4065.64,4087.18,4088.72,4083.08,4085.13,4093.85,4106.67,4085.13,4105.64,4119.49,4088.72,4098.97,4099.49,0
11_56_17,64,4090.77,4060,4085.64,4072.82,4087.18,4082.05,4094.87,4103.59,4074.87,4086.67,4120.51,4089.23,4093.33,4103.08,0
11_56_17,65,4091.28,4066.67,4087.69,4082.05,4096.41,4082.56,4092.82,4106.67,4079.49,4091.28,4111.79,4091.79,4082.05,4098.46,0
11_56_17,66,4093.33,4077.44,4087.69,4095.38,4097.44,4089.74,4090.26,4088.72,4074.36,4088.72,4103.08,4089.23,4075.38,4092.31,0
11_56_17,67,4088.72,4070.26,4084.1,4084.62,4093.33,4091.79,4097.44,4087.69,4073.33,4077.95,4106.15,4083.08,4074.36,4089.74,0
11_56_17,68,4085.13,4057.44,4084.62,4074.87,4089.74,4089.74,4105.64,4106.15,4080,4083.59,4109.23,4082.05,4074.87,4084.62,0
11_56_17,69,4088.21,4060,4087.18,4084.1,4084.62,4086.15,4102.05,4098.97,4074.36,4090.26,4106.15,4085.64,4074.87,4081.03,0
11_56_17,70,4091.28,4068.21,4087.69,4090.77,4084.1,4079.49,4092.82,4088.72,4078.46,4093.33,4111.28,4088.21,4072.82,4086.67,0
11_56_17,71,4096.41,4072.82,4089.23,4091.79,4094.36,4082.05,4093.33,4103.08,4101.03,4111.28,4124.62,4092.82,4077.44,4095.38,0
11_56_17,72,4100,4077.95,4091.79,4092.31,4100,4091.79,4096.92,4112.82,4100,4110.77,4125.64,4095.38,4079.49,4098.97,0
11_56_17,73,4087.69,4069.74,4083.59,4084.1,4092.82,4092.31,4092.82,4104.62,4077.95,4084.1,4111.79,4081.54,4068.72,4088.21,0
11_56_17,74,4080,4059.49,4080,4077.95,4088.72,4090.26,4095.38,4095.9,4074.87,4080,4103.59,4073.85,4069.74,4078.97,0
11_56_17,75,4089.23,4064.1,4089.23,4084.1,4092.31,4097.44,4106.15,4100,4085.64,4093.85,4111.79,4088.21,4100.51,4091.28,0
11_56_17,76,4095.38,4073.33,4092.31,4092.82,4095.9,4103.08,4110.26,4107.69,4082.56,4094.87,4121.54,4096.92,4138.46,4100.51,0
11_56_17,77,4092.31,4069.74,4088.21,4090.26,4095.38,4096.41,4104.62,4099.49,4081.54,4096.41,4124.62,4092.31,4162.56,4094.36,0
11_56_17,78,4093.85,4061.54,4088.72,4081.54,4093.85,4088.21,4097.44,4087.69,4086.67,4101.54,4124.62,4091.79,4177.44,4090.77,0
11_56_17,79,4096.92,4065.64,4088.21,4080,4095.38,4091.28,4100.51,4100,4079.49,4094.36,4124.1,4100.51,4187.69,4092.31,0
11_56_17,80,4094.87,4069.74,4084.62,4084.62,4095.9,4098.97,4105.13,4114.36,4075.9,4087.18,4126.67,4105.13,4192.82,4090.26,0
11_56_17,81,4092.82,4066.15,4083.08,4087.69,4093.33,4097.95,4100.51,4106.15,4087.18,4092.31,4126.15,4098.46,4193.85,4089.23,0
11_56_17,82,4099.49,4067.18,4088.21,4088.21,4097.44,4093.85,4098.46,4101.54,4096.92,4096.92,4123.59,4093.33,4196.92,4091.28,0
11_56_17,83,4102.56,4065.64,4089.74,4088.72,4104.1,4096.41,4105.13,4113.85,4106.67,4096.41,4122.56,4101.03,4194.87,4090.26,0
11_56_17,84,4098.97,4062.56,4085.64,4089.23,4105.64,4097.44,4105.64,4111.79,4110.26,4091.79,4120.51,4107.69,4183.08,4086.67,0
11_56_17,85,4102.56,4071.79,4086.67,4091.28,4107.18,4096.41,4102.56,4096.41,4097.95,4093.85,4125.13,4105.64,4186.15,4095.38,0
11_56_17,86,4111.28,4079.49,4091.28,4094.87,4104.1,4095.9,4106.15,4098.46,4097.44,4103.08,4137.95,4107.18,4201.54,4107.69,0
11_56_17,87,4110.26,4076.41,4091.79,4091.79,4098.46,4093.33,4107.18,4114.87,4110.77,4107.18,4142.05,4111.28,4198.97,4106.15,0
11_56_17,88,4108.21,4073.85,4091.79,4089.74,4103.59,4092.82,4106.67,4123.08,4110.77,4112.31,4139.49,4114.87,4189.74,4107.69,0
11_56_17,89,4108.72,4068.72,4091.79,4090.77,4105.64,4095.38,4107.69,4122.05,4106.15,4113.33,4141.54,4113.33,4190.26,4111.79,0
11_56_17,90,4104.1,4068.21,4085.13,4091.79,4099.49,4093.33,4107.18,4118.46,4105.64,4101.03,4137.95,4105.64,4186.67,4102.05,0
11_56_17,91,4103.59,4080.51,4085.64,4091.28,4102.05,4092.31,4107.69,4113.33,4109.23,4101.54,4134.36,4104.1,4180,4098.46,0
11_56_17,92,4104.1,4082.56,4089.74,4089.23,4105.13,4100.51,4108.72,4113.33,4108.21,4115.38,4138.46,4107.69,4181.03,4107.18,0
11_56_17,92,4104.1,4082.56,4089.74,4089.23,4105.13,4100.51,4108.72,4113.33,4108.21,4115.38,4138.46,4107.69,4181.03,4107.18,0
11_56_17,93,4102.05,4073.85,4086.67,4089.23,4101.54,4103.59,4108.21,4107.18,4092.31,4103.08,4136.41,4104.1,4173.33,4100,0
11_56_17,94,4103.59,4078.46,4085.64,4091.79,4104.1,4098.97,4106.15,4100,4089.74,4089.23,4133.85,4101.54,4164.62,4092.31,0
11_56_17,95,4108.72,4081.54,4092.82,4092.82,4106.15,4100,4107.18,4105.64,4107.18,4104.62,4138.97,4107.69,4175.9,4102.05,0
11_56_17,96,4111.79,4078.97,4097.44,4096.92,4105.13,4104.62,4110.26,4112.31,4108.21,4112.82,4139.49,4110.77,4183.59,4108.72,0
11_56_17,97,4112.31,4081.54,4094.87,4100.51,4102.05,4100,4105.64,4114.36,4099.49,4103.08,4136.92,4109.74,4174.36,4105.64,0
11_56_17,98,4110.26,4080,4090.77,4095.38,4098.46,4090.26,4095.9,4110.26,4109.23,4105.64,4138.97,4106.15,4169.23,4101.54,0
11_56_17,99,4102.56,4074.87,4088.21,4089.23,4100,4089.23,4093.85,4101.54,4109.74,4113.33,4138.46,4101.03,4167.18,4093.85,0
11_56_17,100,4093.33,4072.31,4085.64,4086.67,4101.54,4090.26,4095.38,4099.49,4092.31,4108.21,4133.33,4101.03,4158.46,4089.23,0
11_56_17,101,4089.23,4068.72,4085.13,4080.51,4095.38,4089.23,4090.26,4099.49,4088.72,4101.03,4136.41,4105.13,4153.85,4090.77,0
11_56_17,102,4090.77,4070.77,4086.15,4080,4092.31,4091.28,4093.33,4092.31,4094.36,4105.64,4141.54,4106.67,4159.49,4092.31,0
11_56_17,103,4096.92,4078.97,4084.62,4090.77,4092.31,4092.82,4102.56,4089.23,4093.33,4114.87,4141.03,4108.72,4160,4097.95,0
11_56_17,104,4102.05,4076.92,4084.62,4092.31,4093.85,4091.28,4104.1,4093.85,4089.23,4104.1,4135.9,4108.21,4146.67,4102.05,0
11_56_17,105,4105.64,4076.41,4089.74,4088.21,4102.05,4091.28,4103.08,4093.85,4087.69,4086.15,4133.85,4106.15,4132.82,4097.95,0
11_56_17,106,4108.72,4088.72,4094.36,4092.82,4105.13,4092.82,4105.64,4106.15,4097.44,4093.85,4136.92,4114.36,4134.36,4101.03,0
11_56_17,107,4109.74,4092.31,4094.36,4097.44,4105.13,4092.31,4107.18,4124.62,4114.36,4111.28,4141.54,4122.05,4142.05,4109.23,0
11_56_17,108,4106.15,4089.74,4092.82,4099.49,4106.15,4091.28,4106.15,4120,4113.85,4109.74,4140.51,4109.74,4137.95,4106.15,0
11_56_17,109,4098.46,4091.79,4089.23,4095.38,4098.46,4090.26,4103.59,4108.21,4097.95,4103.08,4135.9,4097.95,4133.85,4094.36,0
11_56_17,110,4093.85,4090.26,4087.69,4086.67,4096.92,4088.21,4101.54,4105.13,4095.9,4111.28,4140,4101.03,4135.9,4088.72,0
11_56_17,111,4098.97,4092.82,4092.31,4094.36,4107.69,4094.36,4103.59,4109.74,4107.18,4123.08,4152.82,4106.15,4139.49,4095.9,0
11_56_17,112,4110.26,4103.08,4096.92,4109.23,4112.82,4104.1,4107.69,4124.62,4114.87,4125.13,4161.54,4109.23,4146.15,4107.69,0
11_56_17,113,4107.69,4101.03,4095.38,4103.08,4106.67,4100.51,4109.23,4134.87,4110.77,4117.44,4157.44,4111.79,4147.69,4110.26,0
11_56_17,114,4098.97,4089.23,4092.31,4087.18,4096.92,4090.77,4107.69,4116.41,4096.92,4105.64,4146.15,4109.74,4137.95,4098.46,0
11_56_18,115,4103.08,4089.74,4090.77,4089.74,4094.36,4090.77,4105.13,4090.26,4089.74,4098.46,4137.95,4106.67,4126.67,4089.74,0
11_56_18,116,4105.64,4094.87,4090.26,4103.08,4103.08,4095.38,4107.69,4091.28,4087.69,4087.18,4136.41,4099.49,4123.08,4091.79,0
11_56_18,117,4094.87,4093.33,4087.18,4107.69,4109.23,4092.31,4104.62,4088.72,4082.05,4075.9,4131.79,4090.77,4119.49,4088.72,0
11_56_18,118,4091.28,4092.31,4085.64,4099.49,4102.05,4089.74,4093.85,4076.92,4090.26,4086.67,4127.69,4089.23,4115.9,4081.03,0
11_56_18,119,4097.44,4094.87,4086.15,4094.36,4095.9,4092.31,4092.31,4097.95,4107.69,4108.21,4134.36,4090.26,4120.51,4084.62,0
11_56_18,120,4094.87,4096.92,4086.67,4098.46,4101.54,4093.33,4100.51,4127.18,4110.77,4114.36,4145.64,4094.36,4130.77,4092.82,0
11_56_18,121,4093.33,4098.97,4088.72,4096.92,4110.26,4093.85,4106.67,4120,4105.13,4116.92,4153.33,4104.1,4140,4092.82,0
11_56_18,122,4098.97,4096.41,4092.82,4091.79,4109.23,4093.85,4107.69,4103.08,4101.54,4121.54,4156.41,4110.26,4141.54,4092.31,0
11_56_18,123,4097.95,4090.26,4090.77,4092.82,4101.03,4090.77,4102.56,4101.03,4097.95,4118.46,4151.28,4107.18,4134.36,4092.82,0
11_56_18,124,4090.77,4088.72,4084.62,4091.28,4093.85,4089.23,4093.85,4095.9,4092.82,4107.18,4142.05,4101.03,4124.1,4086.15,0
11_56_18,125,4083.59,4085.13,4082.56,4087.18,4087.69,4090.77,4088.21,4084.62,4080,4087.18,4131.79,4089.74,4108.72,4076.41,0
11_56_18,126,4082.05,4080.51,4081.54,4088.21,4094.36,4090.26,4086.67,4082.05,4074.36,4072.31,4123.08,4083.59,4096.41,4073.33,0
11_56_18,127,4086.15,4086.15,4081.54,4088.21,4106.67,4088.72,4087.69,4086.67,4078.46,4069.74,4119.49,4087.69,4097.95,4072.82,0
11_56_18,128,4089.23,4090.77,4085.64,4085.64,4103.59,4091.79,4097.44,4091.28,4075.9,4065.13,4121.03,4088.21,4101.03,4073.85,0
11_56_18,0,4094.87,4090.26,4090.77,4088.72,4093.85,4091.28,4104.62,4090.77,4080,4070.26,4128.21,4094.87,4102.05,4082.56,0
11_56_18,1,4103.59,4092.31,4091.79,4097.44,4089.23,4083.59,4097.44,4092.82,4091.28,4094.87,4137.44,4105.64,4111.79,4093.85,0
11_56_18,2,4105.64,4093.85,4091.28,4102.56,4091.28,4078.46,4091.28,4100,4099.49,4115.9,4148.72,4103.59,4125.13,4095.9,0
11_56_18,3,4100,4092.31,4089.23,4093.33,4098.97,4083.08,4091.79,4098.97,4108.72,4123.08,4155.38,4095.9,4125.13,4094.36,0
11_56_18,4,4093.33,4090.26,4085.64,4082.05,4101.54,4085.13,4084.1,4097.44,4103.08,4112.31,4147.18,4093.33,4113.85,4093.33,0
11_56_18,5,4083.08,4076.92,4083.59,4077.44,4092.82,4080.51,4076.92,4100.51,4081.03,4089.74,4136.92,4093.33,4102.05,4084.1,0
11_56_18,6,4076.41,4064.1,4084.1,4074.36,4088.72,4077.44,4085.64,4098.97,4072.31,4075.9,4135.38,4093.33,4091.28,4074.87,0
11_56_18,14,4077.44,4077.44,4083.59,4086.67,4103.59,4091.28,4090.77,4099.49,4090.77,4075.9,4145.64,4097.95,4094.36,4081.54,0
11_56_18,15,4075.38,4075.9,4083.08,4079.49,4107.69,4089.23,4088.72,4086.15,4080.51,4078.46,4139.49,4090.77,4088.21,4075.38,0
11_56_18,16,4088.21,4086.67,4091.28,4084.62,4116.41,4096.41,4096.41,4085.64,4085.64,4085.13,4147.18,4101.03,4098.97,4087.18,0
11_56_18,17,4102.05,4095.9,4098.97,4100.51,4109.23,4096.41,4105.13,4098.46,4107.18,4090.77,4158.46,4110.26,4110.77,4097.95,0
11_56_18,18,4103.59,4093.33,4097.95,4101.54,4091.79,4091.28,4110.77,4118.97,4120.51,4099.49,4161.03,4111.28,4112.31,4096.92,0
11_56_18,19,4091.79,4090.77,4091.28,4092.31,4084.1,4088.72,4110.26,4128.72,4110.26,4094.87,4149.74,4107.18,4102.05,4088.72,0
11_56_18,20,4083.08,4089.74,4089.23,4092.31,4095.9,4092.31,4107.69,4123.08,4092.31,4076.41,4137.44,4102.56,4087.18,4078.46,0
11_56_18,21,4083.08,4083.59,4090.26,4092.82,4108.72,4096.41,4104.1,4115.38,4094.36,4070.26,4136.92,4102.05,4080.51,4076.41,0
11_56_18,22,4076.41,4074.87,4085.64,4080.51,4112.82,4091.79,4094.36,4101.03,4095.38,4070.77,4137.95,4100.51,4077.44,4074.87,0
11_56_18,23,4071.28,4074.87,4086.67,4076.41,4110.26,4089.23,4090.26,4082.56,4071.79,4060,4131.28,4096.41,4075.38,4068.72,0
11_56_18,24,4083.59,4083.59,4092.82,4090.77,4100,4094.36,4100,4080.51,4068.21,4061.03,4138.46,4100.51,4082.56,4076.92,0
11_56_18,25,4094.36,4090.26,4093.33,4099.49,4098.46,4093.33,4108.21,4092.82,4096.41,4081.03,4153.33,4107.18,4093.33,4089.74,0
11_56_18,26,4095.9,4095.9,4091.79,4094.87,4106.15,4091.28,4108.21,4108.21,4113.85,4096.41,4155.9,4108.21,4097.95,4094.87,0
11_56_18,27,4102.56,4103.08,4098.46,4094.36,4105.64,4099.49,4108.21,4128.72,4116.92,4105.13,4158.97,4115.9,4105.13,4101.54,0
11_56_18,28,4116.92,4109.23,4101.03,4102.56,4098.46,4102.56,4108.21,4141.03,4129.23,4113.33,4171.79,4130.26,4113.85,4110.77,0
11_56_18,29,4123.59,4113.33,4099.49,4110.77,4093.85,4096.41,4106.67,4130.77,4127.18,4110.77,4175.38,4130.77,4112.31,4116.41,0
11_56_18,30,4115.9,4105.64,4100,4105.64,4091.28,4100,4106.15,4116.41,4104.1,4095.9,4164.62,4124.1,4104.1,4117.95,0
11_56_18,31,4109.23,4094.87,4099.49,4096.41,4097.95,4109.23,4109.74,4114.36,4098.97,4090.26,4161.54,4124.62,4104.1,4114.36,0
11_56_18,32,4107.69,4094.87,4097.95,4097.95,4109.74,4102.56,4108.72,4112.31,4101.54,4091.79,4159.49,4123.59,4104.1,4109.74,0
11_56_18,33,4096.92,4091.79,4091.79,4095.9,4109.23,4089.23,4103.59,4101.54,4093.33,4085.13,4143.59,4109.74,4089.74,4102.05,0
11_56_18,34,4086.15,4081.54,4089.23,4087.69,4100,4090.77,4103.08,4098.97,4092.31,4082.56,4135.38,4098.97,4078.97,4088.21,0
11_56_18,35,4091.79,4091.28,4094.87,4090.26,4098.97,4098.97,4107.69,4117.44,4100,4093.33,4151.79,4110.26,4092.82,4092.82,0
11_56_18,36,4095.9,4104.62,4096.92,4094.36,4104.1,4097.95,4110.26,4130.26,4090.26,4096.41,4158.97,4118.97,4104.1,4103.59,0
11_56_18,37,4091.28,4098.97,4089.74,4089.74,4109.23,4095.38,4104.1,4118.97,4084.1,4093.85,4146.67,4109.74,4094.87,4091.79,0
11_56_18,38,4089.23,4096.92,4089.23,4091.28,4106.67,4099.49,4097.44,4104.1,4098.46,4096.41,4142.56,4105.64,4084.62,4082.56,0
11_56_18,39,4086.67,4096.41,4092.82,4093.85,4098.97,4098.46,4101.54,4105.64,4092.31,4091.28,4141.03,4109.23,4078.46,4084.1,0
11_56_18,40,4080.51,4083.08,4092.82,4083.59,4091.79,4089.74,4106.67,4110.77,4077.44,4082.05,4134.36,4106.15,4071.28,4077.95,0
11_56_18,41,4080,4081.54,4092.82,4084.1,4090.26,4090.26,4106.15,4109.23,4083.08,4074.87,4131.79,4105.13,4066.15,4074.87,0
11_56_18,42,4080,4092.31,4092.82,4092.31,4096.92,4094.87,4106.15,4107.69,4086.67,4075.38,4127.69,4105.64,4064.1,4075.9,0
11_56_18,43,4076.41,4087.18,4090.26,4083.08,4105.64,4091.79,4104.1,4105.13,4081.03,4088.21,4123.59,4096.41,4064.1,4069.23,0
11_56_18,44,4073.85,4077.95,4088.72,4075.9,4107.69,4087.69,4094.87,4093.33,4079.49,4094.87,4127.18,4093.33,4063.08,4066.15,0
11_56_18,45,4075.9,4084.62,4089.23,4084.62,4100.51,4090.77,4089.74,4084.1,4074.36,4087.69,4128.21,4103.08,4061.54,4073.33,0
11_56_18,46,4075.9,4084.62,4089.23,4086.15,4092.82,4090.26,4090.26,4092.31,4071.79,4081.54,4125.13,4104.1,4062.05,4073.85,0
11_56_18,47,4069.23,4074.87,4085.64,4076.41,4091.28,4082.56,4087.18,4098.97,4089.23,4082.56,4120.51,4096.41,4059.49,4066.67,0
11_56_18,48,4065.13,4072.82,4082.05,4077.95,4093.85,4082.05,4087.69,4090.77,4091.28,4076.41,4113.85,4094.36,4052.31,4062.05,0
11_56_18,49,4066.15,4075.9,4084.62,4081.03,4096.92,4091.28,4091.79,4096.41,4074.87,4072.82,4113.85,4093.33,4048.72,4060,0
11_56_18,50,4067.18,4073.33,4086.67,4077.44,4089.74,4095.38,4093.33,4113.85,4084.62,4076.41,4122.05,4094.87,4047.69,4062.05,0
11_56_18,51,4069.74,4073.33,4087.18,4083.08,4084.1,4091.28,4092.31,4110.77,4091.79,4078.97,4124.1,4102.05,4047.69,4068.21,0
11_56_18,52,4075.38,4082.56,4088.21,4089.74,4095.38,4090.26,4091.79,4096.41,4075.38,4083.08,4120,4105.64,4055.9,4074.36,0
11_56_18,53,4078.46,4089.74,4089.23,4087.18,4106.15,4092.31,4091.28,4094.87,4079.49,4090.77,4124.62,4107.69,4067.69,4077.44,0
11_56_18,54,4077.44,4090.26,4086.67,4089.23,4108.21,4091.28,4089.74,4091.28,4090.77,4092.82,4125.64,4106.15,4065.13,4075.38,0
11_56_18,55,4077.44,4087.69,4084.1,4091.79,4104.62,4090.77,4087.18,4083.08,4074.87,4084.1,4115.38,4094.87,4056.92,4074.87,0
11_56_18,56,4075.38,4085.64,4083.59,4085.13,4094.36,4090.77,4087.18,4089.23,4062.05,4075.38,4109.74,4087.18,4057.44,4073.33,0
11_56_18,57,4073.85,4083.08,4083.59,4081.54,4091.28,4090.26,4090.77,4101.54,4083.59,4081.54,4116.41,4095.9,4062.05,4073.33,0
11_56_18,58,4081.54,4085.13,4088.21,4090.26,4103.59,4091.79,4093.85,4109.23,4107.18,4096.92,4124.1,4107.69,4058.46,4082.56,0
11_56_18,59,4093.85,4097.95,4095.9,4099.49,4112.31,4091.79,4094.36,4111.28,4096.41,4097.95,4123.08,4108.21,4042.56,4092.31,0
11_56_18,60,4096.92,4105.64,4094.36,4102.05,4106.67,4088.72,4095.38,4100,4070.26,4087.18,4119.49,4105.13,4029.23,4091.79,0
11_56_18,61,4092.82,4095.38,4089.74,4097.95,4097.95,4096.41,4098.46,4091.28,4075.38,4089.23,4124.62,4108.21,4028.72,4091.79,0
11_56_18,62,4091.28,4087.69,4091.28,4091.79,4098.46,4106.15,4096.41,4096.41,4094.36,4094.87,4130.77,4111.28,4028.21,4094.36,0
11_56_18,63,4092.31,4098.97,4091.79,4091.28,4106.67,4101.54,4091.28,4098.97,4084.1,4091.28,4123.59,4102.05,4024.1,4087.18,0
11_56_18,64,4089.74,4103.59,4086.67,4096.41,4107.69,4095.38,4092.82,4100.51,4078.46,4086.67,4110.26,4096.92,4024.1,4078.46,0
11_56_18,65,4080.51,4093.33,4085.64,4095.9,4104.62,4098.46,4091.28,4106.67,4096.41,4091.79,4106.15,4102.05,4032.31,4077.95,0
11_56_18,66,4072.31,4090.26,4085.64,4089.23,4108.72,4094.36,4083.08,4106.15,4092.82,4092.82,4098.97,4096.92,4047.69,4072.31,0
11_56_18,67,4073.85,4092.31,4086.15,4089.23,4104.62,4087.18,4083.08,4097.95,4070.26,4084.62,4092.31,4091.79,4073.85,4066.67,0
11_56_18,68,4074.87,4091.28,4087.69,4095.38,4093.85,4089.74,4090.77,4089.23,4064.62,4081.03,4098.97,4096.92,4100.51,4068.72,0
11_56_18,69,4073.85,4089.74,4084.1,4094.87,4094.87,4095.38,4092.31,4090.26,4081.03,4086.67,4106.15,4102.56,4122.56,4070.77,0
11_56_18,70,4075.9,4089.74,4081.03,4087.18,4102.05,4095.9,4090.26,4096.92,4086.67,4087.18,4100,4102.05,4136.92,4066.67,0
11_56_18,71,4073.85,4087.69,4083.08,4084.62,4105.64,4095.38,4088.72,4102.56,4080,4087.69,4091.28,4104.1,4141.03,4064.62,0
11_56_18,72,4080,4089.74,4086.67,4092.82,4106.67,4094.87,4090.77,4115.9,4092.82,4100.51,4097.95,4114.36,4142.56,4070.77,0
11_56_18,73,4089.23,4092.82,4086.67,4095.9,4105.64,4091.28,4088.72,4124.62,4108.72,4107.69,4108.72,4118.97,4144.1,4076.92,0
11_56_18,74,4083.08,4089.74,4083.59,4088.21,4105.64,4093.33,4083.08,4104.62,4097.95,4095.9,4101.03,4111.28,4141.54,4075.38,0
11_56_18,75,4078.97,4088.72,4083.59,4090.26,4110.77,4105.64,4088.21,4086.15,4090.77,4087.18,4086.15,4104.1,4138.46,4071.28,0
11_56_18,76,4088.21,4093.33,4089.74,4096.92,4114.36,4109.74,4095.9,4091.28,4104.1,4096.92,4090.26,4108.21,4136.92,4075.9,0
11_56_18,77,4095.9,4100,4091.79,4097.95,4110.26,4104.1,4094.87,4096.92,4109.23,4110.77,4106.67,4116.92,4138.97,4087.18,0
11_56_18,78,4102.56,4104.62,4092.31,4102.56,4104.62,4108.21,4100.51,4103.59,4104.1,4108.72,4109.23,4121.03,4143.59,4091.28,0
11_56_18,79,4108.72,4109.74,4095.9,4106.67,4106.67,4109.23,4104.1,4121.54,4106.67,4103.59,4106.67,4120.51,4140,4090.77,0
11_56_18,80,4101.03,4108.21,4094.36,4099.49,4110.26,4096.92,4093.33,4127.69,4109.74,4105.64,4103.59,4114.87,4127.18,4089.74,0
11_56_18,81,4092.82,4098.97,4086.67,4092.82,4109.74,4091.79,4087.69,4117.44,4106.15,4100,4095.38,4108.72,4122.05,4088.21,0
11_56_18,82,4091.28,4094.36,4083.08,4089.23,4106.67,4091.79,4090.77,4109.23,4105.13,4092.82,4089.23,4106.15,4121.54,4085.64,0
11_56_18,83,4092.82,4102.05,4087.69,4089.74,4106.15,4092.31,4090.77,4103.59,4108.72,4101.03,4089.74,4113.33,4120.51,4087.69,0
11_56_18,84,4101.03,4109.74,4092.82,4098.97,4108.21,4102.56,4090.77,4096.41,4097.95,4100,4096.41,4120.51,4121.03,4095.38,0
11_56_18,85,4107.69,4107.18,4094.87,4103.08,4107.18,4107.18,4093.33,4091.79,4084.1,4093.33,4108.21,4121.03,4124.62,4104.1,0
11_56_18,86,4107.69,4105.64,4094.87,4096.41,4105.64,4100.51,4093.33,4095.9,4095.38,4102.56,4107.69,4123.08,4126.15,4109.74,0
11_56_18,87,4107.18,4110.26,4093.85,4095.38,4108.72,4096.92,4091.79,4102.56,4110.26,4106.67,4090.77,4123.59,4126.15,4107.69,0
11_56_18,88,4103.08,4109.23,4089.23,4095.9,4106.15,4096.41,4089.74,4110.77,4108.21,4100.51,4088.72,4121.54,4124.62,4102.05,0
11_56_18,89,4096.41,4103.59,4087.69,4094.36,4099.49,4093.85,4089.74,4115.38,4104.62,4105.64,4094.87,4120,4122.56,4100,0
11_56_18,90,4102.05,4110.77,4091.28,4102.56,4111.28,4101.03,4091.28,4110.77,4110.77,4111.28,4093.85,4121.54,4123.59,4103.08,0
11_56_18,91,4110.26,4120,4094.36,4111.28,4124.62,4109.74,4094.36,4107.69,4113.85,4107.69,4096.92,4122.05,4124.1,4106.15,0
11_56_18,92,4101.03,4109.23,4090.77,4103.08,4116.92,4101.54,4094.87,4099.49,4097.44,4094.36,4093.85,4114.87,4117.44,4099.49,0
11_56_18,93,4089.74,4094.87,4083.59,4090.77,4107.18,4090.26,4089.23,4087.69,4080.51,4082.05,4083.08,4106.15,4107.69,4090.26,0
11_56_18,94,4089.74,4093.33,4085.13,4089.74,4097.95,4090.77,4083.59,4088.72,4087.69,4088.21,4085.13,4107.18,4104.62,4090.26,0
11_56_18,95,4087.69,4093.33,4090.26,4091.79,4083.59,4092.31,4081.03,4091.28,4094.87,4095.9,4086.67,4109.23,4095.38,4090.26,0
11_56_18,96,4081.03,4089.74,4086.67,4091.28,4088.21,4089.74,4080,4088.72,4090.77,4089.74,4077.95,4105.13,4078.97,4079.49,0
11_56_18,97,4084.62,4091.28,4086.15,4089.23,4108.21,4088.72,4083.59,4096.92,4098.97,4091.28,4078.46,4105.13,4080,4077.44,0
11_56_18,98,4095.38,4095.9,4089.74,4090.77,4106.67,4092.82,4090.26,4106.15,4114.87,4101.03,4084.62,4109.74,4090.26,4088.72,0
11_56_18,99,4088.21,4093.85,4087.69,4091.28,4091.79,4091.79,4092.31,4097.44,4107.69,4093.85,4080,4108.72,4083.08,4086.15,0
11_56_18,100,4072.82,4080,4083.59,4085.13,4088.72,4084.1,4088.72,4083.59,4086.15,4080,4073.33,4101.54,4068.72,4070.77,0
11_56_18,101,4071.28,4076.41,4085.64,4078.46,4092.31,4083.59,4084.62,4080.51,4081.54,4080,4074.36,4102.05,4069.23,4069.74,0
11_56_18,102,4076.92,4088.21,4086.67,4081.03,4091.79,4085.64,4080.51,4089.23,4089.74,4087.18,4076.92,4108.21,4076.41,4076.41,0
11_56_18,103,4075.38,4092.31,4087.69,4084.62,4091.28,4083.59,4083.08,4090.77,4090.26,4090.26,4077.95,4106.67,4078.46,4076.41,0
11_56_18,104,4080.51,4088.72,4092.31,4082.05,4092.82,4088.72,4091.28,4086.67,4095.38,4090.77,4086.67,4109.74,4084.1,4083.08,0
11_56_18,105,4093.33,4091.79,4094.87,4084.1,4093.85,4098.46,4093.33,4095.38,4106.15,4092.82,4092.82,4117.44,4091.79,4092.31,0
11_56_18,106,4090.26,4093.33,4093.33,4089.74,4096.41,4095.38,4093.33,4106.15,4103.08,4094.36,4081.03,4111.79,4088.21,4086.15,0
11_56_18,107,4081.03,4092.31,4090.26,4092.31,4100,4092.82,4096.92,4105.13,4104.1,4098.97,4077.44,4105.13,4080.51,4077.95,0
11_56_18,108,4085.13,4095.38,4089.23,4092.82,4099.49,4099.49,4096.92,4104.62,4114.36,4100,4088.21,4109.23,4081.54,4085.13,0
11_56_18,109,4091.79,4097.95,4088.21,4091.28,4093.85,4098.46,4094.36,4108.21,4102.05,4092.31,4082.56,4110.26,4083.08,4093.33,0
11_56_18,110,4093.85,4101.54,4089.23,4094.36,4090.77,4093.85,4092.31,4107.69,4092.31,4091.79,4074.87,4107.69,4086.15,4091.79,0
11_56_18,111,4096.41,4110.26,4091.79,4101.54,4091.79,4093.33,4084.62,4102.05,4102.05,4092.82,4081.54,4108.21,4089.74,4089.74,0
11_56_18,112,4098.97,4108.21,4092.82,4096.92,4093.85,4090.26,4078.97,4093.33,4095.9,4084.1,4083.08,4108.21,4083.08,4095.38,0
11_56_18,113,4093.85,4092.82,4090.77,4078.97,4091.28,4083.59,4085.64,4090.77,4083.59,4083.08,4076.92,4110.26,4082.56,4102.05,0
11_56_18,114,4089.23,4091.79,4089.74,4076.92,4084.1,4083.59,4092.31,4092.82,4090.26,4093.33,4082.05,4110.77,4090.77,4101.03,0
11_56_18,115,4097.44,4108.72,4092.31,4091.28,4084.1,4089.74,4090.77,4089.23,4092.31,4089.74,4087.18,4111.28,4090.26,4101.54,0
11_56_18,116,4110.77,4112.82,4098.97,4098.46,4092.82,4095.9,4090.77,4093.33,4094.36,4091.79,4090.77,4118.97,4095.38,4114.87,0
11_56_19,117,4112.31,4104.1,4101.54,4094.36,4098.97,4097.95,4094.87,4109.23,4112.31,4107.69,4100,4126.67,4107.69,4124.1,0
11_56_19,118,4107.18,4109.74,4098.97,4092.82,4096.41,4094.87,4094.36,4111.79,4110.26,4101.03,4098.46,4125.13,4098.46,4113.85,0
11_56_19,119,4109.23,4117.44,4097.44,4100.51,4094.36,4089.23,4090.26,4099.49,4086.67,4084.62,4089.23,4116.92,4086.67,4104.62,0
11_56_19,120,4109.23,4113.33,4095.9,4104.62,4093.33,4091.28,4090.26,4100,4090.26,4093.33,4091.79,4112.82,4092.31,4108.21,0
11_56_19,121,4098.97,4103.08,4089.74,4095.38,4088.72,4093.85,4092.31,4107.69,4111.79,4103.59,4095.38,4110.26,4093.33,4106.67,0
11_56_19,122,4088.72,4091.79,4084.62,4086.15,4087.18,4087.69,4091.79,4097.95,4104.62,4094.87,4086.15,4105.13,4084.1,4092.82,0
11_56_19,123,4087.18,4094.87,4087.69,4087.69,4090.77,4087.69,4088.21,4087.18,4080,4078.97,4075.9,4103.59,4075.38,4086.15,0
11_56_19,124,4094.36,4108.21,4091.28,4091.79,4093.85,4095.38,4085.64,4091.28,4080.51,4071.28,4080,4106.67,4074.36,4095.9,0
11_56_19,125,4100,4111.28,4089.74,4092.31,4093.85,4096.41,4085.13,4089.74,4094.87,4080.51,4087.18,4106.15,4081.54,4106.67,0
11_56_19,126,4100.51,4105.64,4088.21,4092.31,4090.26,4092.31,4080,4081.03,4093.85,4093.85,4092.31,4106.67,4083.59,4107.18,0
11_56_19,127,4101.54,4109.23,4089.74,4093.33,4086.15,4088.72,4075.9,4084.62,4085.13,4090.26,4091.79,4107.69,4074.87,4108.21,0
11_56_19,128,4107.18,4120.51,4093.85,4097.95,4090.77,4084.62,4082.56,4093.33,4096.92,4087.69,4088.72,4106.67,4073.33,4118.46,0
11_56_19,0,4112.82,4125.13,4094.87,4099.49,4094.36,4086.67,4088.21,4092.31,4110.77,4096.92,4091.28,4110.26,4081.54,4127.69,0
11_56_19,1,4109.23,4115.9,4090.26,4094.36,4089.23,4092.31,4086.15,4089.23,4098.97,4094.36,4091.79,4111.28,4082.05,4122.05,0
11_56_19,2,4100,4110.26,4088.72,4090.77,4088.21,4091.79,4089.23,4096.92,4086.15,4082.05,4086.67,4104.1,4075.38,4107.18,0
11_56_19,3,4100,4119.49,4091.28,4092.82,4091.79,4093.85,4097.44,4108.72,4096.92,4087.18,4088.72,4103.59,4073.85,4106.67,0
11_56_19,4,4107.18,4122.56,4094.87,4097.95,4091.79,4097.44,4095.9,4105.13,4104.62,4097.95,4094.87,4108.72,4075.38,4111.79,0
11_56_19,5,4107.69,4118.97,4095.9,4103.59,4093.85,4091.28,4089.23,4088.72,4089.23,4096.41,4089.74,4107.18,4071.79,4106.67,0
11_56_19,6,4106.15,4120.51,4095.9,4105.13,4098.97,4093.85,4088.72,4085.64,4086.15,4098.97,4093.85,4112.31,4074.87,4108.72,0
11_56_19,7,4108.21,4117.44,4096.92,4099.49,4100.51,4105.13,4095.38,4101.03,4097.95,4108.72,4105.64,4121.03,4084.1,4118.97,0
11_56_19,8,4103.59,4106.15,4098.46,4094.36,4092.82,4101.54,4101.03,4115.38,4095.9,4102.56,4097.44,4113.85,4076.41,4112.31,0
11_56_19,9,4100.51,4104.1,4097.44,4096.41,4086.15,4097.95,4103.08,4119.49,4089.23,4088.21,4085.64,4109.74,4063.08,4103.59,0
11_56_19,10,4108.72,4111.79,4098.46,4102.56,4096.41,4104.1,4104.1,4115.38,4089.23,4088.72,4092.31,4120.51,4063.59,4108.21,0
11_56_19,11,4112.31,4120,4100.51,4106.15,4106.67,4099.49,4093.85,4100.51,4083.59,4093.33,4091.79,4120.51,4063.08,4109.23,0
11_56_19,12,4106.67,4123.08,4098.46,4106.15,4101.03,4088.72,4080,4083.59,4074.87,4090.77,4082.05,4107.18,4056.92,4105.13,0
11_56_19,13,4105.13,4121.03,4094.36,4105.64,4091.28,4088.72,4080.51,4082.05,4075.38,4087.69,4086.15,4105.64,4055.38,4105.13,0
11_56_19,14,4107.18,4117.95,4095.38,4106.15,4087.18,4092.82,4092.31,4093.33,4082.05,4089.23,4092.31,4114.87,4055.9,4105.13,0
11_56_19,15,4108.21,4122.05,4099.49,4108.21,4094.87,4098.97,4095.9,4104.1,4091.28,4096.92,4093.33,4121.03,4062.56,4106.15,0
11_56_19,16,4109.23,4126.67,4100,4110.77,4109.23,4104.62,4091.79,4106.15,4088.72,4097.44,4102.05,4122.56,4075.38,4109.74,0
11_56_19,17,4108.21,4113.85,4097.44,4107.18,4107.18,4100.51,4094.87,4098.97,4074.36,4080,4107.69,4122.56,4071.79,4109.23,0
11_56_19,18,4103.59,4107.69,4095.38,4103.08,4091.28,4094.87,4097.95,4085.64,4071.79,4069.74,4099.49,4117.44,4060,4106.67,0
11_56_19,19,4105.64,4122.05,4097.44,4107.69,4090.26,4091.79,4088.21,4077.44,4072.82,4081.54,4088.21,4109.74,4058.97,4105.64,0
11_56_19,20,4108.72,4122.56,4097.95,4107.18,4096.92,4088.72,4078.97,4083.08,4075.38,4090.77,4089.23,4108.21,4059.49,4102.56,0
11_56_19,21,4102.56,4111.28,4094.36,4101.54,4101.54,4091.79,4085.13,4093.33,4089.74,4094.36,4098.97,4112.82,4067.18,4097.44,0
11_56_19,22,4090.77,4107.18,4089.23,4097.95,4104.62,4103.08,4094.87,4093.85,4090.77,4095.9,4102.56,4110.26,4076.92,4095.38,0
11_56_19,23,4083.59,4102.05,4088.72,4091.28,4098.97,4107.18,4097.95,4098.46,4077.95,4084.62,4093.85,4105.13,4067.69,4090.26,0
11_56_19,24,4088.21,4100.51,4093.33,4093.85,4094.36,4105.64,4100,4107.18,4077.95,4076.41,4088.72,4106.67,4061.03,4087.18,0
11_56_19,25,4096.92,4110.26,4097.95,4108.72,4103.08,4106.67,4100,4098.46,4076.92,4083.08,4098.46,4109.74,4067.69,4092.82,0
11_56_19,26,4093.33,4107.69,4096.92,4106.67,4108.21,4099.49,4092.82,4085.13,4078.46,4085.13,4098.46,4108.21,4063.08,4092.82,0
11_56_19,27,4086.67,4096.92,4091.79,4092.82,4099.49,4089.74,4089.74,4088.72,4090.26,4081.54,4086.67,4105.13,4052.31,4082.56,0
11_56_19,28,4087.69,4100,4091.28,4096.92,4092.82,4094.87,4094.36,4100.51,4085.13,4079.49,4083.08,4104.62,4052.31,4080,0
11_56_19,29,4094.36,4108.72,4096.41,4110.77,4098.46,4105.13,4095.9,4105.13,4072.31,4078.46,4090.26,4107.69,4055.9,4089.74,0
11_56_19,30,4101.03,4113.33,4098.46,4109.74,4106.67,4108.21,4096.92,4102.56,4087.69,4089.74,4098.97,4111.79,4063.59,4097.95,0
11_56_19,31,4100.51,4109.23,4093.85,4100,4107.69,4107.69,4097.44,4092.31,4096.92,4093.33,4099.49,4111.28,4067.69,4096.41,0
11_56_19,32,4096.92,4105.13,4092.31,4098.97,4105.13,4104.62,4095.38,4084.1,4075.9,4076.41,4099.49,4104.62,4065.13,4096.41,0
11_56_19,33,4102.56,4115.38,4096.92,4107.69,4098.97,4097.44,4099.49,4096.92,4073.85,4077.44,4105.13,4110.26,4070.77,4105.13,0
11_56_19,34,4109.74,4125.13,4097.44,4110.77,4094.36,4097.44,4103.59,4112.82,4091.79,4094.87,4108.72,4119.49,4078.46,4112.82,0
11_56_19,35,4108.72,4118.46,4095.9,4107.18,4098.97,4103.08,4103.59,4118.46,4095.38,4093.33,4108.21,4119.49,4075.9,4109.74,0
11_56_19,36,4106.67,4112.31,4095.9,4106.67,4103.59,4102.56,4103.59,4119.49,4092.31,4091.79,4110.26,4115.9,4071.79,4106.67,0
11_56_19,37,4109.23,4122.56,4092.82,4108.72,4104.1,4101.03,4102.56,4115.38,4097.95,4098.97,4110.77,4112.82,4072.82,4109.23,0
11_56_19,38,4109.23,4124.1,4092.31,4110.77,4102.05,4104.62,4097.95,4104.62,4093.33,4097.44,4106.15,4110.77,4078.97,4109.23,0
11_56_19,39,4106.67,4109.23,4094.36,4106.67,4098.97,4109.74,4095.38,4101.03,4082.05,4094.87,4108.21,4111.79,4080,4107.18,0
11_56_19,40,4106.15,4107.69,4093.33,4096.92,4100,4106.67,4092.82,4103.59,4085.13,4095.9,4109.74,4110.77,4070.26,4105.64,0
11_56_19,41,4103.59,4120,4090.26,4100.51,4106.67,4104.1,4090.26,4093.85,4079.49,4089.23,4104.62,4105.13,4065.64,4102.05,0
11_56_19,42,4093.85,4117.44,4092.31,4108.21,4107.18,4106.15,4093.85,4091.79,4067.69,4081.03,4102.05,4103.59,4064.1,4093.33,0
11_56_19,43,4086.67,4104.1,4093.85,4098.97,4096.92,4102.05,4096.92,4107.18,4078.46,4083.59,4104.1,4106.15,4055.38,4085.13,0
11_56_19,44,4090.26,4103.59,4092.31,4091.79,4088.72,4093.33,4096.41,4112.82,4092.82,4096.41,4105.13,4105.64,4056.41,4087.69,0
11_56_19,45,4092.82,4107.69,4093.85,4101.54,4089.23,4085.64,4093.33,4105.64,4091.79,4103.08,4107.18,4105.64,4064.1,4091.28,0
11_56_19,46,4091.28,4104.1,4096.41,4101.54,4096.41,4085.13,4090.77,4105.64,4095.38,4104.1,4108.21,4104.62,4062.05,4088.72,0
11_56_19,47,4089.74,4102.05,4093.85,4091.79,4096.41,4089.74,4090.77,4109.23,4092.82,4104.1,4102.05,4104.62,4056.41,4086.67,0
11_56_19,48,4090.26,4104.1,4091.28,4096.41,4090.26,4091.79,4088.21,4102.05,4073.33,4092.82,4095.38,4105.13,4054.87,4089.23,0
11_56_19,49,4091.79,4107.18,4094.36,4106.15,4092.31,4096.41,4090.26,4095.9,4067.18,4073.85,4095.9,4104.62,4056.92,4090.26,0
11_56_19,50,4096.92,4109.23,4097.44,4107.18,4097.44,4095.9,4090.26,4092.82,4076.41,4072.82,4101.03,4106.67,4061.54,4090.77,0
11_56_19,51,4101.54,4111.28,4095.38,4103.59,4097.95,4085.64,4083.59,4088.72,4074.87,4079.49,4103.59,4105.64,4061.03,4096.92,0
11_56_19,52,4109.74,4118.46,4097.95,4107.18,4095.38,4084.62,4083.59,4089.23,4069.23,4077.95,4105.13,4106.67,4059.49,4105.13,0
11_56_19,53,4120.51,4125.13,4104.62,4116.41,4092.31,4092.82,4090.77,4087.18,4070.26,4087.69,4113.85,4116.41,4067.69,4110.26,0
11_56_19,54,4120,4124.62,4100.51,4116.92,4091.79,4091.28,4089.74,4088.21,4077.44,4105.13,4118.46,4120,4073.33,4108.72,0
11_56_19,55,4109.23,4116.92,4090.77,4111.28,4094.87,4088.72,4086.67,4103.59,4096.92,4110.26,4112.31,4113.33,4066.15,4102.56,0
11_56_19,56,4096.92,4103.08,4086.67,4105.13,4098.46,4094.87,4090.26,4114.87,4103.59,4100.51,4102.05,4108.72,4055.9,4092.31,0
11_56_19,57,4085.64,4088.72,4086.67,4095.38,4099.49,4096.41,4088.72,4101.54,4082.56,4080,4089.74,4101.54,4043.59,4078.46,0
11_56_19,58,4080.51,4090.77,4086.67,4091.79,4093.33,4099.49,4086.67,4087.69,4063.59,4060.51,4082.05,4091.79,4040.51,4071.28,0
11_56_19,59,4092.31,4104.62,4092.31,4103.59,4090.26,4105.13,4088.72,4092.82,4075.9,4060.51,4091.79,4098.46,4065.64,4081.54,0
11_56_19,60,4105.64,4110.26,4098.46,4110.26,4098.97,4101.03,4096.41,4108.72,4090.26,4078.97,4105.13,4116.41,4103.59,4100.51,0
11_56_19,61,4108.21,4113.85,4101.03,4105.64,4105.13,4100,4103.59,4121.03,4083.08,4093.33,4108.21,4125.13,4136.41,4108.21,0
11_56_19,62,4112.82,4122.56,4098.97,4108.72,4101.54,4102.05,4098.97,4116.92,4081.54,4102.56,4115.9,4127.69,4164.1,4109.23,0
11_56_19,63,4113.85,4122.05,4095.9,4112.82,4101.03,4096.92,4090.26,4109.74,4094.87,4108.21,4122.05,4126.67,4178.46,4109.23,0
11_56_19,64,4107.69,4110.77,4093.33,4107.69,4100.51,4091.28,4090.26,4111.79,4102.56,4110.77,4121.54,4123.59,4178.46,4105.13,0
11_56_19,65,4104.62,4106.67,4090.77,4104.62,4096.41,4092.31,4092.31,4097.44,4086.15,4103.59,4116.41,4122.05,4176.92,4101.03,0
11_56_19,66,4106.67,4107.18,4088.72,4106.15,4100.51,4092.82,4088.21,4076.92,4073.33,4086.15,4108.72,4119.49,4175.9,4098.46,0
11_56_19,67,4109.74,4104.1,4093.85,4106.15,4107.69,4097.95,4093.85,4093.85,4089.23,4087.18,4106.15,4121.54,4173.33,4101.54,0
11_56_19,68,4111.79,4102.56,4097.95,4104.62,4103.08,4108.21,4103.08,4122.56,4102.56,4101.03,4107.69,4126.67,4172.31,4106.15,0
11_56_19,69,4110.26,4107.18,4092.82,4105.13,4092.82,4106.15,4100.51,4121.03,4090.26,4094.87,4108.21,4124.62,4170.77,4106.15,0
11_56_19,70,4110.77,4107.69,4088.21,4104.62,4088.72,4097.95,4095.9,4116.41,4088.21,4081.54,4114.36,4120,4171.28,4104.62,0
11_56_19,71,4120.51,4105.13,4093.33,4103.08,4090.77,4095.38,4097.95,4126.67,4109.74,4099.49,4126.15,4131.28,4181.54,4111.79,0
11_56_19,72,4123.59,4108.21,4097.44,4104.62,4093.33,4091.79,4094.36,4119.49,4104.1,4116.92,4125.64,4140,4184.1,4115.38,0
11_56_19,73,4114.36,4105.13,4096.41,4103.08,4093.85,4087.69,4088.21,4101.03,4085.64,4098.97,4122.05,4131.79,4166.15,4105.13,0
11_56_19,74,4107.18,4092.31,4094.87,4098.46,4090.77,4094.36,4097.95,4098.97,4102.56,4093.33,4124.1,4130.26,4154.87,4099.49,0
11_56_19,75,4105.13,4088.72,4095.38,4099.49,4093.33,4107.69,4108.72,4107.18,4124.1,4120.51,4126.15,4135.9,4161.54,4100.51,0
11_56_19,76,4104.1,4096.41,4096.41,4107.18,4106.67,4111.28,4102.05,4113.33,4115.38,4126.67,4124.62,4129.23,4163.08,4097.95,0
11_56_19,77,4103.59,4095.9,4094.87,4107.18,4111.28,4107.18,4096.41,4118.46,4107.69,4105.64,4118.46,4121.54,4150.26,4093.33,0
11_56_19,78,4103.59,4090.77,4093.85,4099.49,4101.54,4107.69,4107.18,4116.41,4117.95,4102.56,4114.87,4126.15,4141.54,4091.79,0
11_56_19,79,4103.59,4090.77,4096.41,4101.03,4093.33,4108.72,4112.31,4106.15,4114.36,4104.62,4113.85,4126.67,4139.49,4092.82,0
11_56_19,80,4107.18,4092.82,4100,4102.05,4090.77,4104.1,4102.56,4111.79,4104.62,4089.74,4116.41,4129.74,4136.92,4094.87,0
11_56_19,81,4106.67,4091.79,4096.41,4093.85,4089.74,4097.95,4095.9,4120.51,4109.74,4088.72,4121.54,4137.44,4135.9,4093.85,0
11_56_19,82,4098.97,4088.21,4090.77,4089.74,4087.18,4090.26,4093.33,4108.21,4115.9,4105.13,4117.95,4131.28,4136.41,4089.74,0
11_56_19,83,4093.33,4087.18,4091.79,4092.31,4090.77,4088.72,4093.33,4108.72,4112.82,4112.82,4109.74,4123.08,4133.85,4089.74,0
11_56_19,84,4093.33,4091.79,4095.38,4091.79,4103.59,4096.41,4095.9,4123.59,4109.74,4103.08,4105.64,4125.13,4126.67,4087.18,0
11_56_19,85,4091.79,4086.67,4093.85,4091.28,4101.54,4098.46,4096.92,4113.85,4111.79,4094.87,4106.15,4125.13,4117.95,4078.97,0
11_56_19,86,4090.26,4074.87,4090.26,4091.28,4087.18,4091.28,4089.23,4092.31,4103.08,4096.41,4105.13,4120.51,4107.69,4075.38,0
11_56_19,87,4088.72,4074.87,4090.77,4083.59,4092.31,4089.74,4080.51,4089.74,4088.21,4083.08,4100,4118.97,4096.92,4074.36,0
11_56_19,88,4089.74,4085.13,4091.79,4083.59,4105.13,4095.38,4084.1,4097.44,4097.95,4075.9,4098.46,4121.03,4098.46,4081.54,0
11_56_19,89,4093.85,4087.18,4091.79,4089.74,4101.54,4096.41,4091.79,4105.13,4116.41,4095.9,4105.64,4122.56,4107.69,4092.82,0
11_56_19,90,4094.87,4082.56,4089.74,4086.67,4092.31,4095.9,4091.28,4110.26,4106.67,4102.56,4110.77,4116.41,4106.67,4093.33,0
11_56_19,91,4092.31,4080.51,4092.82,4081.54,4083.08,4090.77,4085.13,4103.08,4096.92,4088.21,4105.13,4112.31,4101.54,4093.85,0
11_56_19,92,4094.36,4078.97,4095.38,4080.51,4074.87,4080,4084.62,4091.79,4104.1,4088.21,4103.59,4118.97,4107.69,4104.62,0
11_56_19,93,4100.51,4081.54,4093.85,4082.05,4081.54,4080.51,4088.21,4090.77,4099.49,4096.92,4115.38,4123.59,4120.51,4109.74,0
11_56_19,94,4106.67,4093.33,4092.31,4092.82,4098.46,4089.23,4090.26,4096.41,4093.85,4089.74,4123.59,4122.56,4125.13,4109.74,0
11_56_19,95,4109.23,4105.13,4095.38,4104.62,4107.18,4094.36,4092.31,4095.9,4101.54,4085.64,4121.54,4121.54,4124.62,4111.28,0
11_56_19,96,4109.74,4109.74,4098.97,4100.51,4102.56,4097.44,4094.36,4095.38,4108.21,4100.51,4118.46,4121.03,4128.72,4110.26,0
11_56_19,97,4106.67,4104.62,4096.92,4090.26,4097.95,4094.87,4088.21,4104.62,4105.64,4106.67,4121.54,4121.54,4134.87,4110.26,0
11_56_19,98,4106.15,4101.03,4095.9,4091.79,4103.08,4089.74,4082.05,4108.21,4099.49,4094.87,4126.15,4123.08,4136.92,4113.33,0
11_56_19,99,4106.67,4106.15,4100,4097.44,4108.72,4091.28,4084.1,4098.46,4098.46,4090.26,4125.13,4122.56,4136.41,4111.28,0
11_56_19,100,4101.54,4106.67,4097.44,4095.38,4104.1,4094.87,4085.64,4092.31,4104.1,4095.9,4123.08,4118.46,4132.31,4104.1,0
11_56_19,101,4094.87,4096.41,4089.74,4092.31,4098.46,4091.28,4082.56,4095.38,4106.67,4092.82,4121.54,4112.31,4125.13,4097.44,0
11_56_19,102,4088.21,4087.69,4085.64,4087.69,4091.28,4086.15,4082.05,4097.95,4107.69,4091.79,4115.38,4105.64,4114.87,4091.28,0
11_56_19,103,4082.05,4083.08,4083.59,4079.49,4083.59,4085.13,4079.49,4093.85,4103.59,4093.85,4104.1,4104.62,4105.13,4083.08,0
11_56_19,104,4082.56,4084.62,4084.1,4081.54,4093.85,4087.18,4076.92,4089.23,4090.26,4092.31,4101.03,4105.64,4104.62,4081.03,0
11_56_19,105,4092.31,4094.87,4093.33,4093.33,4111.79,4095.38,4087.18,4099.49,4087.69,4099.49,4113.85,4107.69,4108.72,4089.74,0
11_56_19,106,4097.95,4101.03,4098.97,4094.87,4108.72,4102.56,4096.41,4105.13,4092.82,4107.69,4123.08,4112.82,4108.21,4093.85,0
11_56_19,107,4095.38,4097.95,4094.36,4089.74,4093.33,4099.49,4096.41,4100,4091.79,4108.72,4124.1,4120,4106.15,4090.77,0
11_56_19,108,4094.87,4094.87,4093.33,4093.33,4094.87,4093.33,4094.87,4103.08,4092.31,4104.1,4127.18,4125.13,4107.18,4092.82,0
11_56_19,109,4090.77,4093.33,4092.31,4093.85,4106.67,4092.31,4092.31,4103.08,4088.21,4097.44,4123.08,4118.97,4106.15,4093.85,0
11_56_19,110,4084.62,4090.26,4086.67,4088.72,4104.1,4091.28,4089.23,4093.33,4076.92,4095.9,4113.33,4105.64,4102.56,4088.21,0
11_56_19,111,4085.64,4089.74,4087.18,4090.77,4098.97,4091.79,4089.23,4099.49,4084.62,4107.18,4118.97,4109.74,4105.64,4089.23,0
11_56_19,112,4090.26,4091.79,4091.28,4093.85,4096.92,4101.03,4091.28,4111.28,4097.95,4113.85,4129.74,4122.56,4109.74,4092.31,0
11_56_19,113,4089.74,4093.33,4090.26,4091.28,4091.79,4102.05,4091.28,4104.62,4083.59,4103.08,4122.05,4116.92,4100,4091.28,0
11_56_19,114,4087.69,4094.36,4087.69,4090.26,4095.38,4094.87,4091.28,4105.13,4081.03,4096.41,4111.79,4105.64,4091.79,4088.72,0
11_56_19,115,4090.77,4093.33,4089.23,4092.82,4107.18,4099.49,4091.28,4115.38,4103.59,4104.1,4118.46,4109.74,4096.41,4089.23,0
11_56_20,116,4092.31,4094.87,4092.82,4095.38,4106.15,4107.69,4091.79,4107.69,4103.08,4112.82,4128.21,4115.9,4101.03,4097.44,0
11_56_20,117,4098.46,4104.1,4094.87,4096.41,4099.49,4106.67,4093.33,4102.56,4082.05,4110.26,4128.21,4118.97,4103.08,4107.18,0
11_56_20,118,4108.21,4111.79,4097.95,4100,4097.95,4098.46,4094.36,4108.21,4087.69,4109.23,4124.62,4122.05,4109.23,4109.23,0
11_56_20,119,4108.21,4106.15,4098.46,4097.44,4095.38,4094.87,4093.33,4101.03,4099.49,4110.26,4122.05,4115.38,4102.56,4105.13,0
11_56_20,120,4105.13,4104.62,4097.44,4097.44,4097.95,4096.41,4093.33,4092.82,4080,4101.03,4120.51,4112.31,4095.38,4108.72,0
11_56_20,121,4108.72,4108.21,4097.95,4105.13,4104.62,4097.95,4095.9,4105.13,4075.38,4094.87,4121.54,4122.05,4101.54,4119.49,0
11_56_20,122,4111.28,4101.54,4098.97,4101.54,4099.49,4095.9,4095.9,4114.87,4098.46,4102.56,4126.15,4126.67,4103.08,4122.56,0
11_56_20,123,4110.77,4098.97,4099.49,4093.85,4092.31,4093.85,4096.41,4106.67,4094.87,4108.72,4128.21,4124.1,4097.95,4121.03,0
11_56_20,124,4110.77,4107.69,4098.46,4095.9,4092.31,4093.33,4096.41,4108.21,4081.03,4104.62,4124.62,4121.54,4098.46,4120.51,0
11_56_20,125,4108.21,4106.67,4096.41,4092.82,4093.85,4090.26,4089.23,4110.26,4088.21,4098.97,4120,4114.87,4097.44,4117.44,0
11_56_20,126,4102.05,4101.03,4095.38,4087.18,4102.05,4090.77,4085.13,4094.87,4088.21,4097.44,4117.44,4108.21,4090.77,4110.26,0
11_56_20,127,4096.92,4103.59,4094.87,4090.77,4106.67,4092.82,4090.26,4088.72,4072.31,4092.82,4109.74,4105.64,4081.03,4104.1,0
11_56_20,128,4098.97,4108.21,4094.36,4091.28,4098.97,4091.79,4091.79,4101.54,4080,4086.67,4103.08,4104.1,4075.38,4101.54,0
11_56_20,0,4105.64,4111.28,4098.97,4094.87,4099.49,4095.38,4088.72,4108.72,4100.51,4095.9,4112.31,4110.26,4083.59,4103.59,0
11_56_20,1,4108.21,4112.82,4101.54,4107.69,4103.59,4097.44,4092.31,4109.74,4098.97,4114.36,4126.67,4120.51,4095.9,4109.23,0
11_56_20,2,4107.18,4108.72,4098.97,4105.64,4097.44,4094.87,4098.97,4109.74,4085.64,4114.87,4128.21,4120.51,4092.31,4111.28,0
11_56_20,3,4102.05,4100.51,4096.41,4092.31,4093.85,4092.31,4092.82,4096.41,4075.9,4096.41,4116.92,4111.28,4076.41,4102.56,0
11_56_20,4,4093.33,4092.31,4094.36,4090.26,4094.87,4088.21,4083.08,4086.15,4082.56,4097.44,4107.69,4105.13,4066.15,4091.79,0
11_56_20,5,4088.21,4088.72,4090.77,4092.82,4090.26,4081.03,4085.13,4093.33,4086.67,4106.15,4107.69,4105.13,4066.67,4089.23,0
11_56_20,6,4084.1,4087.69,4087.69,4084.62,4087.69,4082.05,4090.77,4091.28,4071.28,4088.21,4104.1,4103.08,4062.05,4083.08,0
11_56_20,7,4082.56,4086.15,4091.79,4081.03,4092.82,4091.79,4091.79,4086.67,4066.67,4081.03,4101.54,4100,4057.95,4076.92,0
11_56_20,8,4092.31,4090.77,4098.97,4093.85,4098.46,4094.87,4093.33,4100,4087.69,4109.74,4113.33,4107.69,4068.21,4085.64,0
11_56_20,9,4099.49,4097.95,4101.03,4101.03,4094.87,4091.28,4094.87,4108.72,4102.56,4127.18,4126.67,4117.95,4081.54,4095.9,0
11_56_20,10,4093.33,4093.33,4096.92,4091.28,4086.15,4088.72,4089.74,4093.85,4082.56,4108.72,4125.13,4113.33,4078.46,4092.82,0
11_56_20,11,4090.26,4087.69,4093.33,4090.77,4088.72,4089.74,4089.23,4085.13,4071.28,4101.54,4115.38,4107.18,4067.69,4085.64,0
11_56_20,12,4088.72,4087.18,4092.82,4096.41,4094.87,4092.82,4092.31,4098.46,4088.72,4107.69,4109.23,4106.67,4060.51,4078.46,0
11_56_20,13,4078.97,4081.03,4089.74,4085.64,4092.31,4092.31,4085.64,4096.41,4087.69,4096.92,4106.15,4098.46,4058.46,4072.31,0
11_56_20,14,4073.33,4079.49,4088.72,4081.03,4093.33,4086.67,4074.36,4073.33,4063.08,4085.13,4098.97,4087.18,4056.41,4072.31,0
11_56_20,15,4080.51,4082.05,4089.74,4087.18,4090.26,4081.54,4070.26,4068.72,4061.54,4089.23,4087.69,4088.21,4049.23,4071.79,0
11_56_20,16,4089.23,4083.08,4090.77,4088.72,4079.49,4082.05,4074.36,4078.97,4078.97,4091.79,4088.72,4090.77,4048.21,4075.38,0
11_56_20,17,4089.74,4084.62,4093.85,4086.67,4082.56,4085.13,4078.97,4076.41,4073.85,4087.69,4102.56,4088.21,4055.9,4086.15,0
11_56_20,18,4094.36,4086.15,4099.49,4087.69,4093.33,4084.1,4081.03,4074.87,4072.82,4095.9,4112.31,4096.92,4063.59,4094.87,0
11_56_20,19,4106.67,4095.9,4103.59,4096.92,4094.87,4080.51,4086.67,4091.79,4087.18,4106.67,4119.49,4108.72,4074.87,4103.59,0
11_56_20,20,4115.38,4108.72,4104.62,4103.59,4090.26,4082.05,4091.28,4100,4082.05,4110.77,4127.18,4110.77,4088.21,4112.82,0
11_56_20,21,4112.31,4102.05,4106.67,4097.95,4084.1,4082.05,4087.18,4086.15,4066.15,4108.72,4125.64,4108.72,4088.72,4114.87,0
11_56_20,22,4110.26,4094.87,4105.13,4093.85,4082.05,4076.92,4078.97,4074.36,4069.74,4101.54,4116.41,4110.26,4075.38,4109.23,0
11_56_20,23,4115.9,4113.33,4103.59,4104.62,4090.77,4075.9,4075.9,4077.44,4080.51,4095.9,4107.69,4108.21,4067.18,4108.72,0
11_56_20,24,4124.1,4127.18,4102.56,4109.74,4100.51,4076.92,4077.95,4078.97,4070.26,4093.85,4105.64,4107.18,4067.18,4116.92,0
11_56_20,25,4132.31,4123.08,4105.64,4107.18,4092.31,4074.36,4081.54,4081.03,4065.13,4093.85,4113.85,4116.92,4071.28,4123.59,0
