TIME, ED_COUNTER, AF3, F7, F3, FC5, T7, P7, O1, O2, P8, T8, FC6, F4, F8, AF4, LABEL
15_23_20,117,4095.38,4098.97,4098.46,4096.92,4090.77,4090.77,4091.79,4097.95,4098.46,4104.1,4152.82,4877.95,4094.87,4097.44,0
15_23_20,118,4091.79,4097.44,4098.46,4096.92,4091.28,4092.31,4092.31,4093.85,4098.46,4104.1,4152.82,4878.46,4100,4099.49,0
15_23_20,119,4089.74,4094.36,4098.46,4096.92,4093.85,4090.77,4091.28,4091.79,4098.46,4104.1,4152.82,4879.49,4100.51,4097.95,0
15_23_20,120,4097.44,4094.87,4098.46,4096.92,4090.77,4090.26,4091.28,4094.36,4098.46,4104.1,4152.82,4879.49,4096.92,4099.49,0
15_23_20,121,4105.13,4095.38,4098.46,4096.92,4087.69,4091.28,4091.79,4092.31,4098.46,4104.1,4152.82,4879.49,4097.95,4105.64,0
15_23_20,122,4096.41,4093.33,4098.97,4096.92,4089.74,4090.77,4089.74,4091.28,4098.46,4104.1,4152.82,4880,4098.97,4103.08,0
15_23_20,123,4088.72,4093.33,4098.46,4096.92,4091.28,4089.74,4088.21,4094.36,4098.46,4104.1,4152.82,4880.51,4095.9,4096.92,0
15_23_20,124,4092.82,4094.87,4097.95,4096.92,4090.26,4089.23,4091.28,4094.36,4098.46,4104.1,4152.82,4879.49,4096.41,4099.49,0
15_23_20,125,4093.85,4093.33,4099.49,4096.92,4089.74,4089.74,4091.79,4094.87,4098.46,4104.1,4152.82,4878.46,4098.46,4104.62,0
15_23_20,126,4090.26,4094.36,4097.95,4096.92,4089.74,4089.23,4088.72,4095.38,4098.46,4104.1,4152.31,4877.95,4098.97,4103.59,0
15_23_20,127,4093.85,4098.97,4093.33,4096.92,4092.31,4090.77,4087.69,4094.87,4098.46,4104.1,4152.82,4877.44,4099.49,4101.03,0
15_23_20,128,4096.92,4098.97,4093.33,4096.92,4094.87,4093.33,4090.77,4094.36,4098.46,4104.1,4152.82,4877.95,4098.97,4101.54,0
15_23_20,0,4092.82,4096.92,4095.9,4096.92,4094.36,4092.82,4090.77,4092.82,4098.46,4104.1,4152.31,4879.49,4098.46,4102.05,0
15_23_20,1,4090.26,4098.46,4093.33,4096.92,4091.28,4090.77,4089.23,4091.28,4098.46,4104.1,4152.82,4879.49,4098.97,4101.03,0
15_23_20,2,4097.95,4097.95,4091.79,4096.92,4088.72,4088.72,4090.26,4092.82,4098.46,4104.1,4153.85,4878.97,4098.97,4102.05,0
15_23_20,3,4100,4090.26,4095.9,4096.92,4090.77,4090.26,4091.28,4097.44,4098.46,4104.1,4152.82,4878.97,4098.46,4101.54,0
15_23_20,4,4091.28,4087.18,4099.49,4096.92,4093.33,4092.31,4089.74,4096.92,4098.46,4104.1,4151.28,4876.92,4098.97,4097.44,0
15_23_20,5,4092.31,4092.31,4097.95,4096.92,4089.74,4091.79,4090.26,4092.82,4098.46,4104.1,4151.79,4876.92,4098.46,4097.95,0
15_23_20,6,4097.95,4095.38,4097.44,4096.92,4088.72,4089.74,4092.31,4091.28,4098.46,4104.1,4152.82,4878.97,4098.46,4101.54,0
15_23_20,7,4096.41,4093.33,4099.49,4096.92,4094.36,4088.72,4090.77,4093.85,4099.49,4104.1,4152.31,4879.49,4098.97,4101.54,0
15_23_20,8,4097.44,4093.33,4100,4096.92,4096.41,4091.28,4090.26,4095.9,4100,4104.1,4152.31,4878.46,4097.95,4102.05,0
15_23_20,9,4099.49,4094.87,4098.46,4096.92,4093.85,4092.31,4091.28,4094.87,4098.97,4104.1,4152.82,4878.97,4097.44,4105.13,0
15_23_20,10,4097.44,4095.38,4098.46,4096.92,4093.33,4089.74,4089.23,4092.82,4098.46,4104.1,4152.31,4879.49,4098.97,4104.62,0
15_23_20,11,4098.46,4095.38,4098.97,4097.44,4095.38,4089.23,4087.69,4094.87,4098.46,4104.1,4152.31,4879.49,4098.97,4104.1,0
15_23_20,12,4096.41,4094.36,4098.46,4096.92,4096.41,4090.77,4090.77,4095.38,4098.46,4104.1,4152.31,4879.49,4097.95,4103.08,0
15_23_20,13,4091.79,4095.38,4098.46,4096.92,4091.79,4089.23,4091.79,4092.31,4098.46,4104.1,4152.31,4877.44,4097.44,4099.49,0
15_23_20,14,4095.9,4096.41,4098.46,4097.44,4087.69,4087.69,4089.74,4090.26,4098.46,4104.1,4152.31,4877.44,4097.44,4101.03,0
15_23_20,15,4098.46,4095.38,4098.46,4096.41,4091.28,4090.77,4090.26,4091.28,4098.46,4104.1,4152.31,4881.03,4097.95,4104.62,0
15_23_20,16,4092.82,4093.33,4098.46,4092.82,4092.82,4091.28,4090.26,4091.79,4098.46,4104.1,4152.31,4880.51,4098.46,4103.59,0
15_23_20,17,4093.33,4091.79,4098.46,4092.82,4090.26,4089.23,4088.72,4092.82,4098.46,4104.1,4152.31,4878.46,4098.46,4103.08,0
15_23_20,18,4098.46,4091.28,4098.46,4094.36,4093.33,4088.72,4088.72,4094.87,4098.46,4104.1,4152.31,4878.97,4098.46,4103.08,0
15_23_20,19,4095.9,4093.33,4098.46,4093.33,4095.9,4090.26,4089.23,4096.41,4098.46,4104.1,4152.31,4879.49,4098.97,4098.97,0
15_23_20,20,4090.77,4095.38,4098.46,4092.31,4093.33,4090.26,4090.77,4093.85,4098.46,4104.1,4152.31,4877.95,4097.44,4097.95,0
15_23_20,21,4091.28,4093.85,4098.46,4093.33,4091.79,4088.72,4090.77,4092.82,4098.46,4104.1,4152.31,4877.95,4098.46,4100,0
15_23_20,22,4092.82,4093.33,4098.46,4093.33,4090.26,4088.72,4088.72,4095.9,4098.46,4104.1,4152.31,4878.97,4100,4099.49,0
15_23_20,23,4092.31,4095.9,4098.46,4092.31,4089.74,4090.77,4089.74,4094.87,4098.46,4104.1,4152.31,4877.95,4093.33,4098.46,0
15_23_20,24,4091.28,4093.85,4098.46,4094.87,4091.28,4093.85,4092.82,4089.23,4098.46,4104.1,4152.31,4877.44,4089.23,4098.46,0
15_23_20,25,4091.28,4092.31,4098.46,4098.46,4091.79,4094.36,4091.28,4091.79,4098.46,4104.1,4152.31,4878.97,4095.9,4098.46,0
15_23_20,26,4090.26,4097.44,4098.46,4097.95,4091.79,4091.28,4091.28,4097.44,4098.46,4104.1,4152.31,4881.03,4098.97,4099.49,0
15_23_20,27,4089.74,4096.41,4098.46,4096.92,4091.28,4088.21,4090.77,4096.92,4098.46,4104.1,4152.31,4877.95,4095.38,4097.95,0
15_23_20,28,4093.33,4089.74,4098.46,4096.92,4090.26,4089.23,4085.64,4093.33,4098.46,4104.1,4152.31,4874.36,4097.44,4098.97,0
15_23_20,29,4094.36,4090.26,4098.46,4097.44,4092.31,4091.28,4086.15,4091.79,4098.46,4104.1,4152.31,4876.92,4099.49,4103.08,0
15_23_20,30,4089.74,4092.31,4098.97,4096.92,4094.87,4089.74,4091.79,4092.82,4098.46,4104.1,4152.31,4880,4096.92,4104.62,0
15_23_20,31,4093.85,4090.26,4098.97,4096.92,4092.82,4086.15,4089.74,4091.28,4098.46,4104.1,4152.31,4878.46,4097.44,4100,0
15_23_20,32,4103.08,4091.79,4098.97,4096.92,4092.82,4087.69,4086.67,4090.77,4098.46,4104.1,4152.31,4877.44,4100,4097.95,0
15_23_20,33,4094.36,4095.38,4097.95,4096.41,4094.87,4091.28,4090.26,4093.33,4098.46,4104.1,4152.31,4878.46,4099.49,4098.97,0
15_23_20,34,4086.67,4093.33,4100,4097.44,4093.85,4087.18,4091.79,4092.31,4098.46,4104.1,4152.31,4878.46,4098.97,4097.95,0
15_23_20,35,4094.87,4092.82,4097.44,4096.92,4092.82,4085.13,4089.74,4091.28,4098.46,4104.1,4152.31,4878.97,4097.95,4098.46,0
15_23_20,36,4096.92,4094.36,4090.26,4093.85,4093.33,4089.74,4090.77,4093.85,4098.46,4104.1,4152.31,4879.49,4098.97,4103.08,0
15_23_20,37,4091.28,4094.87,4089.74,4092.82,4093.85,4092.31,4092.31,4093.85,4098.46,4104.1,4152.31,4878.46,4100,4104.62,0
15_23_20,38,4090.77,4092.82,4094.36,4092.82,4092.82,4090.77,4088.72,4091.28,4098.46,4104.1,4152.31,4878.97,4099.49,4103.59,0
15_23_20,39,4096.41,4090.26,4092.82,4091.79,4093.85,4089.74,4087.18,4092.82,4098.46,4104.1,4152.31,4878.97,4098.46,4103.08,0
15_23_20,40,4098.97,4094.36,4087.69,4092.82,4093.85,4089.23,4088.72,4092.31,4098.46,4104.1,4152.31,4876.92,4098.46,4103.08,0
15_23_20,41,4094.87,4100,4089.23,4093.33,4090.26,4088.72,4088.21,4090.26,4098.46,4104.1,4152.31,4875.9,4097.44,4102.56,0
15_23_20,42,4092.31,4096.41,4093.33,4092.31,4091.28,4089.23,4086.15,4092.31,4098.46,4104.1,4152.31,4876.41,4096.92,4103.08,0
15_23_20,43,4094.36,4091.28,4093.33,4093.85,4095.9,4090.77,4089.74,4092.31,4098.97,4104.1,4152.31,4877.44,4097.44,4103.08,0
15_23_20,44,4092.82,4094.36,4092.31,4094.36,4095.38,4092.82,4093.33,4090.77,4098.97,4104.1,4152.31,4878.97,4097.95,4102.56,0
15_23_20,45,4090.26,4096.41,4091.79,4093.85,4092.82,4091.79,4091.28,4096.41,4097.95,4104.1,4152.31,4878.97,4097.44,4103.59,0
15_23_20,46,4093.85,4091.79,4091.28,4095.9,4093.85,4089.74,4089.23,4099.49,4097.44,4104.1,4152.31,4875.9,4097.95,4102.56,0
15_23_20,47,4094.36,4092.31,4094.36,4094.87,4094.87,4091.28,4090.77,4093.85,4097.44,4104.1,4152.31,4876.92,4097.95,4098.97,0
15_23_21,48,4091.28,4098.46,4095.9,4089.74,4093.85,4090.26,4092.82,4088.72,4097.95,4104.62,4152.31,4878.46,4097.44,4098.46,0
15_23_21,49,4091.28,4097.44,4090.77,4088.72,4093.85,4087.69,4091.79,4089.23,4097.44,4104.62,4152.31,4877.44,4097.95,4098.97,0
15_23_21,50,4092.31,4092.31,4088.72,4090.77,4095.38,4090.26,4091.28,4092.82,4097.95,4104.1,4152.31,4877.44,4098.97,4097.95,0
15_23_21,51,4092.82,4092.31,4095.38,4089.23,4093.33,4090.77,4092.82,4094.36,4097.95,4104.62,4152.31,4879.49,4098.97,4096.92,0
15_23_21,52,4092.31,4093.33,4097.44,4088.72,4088.72,4089.23,4093.33,4090.77,4097.95,4105.13,4152.31,4879.49,4097.95,4097.44,0
15_23_21,53,4090.77,4092.82,4092.31,4095.38,4091.79,4090.26,4091.79,4088.72,4097.95,4102.56,4152.31,4878.46,4096.92,4097.44,0
15_23_21,54,4094.36,4092.31,4092.31,4100,4097.95,4090.26,4090.26,4091.28,4097.95,4101.54,4152.31,4879.49,4097.95,4097.44,0
15_23_21,55,4096.41,4090.77,4094.36,4095.38,4094.36,4086.67,4090.26,4091.79,4097.95,4104.1,4152.31,4879.49,4100,4097.44,0
15_23_21,56,4092.82,4089.74,4092.82,4091.79,4087.69,4086.67,4090.26,4090.77,4097.95,4103.59,4152.31,4880,4100.51,4096.92,0
15_23_21,57,4092.31,4090.26,4093.85,4092.31,4091.28,4091.28,4090.77,4091.79,4097.95,4101.54,4152.31,4879.49,4098.46,4096.92,0
15_23_21,58,4093.33,4091.79,4096.92,4091.79,4093.85,4092.31,4090.26,4094.36,4097.95,4103.59,4152.31,4876.92,4097.44,4097.95,0
15_23_21,59,4090.26,4092.82,4097.95,4091.28,4091.28,4089.23,4088.72,4098.46,4097.95,4104.62,4152.31,4876.92,4097.44,4096.92,0
15_23_21,60,4089.23,4089.74,4096.92,4090.26,4092.82,4087.69,4089.74,4096.92,4097.95,4102.56,4152.31,4878.46,4097.95,4097.44,0
15_23_21,61,4092.31,4089.74,4097.95,4089.74,4095.38,4087.18,4092.31,4091.79,4097.95,4102.56,4152.31,4878.46,4097.95,4102.05,0
15_23_21,62,4092.82,4095.9,4097.95,4092.31,4092.82,4088.21,4092.82,4089.74,4097.95,4103.08,4152.31,4878.46,4097.44,4105.13,0
15_23_21,63,4093.33,4096.92,4097.95,4095.38,4090.26,4090.26,4092.31,4090.77,4097.95,4102.56,4152.31,4878.46,4097.95,4103.08,0
15_23_21,64,4093.33,4091.28,4097.95,4093.85,4092.31,4090.77,4091.28,4094.36,4097.95,4102.56,4152.31,4878.46,4097.95,4100,0
15_23_21,65,4089.74,4092.82,4097.44,4093.85,4092.31,4088.72,4090.26,4095.38,4097.95,4103.08,4152.31,4878.46,4097.95,4097.44,0
15_23_21,66,4089.74,4095.9,4097.95,4093.85,4091.28,4089.74,4090.26,4089.74,4097.95,4103.08,4152.31,4880,4097.95,4097.95,0
15_23_21,67,4092.31,4094.36,4097.44,4090.26,4091.28,4090.26,4090.77,4090.77,4097.95,4102.56,4152.31,4878.46,4097.95,4097.95,0
15_23_21,68,4091.79,4094.87,4093.85,4088.21,4093.33,4088.72,4090.77,4096.92,4097.95,4103.08,4152.31,4876.41,4097.95,4098.97,0
15_23_21,69,4091.28,4096.92,4092.31,4092.31,4094.87,4089.23,4090.26,4093.85,4097.95,4103.08,4152.31,4877.44,4097.95,4101.54,0
15_23_21,70,4092.31,4097.95,4095.38,4096.41,4093.85,4090.77,4089.23,4091.28,4097.95,4102.56,4152.31,4877.44,4097.95,4101.03,0
15_23_21,71,4092.82,4098.97,4097.44,4093.85,4092.82,4090.77,4090.26,4094.87,4097.95,4103.08,4152.31,4875.38,4097.95,4097.95,0
15_23_21,72,4092.31,4094.87,4098.46,4092.82,4093.33,4090.26,4091.79,4095.9,4097.95,4104.62,4152.31,4876.41,4097.95,4098.97,0
15_23_21,73,4091.28,4089.74,4097.44,4094.87,4093.33,4089.74,4089.23,4092.82,4097.95,4104.62,4152.31,4879.49,4097.95,4100.51,0
15_23_21,74,4091.79,4092.82,4095.38,4092.82,4092.82,4091.79,4090.26,4093.85,4097.95,4104.1,4152.31,4880,4098.46,4099.49,0
15_23_21,75,4094.36,4094.36,4094.87,4090.77,4092.82,4094.87,4095.38,4095.38,4097.95,4104.62,4152.31,4879.49,4097.44,4098.46,0
15_23_21,76,4096.41,4092.31,4094.36,4091.28,4094.87,4093.33,4093.33,4096.92,4097.95,4104.62,4152.31,4880,4097.44,4098.97,0
15_23_21,77,4097.44,4094.36,4094.36,4090.77,4097.44,4089.74,4089.23,4098.97,4097.95,4104.1,4152.31,4879.49,4098.97,4098.46,0
15_23_21,78,4095.38,4093.33,4094.36,4092.31,4097.95,4089.23,4088.21,4096.92,4097.95,4104.62,4152.31,4878.97,4093.85,4098.97,0
15_23_21,79,4092.31,4090.26,4093.85,4095.38,4097.44,4089.74,4090.77,4093.85,4097.95,4104.1,4152.31,4878.97,4088.72,4098.46,0
15_23_21,80,4091.79,4090.77,4093.33,4094.36,4097.95,4090.77,4091.28,4092.82,4097.95,4104.62,4152.31,4879.49,4092.82,4098.46,0
15_23_21,81,4092.31,4091.79,4093.85,4090.26,4098.46,4092.31,4089.23,4091.28,4097.95,4104.62,4152.31,4879.49,4098.97,4098.97,0
15_23_21,82,4090.26,4090.77,4093.85,4092.31,4097.44,4089.74,4088.21,4090.26,4097.95,4104.62,4152.31,4877.95,4098.46,4098.46,0
15_23_21,83,4089.74,4092.31,4092.31,4095.38,4097.95,4087.18,4090.26,4093.33,4097.95,4104.62,4152.31,4876.92,4097.44,4098.46,0
15_23_21,84,4091.28,4093.85,4094.36,4093.33,4098.46,4089.74,4090.26,4095.38,4097.95,4104.62,4152.31,4877.95,4098.46,4101.03,0
15_23_21,85,4091.28,4093.33,4095.38,4093.33,4096.41,4092.31,4088.72,4091.79,4097.95,4104.62,4152.31,4878.97,4098.46,4100.51,0
15_23_21,86,4090.77,4093.85,4091.79,4095.38,4093.33,4091.79,4089.74,4091.79,4097.95,4104.1,4152.31,4879.49,4097.95,4098.46,0
15_23_21,87,4090.26,4093.33,4090.26,4092.82,4092.82,4090.77,4091.28,4095.9,4097.95,4104.62,4152.31,4879.49,4097.95,4098.97,0
15_23_21,88,4094.87,4093.33,4095.9,4090.77,4094.36,4089.74,4091.79,4095.9,4097.95,4104.1,4152.31,4878.46,4097.95,4098.97,0
15_23_21,89,4097.95,4094.87,4099.49,4092.82,4094.36,4089.23,4092.31,4097.95,4097.95,4104.62,4152.31,4877.95,4097.95,4096.92,0
15_23_21,90,4092.82,4094.36,4097.44,4094.36,4093.85,4088.72,4090.77,4101.03,4097.95,4104.1,4152.82,4878.46,4097.95,4097.44,0
15_23_21,91,4088.72,4093.85,4097.44,4093.33,4093.85,4090.26,4089.23,4097.44,4097.95,4104.62,4152.82,4878.46,4097.95,4098.97,0
15_23_21,92,4090.77,4092.82,4098.46,4093.33,4093.33,4095.38,4089.74,4092.82,4097.95,4104.1,4152.31,4878.46,4097.95,4098.46,0
15_23_21,93,4092.82,4092.82,4096.92,4093.85,4093.33,4093.33,4089.74,4094.36,4097.95,4104.62,4152.82,4878.46,4098.46,4098.46,0
15_23_21,94,4091.28,4093.33,4096.41,4092.82,4093.33,4089.23,4089.74,4092.82,4097.95,4104.1,4153.33,4878.46,4098.46,4098.46,0
15_23_21,95,4091.79,4090.77,4096.92,4093.33,4093.33,4091.28,4089.23,4090.77,4097.95,4104.62,4152.82,4878.46,4097.95,4098.46,0
15_23_21,96,4094.36,4090.77,4096.92,4093.33,4093.33,4089.74,4089.74,4094.87,4097.95,4104.62,4151.79,4878.46,4098.46,4098.46,0
15_23_21,97,4094.36,4093.85,4096.92,4093.33,4093.33,4083.59,4091.79,4094.87,4097.95,4104.62,4151.28,4878.46,4097.95,4098.46,0
15_23_21,98,4090.26,4093.85,4096.92,4093.33,4093.33,4089.23,4089.74,4089.23,4097.95,4104.62,4151.79,4878.46,4096.92,4098.46,0
15_23_21,99,4090.26,4092.82,4096.92,4093.33,4093.33,4095.38,4087.69,4090.77,4097.95,4104.62,4151.79,4878.46,4094.87,4098.46,0
15_23_21,100,4095.38,4094.87,4096.92,4093.33,4093.85,4089.74,4089.74,4098.97,4097.95,4104.62,4151.79,4878.46,4094.87,4098.97,0
15_23_21,101,4094.87,4094.87,4096.92,4093.33,4093.33,4088.72,4089.74,4098.46,4097.95,4104.1,4151.79,4877.95,4097.44,4097.95,0
15_23_21,102,4092.82,4094.36,4096.92,4093.33,4092.82,4093.85,4088.21,4091.79,4097.95,4104.62,4151.79,4877.44,4097.95,4098.46,0
15_23_21,103,4092.82,4092.31,4097.44,4093.33,4094.87,4091.28,4089.74,4091.79,4097.95,4104.1,4151.79,4875.9,4096.41,4101.03,0
15_23_21,104,4090.26,4089.74,4096.41,4093.33,4092.82,4087.69,4090.77,4093.33,4097.95,4104.62,4151.79,4876.92,4097.44,4101.03,0
15_23_21,105,4088.72,4091.79,4096.41,4093.33,4089.23,4092.31,4090.77,4089.74,4097.95,4104.1,4151.79,4878.46,4097.44,4097.95,0
15_23_21,106,4091.79,4092.31,4098.46,4093.33,4094.36,4094.87,4091.28,4091.28,4097.95,4104.62,4151.79,4878.97,4094.36,4097.44,0
15_23_21,107,4092.82,4089.23,4093.85,4093.33,4101.03,4092.82,4090.77,4097.95,4097.95,4104.1,4151.79,4877.95,4096.41,4101.54,0
15_23_21,108,4091.28,4091.79,4087.18,4093.33,4094.87,4092.31,4089.74,4095.9,4097.95,4104.62,4151.79,4878.46,4099.49,4101.03,0
15_23_21,109,4090.26,4093.85,4092.82,4093.33,4085.64,4091.79,4089.23,4091.79,4097.95,4104.1,4151.79,4878.46,4097.95,4097.95,0
15_23_21,110,4091.28,4093.33,4100.51,4093.33,4089.23,4091.28,4089.23,4091.79,4097.95,4104.62,4151.79,4875.38,4097.95,4097.95,0
15_23_21,111,4093.33,4095.9,4097.95,4093.33,4095.38,4093.85,4090.77,4093.33,4097.95,4104.62,4151.79,4874.87,4098.97,4099.49,0
15_23_21,112,4092.82,4092.31,4094.36,4093.33,4093.33,4093.33,4092.31,4093.33,4097.95,4104.62,4151.79,4878.97,4097.44,4097.95,0
15_23_21,113,4089.23,4089.23,4092.82,4093.33,4091.79,4090.77,4090.26,4094.36,4097.95,4104.62,4151.79,4881.03,4096.92,4096.41,0
15_23_21,114,4092.82,4094.87,4092.31,4093.33,4093.85,4091.28,4089.74,4093.85,4097.95,4104.62,4151.79,4877.44,4098.97,4097.95,0
15_23_21,115,4098.46,4093.33,4097.44,4093.33,4094.87,4092.31,4091.28,4091.28,4097.95,4104.62,4151.79,4875.9,4099.49,4098.46,0
15_23_21,116,4093.85,4085.64,4098.46,4092.82,4093.33,4090.77,4089.74,4091.28,4097.95,4104.1,4151.79,4878.97,4096.92,4098.46,0
15_23_21,117,4088.21,4088.72,4092.31,4093.33,4091.28,4089.74,4088.21,4096.41,4097.95,4104.62,4151.79,4880.51,4095.9,4098.46,0
15_23_21,118,4092.31,4092.31,4091.79,4093.85,4090.77,4090.26,4089.23,4097.44,4097.95,4104.1,4151.79,4878.97,4096.92,4098.46,0
15_23_21,119,4096.41,4088.72,4094.87,4091.79,4094.36,4090.26,4089.74,4091.28,4097.95,4104.62,4151.79,4878.46,4095.9,4098.46,0
15_23_21,120,4091.79,4089.23,4093.85,4091.79,4098.46,4091.28,4090.26,4090.77,4097.95,4104.1,4151.79,4876.41,4095.9,4098.46,0
15_23_21,121,4088.72,4094.87,4091.28,4093.85,4095.38,4091.79,4090.26,4097.44,4097.95,4104.62,4151.79,4874.87,4097.95,4098.46,0
15_23_21,122,4092.82,4094.87,4092.82,4095.38,4091.79,4090.26,4089.23,4095.9,4097.95,4104.1,4151.79,4876.92,4097.95,4098.46,0
15_23_21,123,4094.36,4088.72,4094.36,4091.79,4093.33,4088.72,4090.26,4091.28,4097.95,4104.62,4151.79,4877.95,4096.92,4098.46,0
15_23_21,124,4090.77,4089.23,4093.33,4089.23,4094.87,4090.77,4089.74,4092.82,4097.95,4104.1,4151.79,4878.97,4097.95,4098.46,0
15_23_21,125,4093.85,4096.41,4092.82,4091.79,4095.9,4093.33,4088.21,4092.82,4097.95,4104.62,4151.79,4881.03,4098.46,4098.46,0
15_23_21,126,4094.87,4094.36,4096.41,4094.87,4094.87,4091.28,4090.26,4091.28,4097.95,4104.62,4151.79,4878.97,4097.44,4098.46,0
15_23_21,127,4087.69,4089.23,4099.49,4093.85,4092.82,4088.72,4092.31,4096.41,4097.95,4104.62,4151.79,4875.38,4098.97,4098.46,0
15_23_21,128,4087.69,4090.26,4097.95,4092.82,4095.9,4091.28,4090.26,4096.92,4097.95,4104.62,4151.79,4875.9,4099.49,4098.46,0
15_23_21,0,4093.33,4091.28,4097.44,4094.36,4097.44,4093.85,4090.26,4092.31,4097.95,4104.62,4151.79,4876.92,4094.36,4098.46,0
15_23_21,1,4092.82,4091.28,4097.95,4095.38,4092.82,4091.28,4092.31,4093.33,4097.95,4104.62,4151.79,4875.38,4088.72,4098.46,0
15_23_21,2,4089.74,4091.28,4097.44,4092.82,4091.79,4089.23,4091.28,4094.36,4097.95,4104.1,4151.79,4876.41,4091.28,4098.46,0
15_23_21,3,4088.72,4089.74,4096.41,4090.26,4093.33,4088.21,4090.26,4089.74,4097.95,4104.62,4151.79,4877.95,4095.9,4098.46,0
15_23_21,4,4089.23,4090.77,4096.92,4091.79,4093.33,4089.74,4090.77,4092.31,4097.95,4104.1,4151.79,4878.46,4093.33,4098.46,0
15_23_21,5,4092.82,4094.36,4096.92,4094.36,4096.92,4099.49,4089.74,4101.54,4097.44,4104.62,4151.79,4877.95,4089.23,4098.46,0
15_23_21,6,4094.36,4092.31,4096.92,4094.36,4101.03,4100,4086.67,4100,4097.95,4104.1,4151.79,4878.46,4092.31,4098.46,0
15_23_21,7,4092.82,4089.74,4096.92,4094.36,4096.41,4088.72,4086.67,4092.31,4097.95,4104.62,4151.79,4878.97,4097.95,4098.46,0
15_23_21,8,4093.85,4089.74,4096.92,4094.36,4090.26,4086.67,4092.31,4089.74,4097.44,4104.1,4151.79,4879.49,4098.46,4098.46,0
15_23_21,9,4093.85,4089.74,4096.92,4093.33,4091.79,4091.79,4092.82,4092.82,4097.44,4104.62,4151.79,4880,4096.41,4098.46,0
15_23_21,10,4090.77,4093.33,4096.92,4093.33,4097.95,4090.77,4085.64,4094.87,4098.97,4104.1,4151.79,4877.44,4097.44,4098.46,0
15_23_21,11,4091.28,4095.9,4096.92,4093.33,4098.97,4089.74,4086.15,4093.33,4098.46,4104.62,4151.79,4874.36,4097.95,4098.46,0
15_23_21,12,4092.31,4093.33,4096.92,4093.33,4093.33,4091.28,4089.74,4089.74,4096.92,4104.62,4151.79,4876.41,4097.44,4098.46,0
15_23_21,13,4089.74,4092.82,4097.44,4093.85,4092.82,4090.26,4089.23,4091.79,4097.44,4104.62,4151.79,4879.49,4097.44,4098.46,0
15_23_21,14,4088.72,4094.87,4096.92,4092.31,4095.9,4090.77,4090.26,4097.44,4098.46,4104.62,4151.79,4876.92,4096.92,4098.46,0
15_23_21,15,4091.79,4095.38,4096.92,4093.85,4094.36,4092.31,4091.28,4095.9,4098.46,4104.62,4151.79,4873.85,4097.95,4098.46,0
15_23_21,16,4093.85,4092.31,4097.44,4094.36,4093.85,4090.26,4086.67,4090.26,4098.46,4104.62,4151.79,4875.9,4098.46,4098.46,0
15_23_21,17,4092.82,4089.23,4095.38,4087.69,4094.36,4090.26,4086.15,4091.79,4098.46,4104.1,4151.79,4880.51,4093.85,4098.46,0
15_23_21,18,4091.79,4090.26,4092.31,4085.64,4093.33,4090.77,4093.33,4093.33,4098.46,4105.13,4151.79,4880,4093.33,4098.46,0
15_23_21,19,4091.79,4094.87,4093.85,4093.33,4092.82,4091.79,4094.87,4091.79,4098.46,4104.1,4151.79,4876.92,4098.46,4098.46,0
15_23_21,20,4089.74,4095.38,4094.87,4096.41,4093.33,4094.36,4088.72,4091.79,4098.46,4100.51,4151.79,4877.44,4099.49,4098.46,0
15_23_21,21,4089.74,4091.79,4092.82,4092.31,4092.82,4095.38,4087.18,4090.77,4098.46,4097.44,4151.79,4879.49,4096.41,4098.46,0
15_23_21,22,4091.28,4089.23,4094.36,4093.33,4093.85,4090.77,4090.26,4090.77,4098.46,4098.46,4151.79,4877.95,4096.41,4098.97,0
15_23_21,23,4090.77,4090.26,4094.87,4095.9,4093.33,4089.23,4092.31,4096.41,4098.46,4101.54,4151.79,4875.9,4097.95,4099.49,0
15_23_21,24,4090.77,4091.79,4089.74,4092.82,4092.31,4092.82,4091.28,4098.97,4098.46,4104.1,4151.79,4878.46,4098.46,4099.49,0
15_23_21,25,4092.82,4090.77,4087.18,4090.26,4095.38,4091.79,4092.31,4094.87,4098.46,4104.62,4151.79,4879.49,4094.87,4099.49,0
15_23_21,26,4092.82,4090.77,4091.28,4092.31,4097.95,4089.23,4093.85,4094.87,4098.97,4103.59,4151.79,4875.9,4092.82,4099.49,0
15_23_21,27,4090.77,4095.38,4094.36,4097.44,4094.87,4090.77,4093.33,4096.41,4099.49,4104.1,4151.79,4876.41,4096.92,4099.49,0
15_23_21,28,4091.28,4094.36,4094.36,4099.49,4092.31,4092.31,4091.79,4093.33,4099.49,4104.1,4151.79,4881.54,4097.44,4099.49,0
15_23_21,29,4090.77,4088.21,4093.85,4092.82,4094.36,4090.77,4088.72,4092.31,4099.49,4103.08,4151.79,4878.97,4095.9,4099.49,0
15_23_21,30,4089.23,4089.23,4093.33,4088.21,4093.33,4089.74,4089.23,4093.33,4099.49,4103.59,4151.79,4873.85,4098.46,4099.49,0
15_23_21,31,4091.28,4092.31,4094.36,4091.79,4090.77,4090.77,4090.77,4093.33,4099.49,4103.59,4151.79,4876.92,4099.49,4099.49,0
15_23_21,32,4092.31,4089.23,4093.85,4094.87,4092.31,4090.77,4090.26,4093.33,4099.49,4103.59,4151.79,4880.51,4098.46,4099.49,0
15_23_21,33,4090.77,4089.74,4094.36,4093.33,4094.36,4090.77,4090.26,4092.31,4099.49,4103.59,4151.79,4875.38,4099.49,4099.49,0
15_23_21,34,4091.28,4090.26,4094.36,4092.31,4094.36,4089.74,4091.28,4091.28,4099.49,4103.59,4151.79,4873.33,4097.95,4099.49,0
15_23_21,35,4092.31,4087.69,4093.85,4094.87,4094.36,4089.74,4093.33,4092.82,4099.49,4103.59,4151.79,4877.95,4096.41,4099.49,0
15_23_21,36,4091.28,4094.36,4094.36,4094.87,4093.33,4093.85,4094.36,4093.85,4099.49,4103.59,4151.79,4877.95,4096.92,4099.49,0
15_23_21,37,4091.28,4096.41,4093.85,4093.85,4093.33,4092.82,4091.28,4091.79,4099.49,4103.59,4151.79,4876.41,4096.92,4099.49,0
15_23_21,38,4092.31,4090.26,4093.85,4093.33,4094.87,4089.23,4088.21,4092.82,4099.49,4103.59,4151.79,4878.97,4096.92,4099.49,0
15_23_21,39,4090.77,4092.31,4096.92,4093.33,4094.87,4093.33,4089.74,4094.36,4099.49,4103.59,4151.79,4881.03,4096.92,4099.49,0
15_23_21,40,4090.26,4095.9,4098.97,4093.33,4092.82,4095.9,4090.26,4097.44,4099.49,4103.59,4151.79,4879.49,4096.92,4099.49,0
15_23_21,41,4090.77,4091.79,4097.95,4093.33,4093.33,4090.26,4087.69,4098.97,4099.49,4103.59,4151.79,4878.46,4096.92,4099.49,0
15_23_21,42,4090.26,4090.77,4097.44,4093.33,4094.36,4087.69,4091.28,4095.9,4099.49,4103.59,4151.79,4878.97,4096.92,4099.49,0
15_23_22,43,4090.26,4091.79,4097.95,4092.82,4092.31,4090.26,4093.85,4098.46,4099.49,4103.59,4151.79,4879.49,4096.92,4099.49,0
15_23_22,44,4092.82,4091.28,4097.44,4091.28,4092.31,4089.74,4090.77,4098.46,4099.49,4103.59,4151.79,4878.97,4096.92,4099.49,0
15_23_22,45,4092.31,4093.85,4096.41,4088.21,4093.33,4088.72,4089.23,4090.77,4099.49,4103.59,4151.79,4877.44,4096.92,4099.49,0
15_23_22,46,4091.28,4094.36,4096.92,4090.26,4091.28,4089.74,4089.74,4089.23,4099.49,4103.59,4151.79,4876.41,4096.92,4099.49,0
15_23_22,47,4093.85,4090.77,4096.92,4094.36,4092.82,4091.28,4090.26,4093.85,4099.49,4103.59,4151.79,4877.95,4096.92,4099.49,0
15_23_22,48,4092.31,4091.79,4097.44,4088.72,4095.9,4092.31,4090.77,4092.82,4099.49,4103.59,4151.79,4878.46,4096.92,4099.49,0
15_23_22,49,4090.26,4095.38,4096.92,4085.13,4093.33,4091.28,4089.74,4091.28,4100,4104.1,4151.79,4876.92,4096.92,4099.49,0
15_23_22,50,4091.79,4097.95,4096.41,4091.79,4091.28,4090.26,4089.23,4094.36,4099.49,4103.08,4151.79,4877.44,4096.92,4099.49,0
15_23_22,51,4091.79,4095.38,4097.95,4093.33,4090.77,4090.26,4090.26,4097.95,4099.49,4103.59,4151.79,4878.97,4096.92,4099.49,0
15_23_22,52,4090.77,4091.79,4094.87,4089.23,4089.23,4090.77,4090.77,4100.51,4100,4104.1,4151.79,4877.95,4096.92,4099.49,0
15_23_22,53,4093.85,4093.85,4089.23,4092.31,4090.26,4091.28,4090.77,4095.9,4099.49,4100.51,4151.79,4877.44,4097.44,4099.49,0
15_23_22,54,4093.33,4094.87,4090.77,4096.41,4094.87,4091.28,4091.28,4091.28,4097.44,4096.41,4151.79,4878.46,4096.41,4099.49,0
15_23_22,55,4089.74,4094.87,4096.41,4094.87,4094.36,4092.31,4090.26,4096.92,4098.46,4097.44,4151.79,4877.95,4096.92,4100,0
15_23_22,56,4092.31,4094.36,4097.44,4094.87,4089.74,4095.38,4089.74,4097.44,4098.97,4102.56,4151.79,4878.46,4098.97,4099.49,0
15_23_22,57,4094.36,4092.31,4097.44,4095.38,4089.74,4093.85,4090.26,4091.79,4096.92,4105.13,4151.79,4878.46,4098.97,4098.97,0
15_23_22,58,4089.74,4091.79,4098.97,4094.87,4095.9,4089.23,4091.79,4093.33,4097.44,4106.15,4151.79,4876.92,4097.95,4100.51,0
15_23_22,59,4088.21,4091.79,4096.92,4094.87,4095.9,4089.74,4091.79,4094.87,4098.97,4106.15,4151.79,4878.97,4097.44,4102.05,0
15_23_22,60,4089.74,4089.74,4093.33,4094.87,4089.74,4093.85,4089.74,4093.33,4098.46,4106.15,4151.79,4882.05,4097.44,4099.49,0
15_23_22,61,4091.28,4091.79,4092.82,4094.87,4089.23,4090.77,4090.77,4093.85,4097.95,4106.15,4151.79,4875.9,4097.95,4097.44,0
15_23_22,62,4091.28,4094.87,4093.85,4095.38,4093.85,4087.69,4093.33,4094.87,4098.46,4105.64,4151.79,4873.33,4098.46,4098.97,0
15_23_22,63,4089.74,4093.85,4094.36,4094.36,4091.28,4088.21,4091.79,4092.31,4098.46,4105.64,4151.79,4882.05,4098.46,4100,0
15_23_22,64,4091.28,4095.38,4095.38,4094.87,4087.69,4090.26,4089.23,4091.79,4098.46,4105.64,4151.79,4883.08,4098.46,4099.49,0
15_23_22,65,4091.28,4095.38,4097.95,4097.95,4089.23,4091.79,4090.77,4092.82,4098.46,4105.64,4151.79,4876.41,4097.95,4098.46,0
15_23_22,66,4089.74,4089.74,4098.97,4099.49,4093.33,4090.26,4092.31,4090.26,4098.46,4105.64,4151.79,4876.92,4097.95,4098.46,0
15_23_22,67,4091.28,4091.28,4095.38,4097.44,4093.85,4089.74,4090.26,4090.26,4098.46,4105.64,4151.79,4878.97,4097.44,4102.56,0
15_23_22,68,4093.33,4096.41,4091.79,4097.44,4091.79,4091.79,4089.74,4094.87,4098.46,4105.64,4151.79,4877.95,4096.41,4103.59,0
15_23_22,69,4090.26,4094.36,4090.77,4098.97,4091.79,4092.82,4089.74,4095.9,4098.46,4105.64,4151.79,4877.44,4095.38,4103.08,0
15_23_22,70,4090.26,4093.33,4091.79,4098.46,4093.33,4090.77,4089.74,4092.82,4098.46,4106.15,4151.79,4874.36,4096.92,4105.13,0
15_23_22,71,4092.82,4094.87,4091.79,4098.46,4089.23,4090.26,4090.77,4093.85,4098.46,4106.15,4151.79,4873.33,4098.46,4102.05,0
15_23_22,72,4091.79,4093.33,4091.28,4098.97,4087.69,4092.31,4091.79,4093.33,4098.46,4105.13,4151.79,4879.49,4097.44,4097.44,0
15_23_22,73,4091.28,4092.31,4092.31,4098.46,4094.36,4093.85,4091.79,4091.28,4098.46,4106.67,4151.79,4880,4097.44,4098.97,0
15_23_22,74,4092.82,4093.33,4093.33,4097.95,4094.87,4092.82,4089.74,4095.9,4098.46,4106.15,4151.79,4875.9,4097.95,4101.03,0
15_23_22,75,4092.31,4093.85,4096.41,4100,4089.23,4089.74,4089.23,4099.49,4098.46,4101.03,4151.79,4876.92,4097.95,4097.95,0
15_23_22,76,4091.79,4091.79,4098.97,4096.41,4090.77,4088.72,4090.26,4097.44,4098.46,4097.44,4151.79,4878.97,4096.41,4097.95,0
15_23_22,77,4090.77,4091.28,4098.46,4090.26,4094.87,4090.26,4091.28,4096.41,4098.46,4098.97,4151.79,4878.46,4096.92,4102.05,0
15_23_22,78,4093.85,4092.31,4098.46,4091.28,4092.31,4092.82,4089.74,4096.41,4098.46,4100,4151.79,4876.41,4098.46,4101.54,0
15_23_22,79,4097.44,4091.28,4098.46,4095.38,4091.79,4091.79,4090.77,4096.41,4098.46,4098.97,4151.79,4876.92,4097.95,4101.03,0
15_23_22,80,4093.33,4089.23,4097.44,4094.36,4095.38,4089.23,4092.82,4092.82,4098.46,4098.97,4151.79,4879.49,4096.92,4104.62,0
15_23_22,81,4091.28,4090.26,4100,4092.82,4093.85,4092.82,4092.31,4088.21,4098.46,4098.46,4151.79,4880.51,4096.92,4105.64,0
15_23_22,82,4094.87,4093.33,4098.46,4094.87,4090.26,4095.9,4091.28,4091.28,4098.46,4098.46,4151.79,4878.46,4096.92,4101.03,0
15_23_22,83,4094.87,4094.36,4091.79,4094.87,4094.87,4092.31,4091.79,4097.44,4098.46,4098.46,4151.79,4877.44,4096.92,4097.95,0
15_23_22,84,4091.79,4091.79,4092.31,4093.33,4100.51,4089.23,4089.74,4095.9,4098.46,4098.46,4151.79,4878.46,4096.92,4098.46,0
15_23_22,85,4094.36,4088.21,4095.38,4093.33,4096.41,4090.77,4089.74,4090.77,4098.46,4098.46,4151.79,4878.46,4096.92,4096.41,0
15_23_22,86,4094.87,4090.26,4093.33,4093.33,4090.77,4090.77,4089.74,4090.26,4098.46,4098.46,4151.79,4877.44,4096.92,4098.97,0
15_23_22,87,4091.28,4094.36,4093.33,4093.33,4092.82,4090.77,4087.69,4094.87,4098.46,4098.46,4151.79,4877.95,4096.92,4105.13,0
15_23_22,88,4093.33,4092.82,4092.82,4093.33,4095.38,4092.31,4089.74,4101.54,4098.46,4098.46,4151.79,4878.46,4096.92,4104.62,0
15_23_22,89,4096.41,4089.74,4090.77,4093.33,4092.31,4091.79,4092.82,4097.44,4098.46,4098.46,4151.79,4878.97,4096.92,4098.46,0
15_23_22,90,4094.87,4091.28,4092.31,4093.33,4090.26,4090.77,4091.28,4089.23,4098.46,4098.46,4151.79,4878.97,4096.41,4096.92,0
15_23_22,91,4090.77,4093.85,4095.38,4093.33,4090.77,4091.28,4089.74,4093.33,4098.46,4098.46,4151.79,4879.49,4097.44,4100,0
15_23_22,92,4088.72,4090.26,4096.41,4093.33,4088.72,4090.26,4092.31,4098.46,4098.46,4098.46,4151.79,4878.97,4096.92,4100,0
15_23_22,93,4089.23,4087.69,4097.95,4093.33,4089.23,4092.31,4092.31,4091.79,4098.46,4098.46,4151.79,4877.95,4095.38,4097.95,0
15_23_22,94,4091.79,4091.28,4098.97,4093.33,4093.85,4094.87,4089.74,4091.28,4098.46,4098.97,4151.79,4877.95,4095.9,4097.95,0
15_23_22,95,4092.31,4093.33,4096.92,4092.82,4093.85,4092.82,4088.72,4098.46,4098.46,4098.46,4151.79,4878.97,4095.9,4098.97,0
15_23_22,96,4092.31,4090.77,4092.31,4095.38,4090.77,4089.74,4089.23,4096.92,4098.46,4097.95,4151.79,4879.49,4095.9,4098.46,0
15_23_22,97,4096.92,4091.28,4092.82,4098.46,4093.33,4089.74,4088.72,4091.79,4098.46,4102.05,4151.79,4878.97,4094.87,4097.44,0
15_23_22,98,4101.03,4095.9,4098.46,4096.41,4094.87,4089.74,4089.74,4093.85,4098.46,4105.13,4151.79,4879.49,4094.36,4100.51,0
15_23_22,99,4094.36,4093.33,4097.44,4092.31,4090.26,4089.74,4093.33,4094.36,4098.46,4103.59,4151.79,4878.46,4096.92,4102.56,0
15_23_22,100,4089.74,4088.72,4091.79,4092.82,4087.69,4090.77,4091.79,4093.33,4098.46,4103.08,4151.79,4878.46,4100,4100,0
15_23_22,101,4095.9,4091.28,4091.79,4095.38,4091.28,4089.74,4089.23,4093.85,4098.46,4104.62,4151.79,4878.97,4099.49,4097.95,0
15_23_22,102,4096.92,4092.31,4096.41,4096.92,4092.82,4089.23,4091.79,4091.79,4098.46,4104.62,4151.79,4878.46,4097.44,4100,0
15_23_22,103,4091.79,4087.18,4096.41,4097.44,4089.23,4090.77,4094.36,4089.23,4098.46,4104.1,4151.79,4878.46,4097.95,4100,0
15_23_22,104,4094.36,4090.26,4092.31,4097.95,4090.77,4091.28,4092.31,4093.85,4098.46,4104.62,4151.79,4879.49,4098.46,4098.46,0
15_23_22,105,4096.92,4094.87,4089.74,4097.95,4095.38,4089.74,4090.77,4095.38,4098.46,4104.62,4151.79,4879.49,4099.49,4098.97,0
15_23_22,106,4095.9,4091.79,4092.82,4096.92,4093.33,4088.72,4091.79,4090.77,4098.46,4104.1,4151.79,4878.97,4099.49,4099.49,0
15_23_22,107,4094.36,4089.74,4092.82,4096.92,4090.77,4090.26,4092.82,4092.31,4098.46,4104.62,4151.79,4878.46,4097.95,4099.49,0
15_23_22,108,4092.31,4094.87,4088.21,4096.92,4091.28,4090.77,4092.31,4097.44,4098.46,4104.62,4151.79,4876.92,4098.46,4099.49,0
15_23_22,109,4090.77,4095.38,4092.31,4096.92,4089.23,4091.28,4090.77,4096.92,4098.46,4104.62,4151.79,4876.92,4098.97,4099.49,0
15_23_22,110,4093.85,4090.26,4097.95,4096.92,4090.77,4091.28,4091.28,4095.9,4098.46,4104.62,4151.79,4879.49,4098.46,4099.49,0
15_23_22,111,4093.33,4089.74,4094.87,4096.92,4094.36,4089.23,4092.31,4097.95,4098.46,4104.62,4151.79,4878.97,4098.46,4099.49,0
15_23_22,112,4092.31,4091.28,4091.79,4096.92,4090.26,4089.74,4090.77,4097.44,4098.46,4104.62,4151.79,4878.46,4098.46,4099.49,0
15_23_22,113,4094.36,4091.28,4094.36,4096.92,4086.15,4091.28,4090.77,4096.92,4098.46,4104.1,4151.79,4880,4098.46,4099.49,0
15_23_22,114,4094.36,4090.77,4094.36,4096.92,4089.74,4089.74,4093.85,4098.97,4098.46,4104.62,4151.79,4877.44,4098.46,4099.49,0
15_23_22,115,4094.36,4091.28,4092.82,4096.92,4094.87,4088.72,4092.82,4093.85,4098.46,4104.1,4151.79,4875.9,4098.97,4100,0
15_23_22,116,4092.31,4093.33,4094.36,4096.92,4095.38,4089.23,4088.21,4090.77,4098.46,4104.62,4151.79,4878.46,4098.46,4098.46,0
15_23_22,117,4091.79,4092.31,4092.82,4096.92,4090.26,4088.72,4089.74,4095.38,4098.46,4104.1,4151.79,4877.95,4097.95,4100.51,0
15_23_22,118,4094.87,4091.28,4092.82,4096.92,4086.67,4089.23,4092.82,4096.92,4098.46,4104.62,4151.79,4876.92,4099.49,4102.05,0
15_23_22,119,4094.36,4093.85,4094.36,4096.92,4089.74,4090.77,4091.79,4090.26,4098.46,4104.1,4151.79,4880.51,4097.95,4100,0
15_23_22,120,4093.33,4095.38,4091.28,4096.92,4092.82,4089.74,4088.72,4089.23,4098.46,4104.62,4151.79,4882.56,4093.33,4098.46,0
15_23_22,121,4095.9,4094.87,4092.31,4097.44,4093.33,4089.23,4088.72,4097.44,4098.46,4104.1,4151.79,4881.03,4092.82,4100,0
15_23_22,122,4093.33,4093.85,4095.38,4096.92,4093.85,4090.26,4090.77,4102.05,4098.46,4104.62,4151.79,4881.03,4097.44,4100,0
15_23_22,123,4088.72,4091.28,4093.33,4096.92,4093.33,4090.26,4091.28,4097.44,4098.46,4104.62,4151.79,4882.56,4098.46,4099.49,0
15_23_22,124,4091.79,4091.28,4092.82,4097.95,4094.36,4091.28,4090.77,4093.33,4098.46,4104.62,4151.79,4880.51,4096.41,4098.97,0
15_23_22,125,4091.79,4095.9,4095.9,4095.38,4093.85,4091.28,4091.79,4092.31,4098.46,4104.62,4151.79,4876.41,4097.44,4098.46,0
15_23_22,126,4089.74,4096.92,4093.33,4091.28,4088.72,4091.79,4089.23,4090.26,4098.46,4104.62,4151.79,4876.41,4098.46,4098.46,0
15_23_22,127,4091.28,4095.9,4091.79,4091.28,4089.74,4094.87,4088.21,4090.77,4098.97,4104.62,4151.79,4879.49,4097.95,4098.46,0
15_23_22,128,4092.31,4096.41,4096.92,4092.82,4094.36,4096.41,4090.26,4093.33,4099.49,4104.1,4151.79,4879.49,4097.44,4098.97,0
15_23_22,0,4091.28,4096.41,4097.95,4093.85,4093.85,4093.85,4091.28,4091.79,4100,4104.62,4151.79,4879.49,4097.95,4097.95,0
15_23_22,1,4090.77,4096.41,4091.79,4094.87,4091.28,4089.74,4091.28,4091.28,4098.97,4104.62,4151.79,4880.51,4097.95,4098.46,0
15_23_22,2,4090.77,4096.92,4089.23,4093.33,4091.79,4091.79,4091.79,4093.33,4097.44,4104.1,4151.79,4879.49,4097.95,4101.03,0
15_23_22,3,4090.26,4096.41,4092.31,4090.26,4092.31,4093.33,4090.26,4089.74,4097.44,4105.13,4151.79,4879.49,4097.95,4101.03,0
15_23_22,4,4092.31,4095.9,4092.82,4092.31,4092.82,4090.26,4090.26,4087.18,4098.97,4104.62,4151.79,4879.49,4097.95,4098.46,0
15_23_22,5,4093.33,4097.44,4089.74,4093.85,4090.26,4088.21,4090.26,4092.82,4098.46,4100.51,4151.79,4878.97,4097.95,4097.95,0
15_23_22,6,4092.31,4094.87,4091.28,4091.79,4088.21,4088.72,4089.74,4097.95,4098.46,4097.95,4151.79,4878.46,4097.95,4098.46,0
15_23_22,7,4091.79,4090.77,4095.38,4092.82,4092.31,4090.26,4089.23,4095.38,4098.46,4098.46,4151.79,4877.95,4097.95,4098.97,0
15_23_22,8,4092.31,4089.74,4094.87,4094.87,4095.9,4090.26,4089.74,4094.87,4098.46,4098.97,4151.79,4878.46,4097.95,4099.49,0
15_23_22,9,4091.79,4091.79,4092.82,4093.33,4094.36,4088.72,4090.77,4098.46,4098.46,4098.97,4151.79,4879.49,4097.95,4098.97,0
15_23_22,10,4089.23,4092.82,4094.36,4092.31,4094.36,4088.72,4090.26,4097.95,4098.46,4098.97,4151.79,4880,4097.95,4097.95,0
15_23_22,11,4088.72,4094.36,4094.36,4095.9,4093.85,4091.28,4089.23,4096.92,4098.46,4099.49,4151.79,4878.97,4097.95,4098.97,0
15_23_22,12,4091.79,4094.36,4093.85,4097.95,4091.79,4091.79,4089.74,4097.95,4098.46,4102.56,4151.79,4878.46,4097.95,4098.46,0
15_23_22,13,4092.82,4093.33,4094.87,4097.44,4090.26,4090.26,4090.77,4098.46,4098.46,4105.13,4151.79,4879.49,4097.95,4098.46,0
15_23_22,14,4091.28,4096.41,4093.33,4098.46,4091.28,4090.26,4090.26,4096.41,4098.46,4104.1,4151.79,4879.49,4097.95,4098.46,0
15_23_22,15,4091.28,4099.49,4090.26,4096.92,4092.82,4093.33,4090.26,4096.41,4098.46,4103.59,4151.79,4877.95,4097.95,4098.46,0
15_23_22,16,4093.33,4097.95,4091.79,4092.82,4092.82,4096.92,4090.77,4098.46,4098.46,4104.1,4151.79,4876.92,4097.95,4098.46,0
15_23_22,17,4096.41,4097.95,4095.9,4092.82,4091.79,4094.36,4090.26,4095.38,4098.46,4103.59,4151.79,4877.95,4097.95,4098.46,0
15_23_22,18,4097.95,4098.97,4096.92,4094.87,4093.33,4089.74,4090.77,4090.77,4098.46,4103.59,4151.79,4878.46,4097.95,4098.46,0
15_23_22,19,4094.36,4094.87,4095.9,4093.85,4095.9,4091.28,4091.28,4093.85,4098.46,4103.59,4151.79,4879.49,4097.44,4098.46,0
15_23_22,20,4090.26,4094.36,4096.41,4093.33,4095.9,4091.79,4090.77,4097.44,4098.46,4103.59,4151.79,4880.51,4097.95,4098.46,0
15_23_22,21,4091.79,4095.38,4096.41,4092.31,4094.36,4088.21,4090.77,4093.33,4098.46,4103.59,4151.79,4879.49,4098.46,4098.46,0
15_23_22,22,4093.85,4090.77,4096.92,4090.26,4093.85,4088.21,4091.79,4091.28,4098.46,4103.59,4151.79,4877.95,4095.9,4098.46,0
15_23_22,23,4091.28,4090.77,4096.41,4092.82,4094.87,4092.31,4090.77,4092.82,4098.46,4103.59,4151.79,4877.95,4092.31,4098.46,0
15_23_22,24,4088.72,4094.36,4092.82,4094.36,4093.85,4092.31,4089.23,4092.82,4098.46,4103.59,4151.79,4877.95,4093.85,4098.46,0
15_23_22,25,4089.23,4091.79,4093.33,4091.79,4091.79,4089.23,4090.26,4095.38,4098.46,4103.59,4151.79,4878.46,4096.41,4098.46,0
15_23_22,26,4091.79,4088.72,4097.95,4092.82,4090.77,4088.72,4091.28,4094.87,4098.97,4103.59,4151.79,4878.97,4094.36,4098.46,0
15_23_22,27,4093.33,4092.82,4096.92,4094.87,4089.74,4089.23,4089.23,4090.77,4098.46,4103.59,4151.79,4878.97,4092.82,4098.46,0
15_23_22,28,4093.85,4094.87,4090.26,4093.85,4089.74,4091.79,4087.69,4092.82,4097.95,4103.59,4151.79,4878.97,4093.85,4098.46,0
15_23_22,29,4093.85,4093.85,4088.72,4092.82,4090.77,4094.36,4088.21,4097.95,4097.95,4103.59,4151.79,4879.49,4096.41,4098.46,0
15_23_22,30,4093.33,4094.36,4091.28,4093.33,4088.72,4091.79,4090.26,4098.97,4097.44,4103.59,4151.79,4879.49,4098.97,4098.46,0
15_23_22,31,4093.33,4094.36,4090.26,4093.33,4088.72,4088.72,4091.79,4097.44,4097.44,4103.59,4151.79,4878.97,4099.49,4098.46,0
15_23_22,32,4093.85,4094.36,4089.74,4093.33,4097.44,4091.28,4091.79,4098.46,4097.95,4103.59,4151.79,4879.49,4098.46,4098.46,0
15_23_22,33,4091.28,4094.87,4094.87,4093.33,4099.49,4094.36,4090.26,4099.49,4098.97,4103.59,4151.79,4879.49,4098.97,4098.46,0
15_23_22,34,4090.77,4092.31,4100.51,4093.33,4090.77,4091.79,4090.77,4094.87,4098.46,4103.59,4151.79,4878.46,4097.95,4098.46,0
15_23_22,35,4091.28,4088.72,4096.92,4093.33,4089.23,4090.26,4091.79,4090.26,4098.46,4103.59,4151.79,4876.92,4096.92,4098.46,0
15_23_22,36,4091.28,4091.28,4090.77,4093.33,4092.31,4090.77,4088.72,4091.79,4098.46,4103.59,4151.79,4877.44,4097.44,4098.46,0
15_23_22,37,4091.28,4094.87,4092.31,4093.33,4091.79,4092.82,4088.72,4092.31,4098.46,4103.59,4151.79,4880,4097.44,4098.46,0
15_23_22,38,4091.28,4092.82,4094.87,4093.33,4092.31,4095.38,4092.31,4094.36,4098.46,4103.59,4151.79,4880.51,4097.44,4098.46,0
15_23_22,39,4090.26,4091.28,4090.77,4093.33,4090.77,4093.85,4088.72,4099.49,4098.46,4103.59,4151.79,4878.97,4097.44,4098.46,0
15_23_22,40,4091.28,4091.28,4088.72,4093.33,4087.18,4090.26,4085.64,4096.92,4098.46,4103.59,4151.79,4878.97,4097.44,4098.46,0
15_23_22,41,4093.33,4090.77,4091.79,4093.33,4093.85,4089.23,4089.74,4093.85,4098.46,4103.59,4151.79,4880,4097.44,4098.46,0
15_23_23,42,4092.82,4090.26,4094.87,4093.33,4096.92,4089.23,4091.79,4096.92,4097.44,4103.59,4151.79,4879.49,4097.44,4098.46,0
15_23_23,43,4091.79,4092.31,4095.9,4093.33,4087.69,4088.72,4089.23,4096.41,4096.92,4103.08,4151.79,4878.46,4097.44,4098.46,0
15_23_23,44,4091.79,4092.31,4097.44,4093.33,4087.69,4089.23,4088.72,4094.36,4096.92,4103.59,4151.79,4878.46,4096.92,4098.46,0
15_23_23,45,4092.31,4090.77,4098.97,4093.33,4094.87,4088.21,4090.26,4098.97,4096.92,4104.1,4151.79,4878.46,4097.44,4098.46,0
15_23_23,46,4092.31,4091.79,4096.92,4093.33,4091.79,4088.72,4089.74,4099.49,4096.41,4100.51,4151.79,4878.46,4097.95,4098.46,0
15_23_23,47,4090.26,4095.38,4092.31,4093.33,4088.21,4093.33,4089.23,4093.33,4096.92,4097.44,4151.79,4877.95,4096.41,4098.46,0
15_23_23,48,4091.28,4094.36,4092.31,4093.33,4091.79,4092.31,4090.77,4092.31,4096.92,4100,4151.79,4878.97,4095.38,4098.46,0
15_23_23,49,4096.41,4089.74,4093.33,4093.33,4094.36,4089.74,4092.82,4092.82,4096.41,4102.05,4151.79,4880,4098.46,4098.46,0
15_23_23,50,4096.92,4086.15,4091.79,4093.33,4093.85,4089.74,4092.82,4090.26,4097.95,4102.56,4151.79,4878.46,4100.51,4098.46,0
15_23_23,51,4092.82,4087.69,4092.82,4093.33,4094.36,4089.74,4090.26,4091.79,4099.49,4103.59,4151.79,4877.44,4099.49,4098.46,0
15_23_23,52,4092.31,4092.31,4092.82,4093.33,4095.38,4088.72,4090.26,4095.38,4098.46,4103.59,4151.79,4877.95,4098.97,4098.46,0
15_23_23,53,4093.33,4094.36,4091.28,4093.33,4092.82,4090.77,4092.31,4092.82,4098.46,4102.56,4151.79,4877.95,4098.97,4098.46,0
15_23_23,54,4090.77,4092.31,4091.79,4093.33,4091.28,4094.36,4092.31,4091.28,4098.46,4103.08,4151.79,4878.97,4098.46,4098.46,0
15_23_23,55,4090.26,4093.85,4090.77,4093.33,4093.33,4094.36,4090.26,4092.82,4097.44,4103.08,4151.79,4879.49,4098.46,4098.46,0
15_23_23,56,4092.31,4095.38,4090.77,4093.33,4091.79,4091.28,4089.74,4092.82,4097.44,4102.56,4151.79,4878.97,4098.46,4098.46,0
15_23_23,57,4091.79,4092.82,4093.85,4093.33,4090.77,4089.74,4089.74,4092.82,4098.97,4103.08,4151.79,4877.44,4098.46,4098.46,0
15_23_23,58,4089.74,4092.31,4093.85,4093.33,4092.31,4092.31,4089.74,4092.31,4098.46,4103.08,4151.79,4876.92,4098.46,4098.46,0
15_23_23,59,4090.77,4091.79,4092.82,4093.33,4090.77,4092.31,4089.74,4091.28,4098.46,4103.08,4151.79,4878.97,4098.97,4098.46,0
15_23_23,60,4092.82,4090.26,4094.87,4093.33,4091.28,4089.74,4089.74,4094.87,4098.46,4103.08,4151.79,4880,4098.46,4098.46,0
15_23_23,61,4091.28,4089.74,4095.38,4093.33,4095.38,4090.26,4091.79,4096.41,4098.46,4103.08,4151.79,4878.46,4097.95,4098.46,0
15_23_23,62,4090.77,4090.77,4093.33,4093.33,4095.9,4091.79,4091.79,4092.82,4098.46,4103.08,4151.79,4876.92,4099.49,4098.46,0
15_23_23,63,4092.31,4090.26,4093.85,4093.33,4093.33,4091.28,4087.69,4092.31,4098.46,4103.08,4151.79,4878.46,4098.46,4098.46,0
15_23_23,64,4090.77,4088.72,4093.33,4093.33,4092.82,4090.77,4088.72,4094.87,4098.46,4103.08,4151.79,4878.97,4094.87,4098.46,0
15_23_23,65,4093.85,4090.77,4093.33,4093.33,4091.79,4091.79,4092.31,4094.36,4098.46,4103.08,4151.79,4876.41,4096.41,4098.46,0
15_23_23,66,4098.46,4095.38,4094.36,4093.33,4093.85,4092.31,4090.77,4091.28,4098.46,4103.08,4151.79,4874.87,4099.49,4098.46,0
15_23_23,67,4092.82,4094.36,4091.79,4093.33,4096.41,4090.77,4088.21,4090.26,4098.97,4103.08,4151.79,4876.92,4098.46,4098.46,0
15_23_23,68,4088.72,4088.72,4091.28,4092.82,4096.41,4090.26,4090.77,4093.85,4099.49,4103.08,4151.79,4879.49,4098.46,4098.46,0
15_23_23,69,4094.36,4092.31,4093.33,4093.85,4096.41,4091.79,4092.31,4096.41,4099.49,4103.08,4151.79,4879.49,4099.49,4098.46,0
15_23_23,70,4095.9,4100.51,4093.33,4092.82,4095.9,4093.33,4090.77,4092.82,4099.49,4103.08,4151.79,4877.95,4097.44,4098.46,0
15_23_23,71,4094.87,4097.44,4091.28,4089.74,4097.44,4092.31,4089.23,4090.26,4099.49,4102.56,4151.79,4878.97,4097.44,4098.46,0
15_23_23,72,4098.46,4089.23,4093.85,4088.72,4095.9,4091.79,4089.74,4096.41,4100,4103.08,4151.79,4879.49,4098.97,4098.46,0
15_23_23,73,4100,4087.69,4095.38,4090.26,4090.77,4093.33,4090.26,4102.05,4099.49,4103.59,4151.79,4878.97,4098.46,4098.46,0
15_23_23,74,4096.92,4088.72,4093.85,4092.31,4090.26,4091.79,4091.79,4095.38,4098.46,4100.51,4151.79,4879.49,4098.46,4098.46,0
15_23_23,75,4094.36,4090.77,4093.33,4093.85,4093.85,4088.72,4091.28,4089.23,4097.44,4097.44,4151.79,4878.97,4098.46,4098.46,0
15_23_23,76,4091.28,4092.31,4093.33,4093.85,4092.82,4088.21,4091.28,4093.85,4097.44,4099.49,4151.79,4877.95,4098.97,4098.46,0
15_23_23,77,4090.26,4091.79,4093.33,4093.33,4092.31,4093.85,4092.31,4097.44,4097.44,4102.05,4151.79,4878.97,4098.46,4098.46,0
15_23_23,78,4096.41,4093.33,4093.85,4093.33,4095.38,4098.97,4091.79,4092.31,4097.44,4102.05,4151.79,4879.49,4097.44,4098.46,0
15_23_23,79,4100,4095.9,4093.33,4093.85,4093.33,4093.33,4091.79,4089.23,4098.46,4101.03,4151.79,4877.95,4100,4098.46,0
15_23_23,80,4099.49,4092.31,4093.33,4093.33,4089.23,4089.74,4093.33,4093.33,4098.46,4101.54,4151.79,4878.46,4097.44,4098.46,0
15_23_23,81,4100,4090.26,4093.85,4093.33,4090.26,4092.82,4091.79,4096.92,4098.46,4103.59,4151.79,4879.49,4089.74,4098.46,0
15_23_23,82,4094.87,4093.33,4091.79,4093.33,4093.33,4092.82,4089.74,4096.92,4098.46,4104.1,4151.79,4878.46,4091.79,4098.46,0
15_23_23,83,4090.77,4093.33,4091.28,4093.33,4092.82,4091.79,4091.79,4093.33,4098.46,4103.08,4151.79,4877.95,4100.51,4098.46,0
15_23_23,84,4091.28,4093.85,4090.26,4093.33,4088.72,4093.85,4091.79,4092.31,4098.46,4103.59,4151.79,4878.46,4101.03,4098.46,0
15_23_23,85,4092.31,4098.46,4090.77,4092.82,4089.74,4092.82,4087.69,4095.38,4098.46,4104.62,4151.79,4878.46,4097.44,4098.46,0
15_23_23,86,4089.74,4097.44,4095.38,4093.85,4094.36,4090.77,4087.18,4095.38,4098.46,4104.62,4151.79,4878.97,4098.97,4098.46,0
15_23_23,87,4091.79,4091.79,4099.49,4093.33,4095.38,4091.28,4089.23,4095.38,4098.46,4104.1,4151.79,4878.97,4100.51,4098.46,0
15_23_23,88,4093.33,4091.79,4097.95,4090.77,4093.85,4090.77,4089.23,4097.95,4098.46,4104.62,4151.79,4879.49,4099.49,4098.46,0
15_23_23,89,4092.31,4091.79,4096.41,4092.31,4093.85,4092.31,4091.28,4098.46,4098.46,4104.62,4151.79,4878.97,4098.97,4098.46,0
15_23_23,90,4093.85,4088.72,4097.95,4094.87,4094.87,4093.85,4092.31,4093.85,4098.46,4104.62,4151.79,4878.46,4098.46,4098.46,0
15_23_23,91,4094.87,4092.82,4098.46,4092.82,4091.79,4091.28,4090.26,4091.28,4098.46,4104.62,4151.79,4877.95,4098.97,4098.46,0
15_23_23,92,4093.85,4095.9,4097.44,4091.79,4090.26,4090.26,4089.74,4091.79,4098.46,4104.1,4151.79,4878.46,4098.46,4098.46,0
15_23_23,93,4091.79,4091.28,4096.92,4094.36,4092.31,4090.77,4090.77,4091.79,4098.46,4104.62,4151.79,4878.46,4097.95,4098.46,0
15_23_23,94,4090.77,4089.74,4096.92,4094.36,4093.85,4090.26,4090.26,4090.77,4098.46,4104.62,4151.79,4877.95,4100,4098.46,0
15_23_23,95,4091.28,4091.79,4096.92,4092.31,4092.31,4090.77,4089.74,4090.77,4098.46,4100,4151.79,4878.46,4096.92,4098.46,0
15_23_23,96,4092.82,4092.82,4096.92,4093.33,4093.33,4092.31,4087.69,4095.38,4098.46,4097.44,4151.79,4878.46,4093.33,4098.46,0
15_23_23,97,4092.82,4092.31,4096.92,4093.33,4095.38,4091.79,4085.64,4097.95,4098.46,4100,4151.79,4877.95,4097.44,4098.46,0
15_23_23,98,4090.26,4089.74,4096.92,4092.82,4091.79,4090.26,4088.72,4095.9,4098.46,4102.56,4151.79,4878.46,4100.51,4098.46,0
15_23_23,99,4094.87,4090.26,4096.92,4096.41,4091.28,4090.26,4091.79,4096.41,4098.46,4102.56,4151.79,4879.49,4097.44,4098.46,0
15_23_23,100,4101.54,4094.87,4096.92,4098.46,4092.82,4090.77,4090.26,4096.92,4098.46,4103.59,4151.79,4878.46,4095.38,4098.46,0
15_23_23,101,4095.9,4094.36,4096.92,4097.44,4091.28,4090.77,4089.23,4092.82,4098.46,4103.59,4151.79,4876.92,4096.92,4098.46,0
15_23_23,102,4088.72,4092.82,4096.92,4094.87,4094.87,4090.26,4089.74,4092.82,4098.46,4102.56,4151.79,4876.92,4097.44,4098.46,0
15_23_23,103,4091.28,4094.87,4096.92,4091.79,4098.97,4091.28,4089.23,4097.95,4098.46,4103.08,4151.79,4876.92,4097.95,4098.46,0
15_23_23,104,4093.85,4095.38,4096.92,4090.26,4092.31,4092.31,4089.74,4095.9,4098.46,4103.08,4151.79,4876.41,4096.92,4098.46,0
15_23_23,105,4091.79,4093.85,4096.92,4092.82,4087.69,4091.79,4090.77,4091.28,4098.46,4102.56,4151.79,4876.92,4096.41,4098.46,0
15_23_23,106,4092.31,4090.26,4097.44,4094.87,4089.74,4091.28,4089.74,4092.31,4098.46,4103.08,4151.79,4877.44,4096.92,4098.46,0
15_23_23,107,4093.33,4090.77,4096.41,4093.85,4088.21,4090.77,4089.74,4094.36,4098.46,4103.08,4151.79,4877.95,4096.92,4098.46,0
15_23_23,108,4094.36,4096.92,4094.87,4093.33,4089.74,4089.74,4092.31,4092.82,4097.95,4103.08,4151.79,4878.97,4096.92,4098.46,0
15_23_23,109,4096.41,4096.92,4091.28,4093.33,4095.9,4090.26,4090.77,4090.77,4099.49,4103.08,4151.79,4878.97,4096.92,4098.46,0
15_23_23,110,4096.41,4089.23,4090.26,4094.36,4094.36,4088.72,4088.21,4092.82,4097.44,4103.08,4151.79,4879.49,4097.44,4098.46,0
15_23_23,111,4092.82,4087.69,4093.85,4094.87,4088.72,4088.21,4088.72,4094.87,4094.87,4103.08,4151.79,4879.49,4096.92,4098.46,0
15_23_23,112,4091.79,4094.36,4094.87,4093.85,4090.26,4092.31,4090.77,4096.41,4096.92,4103.08,4151.79,4877.44,4094.87,4098.46,0
15_23_23,113,4091.79,4094.87,4092.82,4093.33,4093.85,4093.85,4089.23,4095.9,4099.49,4103.08,4151.79,4876.41,4096.92,4098.46,0
15_23_23,114,4090.77,4090.77,4091.28,4093.33,4095.9,4091.28,4087.69,4092.82,4098.46,4103.08,4151.79,4877.44,4094.36,4098.46,0
15_23_23,115,4090.77,4090.26,4091.28,4093.33,4093.85,4091.28,4089.74,4094.36,4098.97,4102.56,4151.79,4878.46,4089.74,4098.46,0
15_23_23,116,4091.79,4091.79,4090.77,4093.33,4089.74,4091.79,4090.77,4097.95,4099.49,4103.08,4151.79,4877.95,4095.9,4098.46,0
15_23_23,117,4090.77,4091.28,4090.77,4093.33,4090.77,4090.26,4091.28,4095.38,4097.44,4103.08,4152.31,4877.44,4101.54,4098.46,0
15_23_23,118,4089.23,4090.26,4091.79,4093.33,4094.87,4089.23,4090.77,4091.79,4097.44,4102.56,4152.82,4878.97,4096.92,4098.46,0
15_23_23,119,4090.26,4089.74,4096.92,4093.33,4092.82,4089.23,4090.77,4093.33,4098.97,4103.08,4152.31,4880.51,4095.9,4098.46,0
15_23_23,120,4092.31,4088.72,4096.92,4093.33,4090.26,4090.77,4089.74,4091.79,4098.46,4104.1,4152.31,4879.49,4099.49,4098.46,0
15_23_23,121,4090.77,4090.26,4090.26,4093.33,4093.33,4092.82,4088.72,4093.33,4098.46,4104.62,4152.82,4878.46,4097.95,4098.46,0
15_23_23,122,4092.31,4092.31,4093.33,4093.33,4094.36,4091.79,4089.74,4097.95,4098.46,4104.1,4152.31,4877.44,4096.92,4098.46,0
15_23_23,123,4094.87,4090.77,4097.44,4093.33,4092.82,4090.77,4091.28,4093.33,4098.46,4104.62,4152.31,4875.38,4096.92,4098.46,0
15_23_23,124,4092.82,4090.26,4093.33,4093.33,4093.33,4090.77,4091.28,4089.23,4098.46,4104.62,4152.31,4876.41,4096.92,4098.46,0
15_23_23,125,4092.82,4091.28,4092.31,4093.33,4093.33,4091.28,4090.77,4091.28,4098.46,4104.1,4152.31,4880,4096.92,4098.46,0
15_23_23,126,4094.87,4089.74,4093.85,4093.33,4094.36,4092.31,4092.82,4091.79,4098.46,4104.62,4152.31,4880,4096.92,4098.46,0
15_23_23,127,4090.26,4088.72,4092.31,4093.33,4092.31,4091.79,4093.33,4092.31,4097.95,4104.1,4152.31,4877.95,4096.92,4098.46,0
15_23_23,128,4089.74,4092.31,4095.9,4093.33,4091.28,4089.74,4091.28,4093.85,4097.95,4104.62,4152.31,4877.95,4096.92,4098.46,0
15_23_23,0,4095.9,4093.33,4099.49,4093.33,4092.31,4089.74,4090.77,4094.36,4097.95,4104.1,4152.31,4877.95,4096.92,4098.46,0
15_23_23,1,4094.36,4088.21,4097.44,4093.33,4090.77,4091.79,4091.79,4094.36,4098.46,4104.62,4152.31,4877.95,4096.92,4098.46,0
15_23_23,2,4092.82,4089.74,4098.46,4093.33,4090.26,4091.79,4091.79,4093.33,4098.46,4104.62,4152.31,4878.46,4096.92,4098.46,0
15_23_23,3,4096.92,4094.87,4096.41,4093.33,4092.31,4089.74,4090.77,4093.33,4098.46,4104.62,4152.31,4878.97,4096.92,4098.46,0
15_23_23,4,4094.36,4093.85,4092.31,4093.33,4092.31,4090.26,4091.79,4095.9,4098.46,4104.62,4152.31,4878.97,4096.92,4098.46,0
15_23_23,5,4090.77,4093.33,4095.9,4093.33,4092.82,4093.33,4091.79,4095.38,4098.46,4104.62,4152.31,4879.49,4096.92,4098.46,0
15_23_23,6,4091.28,4093.85,4099.49,4093.33,4094.36,4091.79,4088.21,4092.31,4098.46,4104.62,4152.31,4880,4096.92,4098.46,0
15_23_23,7,4092.31,4091.28,4097.95,4093.33,4092.31,4089.74,4088.21,4092.31,4098.46,4104.1,4152.31,4878.97,4096.92,4098.46,0
15_23_23,8,4096.41,4091.79,4095.9,4093.85,4090.77,4092.82,4089.74,4092.31,4098.46,4104.62,4152.31,4878.97,4096.92,4098.46,0
15_23_23,9,4097.44,4095.9,4094.87,4091.79,4091.79,4094.36,4088.72,4090.77,4098.46,4104.1,4152.31,4880,4096.92,4098.46,0
15_23_23,10,4091.28,4094.36,4091.79,4092.31,4090.77,4090.26,4089.23,4093.33,4098.46,4104.62,4152.31,4878.46,4096.92,4098.46,0
15_23_23,11,4089.23,4090.26,4090.26,4094.36,4091.79,4089.23,4092.31,4096.41,4098.46,4104.1,4152.31,4875.9,4096.92,4098.46,0
15_23_23,12,4092.31,4091.28,4092.82,4092.82,4091.79,4090.26,4090.26,4096.41,4098.46,4104.62,4152.31,4877.95,4096.92,4098.46,0
15_23_23,13,4093.85,4094.87,4094.36,4091.79,4090.26,4089.23,4087.69,4093.85,4098.46,4104.1,4152.31,4880,4096.92,4098.46,0
15_23_23,14,4094.36,4094.87,4093.33,4093.33,4090.77,4090.26,4088.72,4090.77,4098.46,4104.62,4152.31,4878.46,4096.92,4098.46,0
15_23_23,15,4093.33,4093.85,4093.33,4094.87,4091.79,4090.77,4089.74,4093.33,4098.46,4104.1,4152.31,4877.95,4096.41,4098.46,0
15_23_23,16,4091.79,4093.33,4093.85,4094.36,4090.26,4090.26,4090.26,4095.38,4098.46,4104.62,4152.31,4879.49,4097.95,4098.46,0
15_23_23,17,4091.28,4094.36,4094.87,4093.85,4091.79,4090.26,4091.79,4093.85,4098.46,4104.62,4152.31,4878.46,4098.97,4098.46,0
15_23_23,18,4093.33,4096.92,4097.95,4093.33,4094.36,4089.74,4090.26,4093.33,4098.46,4104.62,4152.31,4877.95,4097.95,4098.46,0
15_23_23,19,4095.38,4093.33,4098.46,4093.33,4092.31,4091.28,4087.69,4094.36,4098.46,4104.62,4152.31,4878.46,4098.97,4098.46,0
15_23_23,20,4092.82,4086.67,4093.33,4093.33,4091.79,4091.79,4089.23,4092.82,4098.46,4104.62,4152.31,4877.95,4100,4098.46,0
15_23_23,21,4093.85,4087.18,4092.82,4092.82,4094.87,4089.23,4090.77,4089.74,4098.46,4104.62,4152.31,4878.46,4098.97,4098.46,0
15_23_23,22,4096.92,4089.74,4093.85,4094.36,4093.33,4089.23,4088.72,4091.79,4098.46,4104.1,4152.31,4878.46,4098.46,4098.46,0
15_23_23,23,4090.26,4089.23,4090.77,4092.82,4086.15,4091.79,4088.72,4096.92,4098.46,4104.62,4152.31,4877.44,4098.46,4098.46,0
15_23_23,24,4085.64,4090.77,4091.79,4090.26,4087.69,4090.77,4092.82,4095.38,4098.46,4104.1,4152.31,4877.44,4097.44,4098.46,0
15_23_23,25,4091.28,4094.36,4097.44,4091.79,4097.44,4089.74,4093.85,4090.77,4098.46,4104.62,4152.31,4879.49,4096.92,4098.46,0
15_23_23,26,4093.33,4092.82,4098.97,4094.87,4096.92,4089.74,4089.23,4093.33,4098.46,4104.1,4152.31,4879.49,4097.95,4098.46,0
15_23_23,27,4090.26,4089.74,4096.92,4093.85,4088.21,4089.74,4088.72,4095.9,4098.46,4104.62,4152.31,4876.41,4097.95,4098.46,0
15_23_23,28,4092.82,4088.72,4093.85,4092.82,4088.21,4091.28,4091.28,4093.85,4098.46,4104.1,4152.31,4876.92,4097.44,4098.46,0
15_23_23,29,4096.41,4091.79,4092.31,4094.36,4093.33,4090.26,4090.26,4095.9,4098.46,4104.62,4152.31,4878.46,4097.95,4098.46,0
15_23_23,30,4094.87,4095.9,4094.36,4094.87,4093.33,4088.21,4087.69,4100,4098.46,4104.1,4152.31,4877.95,4097.95,4098.46,0
15_23_23,31,4091.28,4093.85,4097.95,4093.33,4093.85,4090.26,4088.72,4097.44,4098.46,4104.62,4152.31,4877.95,4097.95,4098.46,0
15_23_23,32,4089.23,4088.72,4096.41,4093.33,4094.36,4092.82,4089.74,4096.92,4098.46,4104.62,4152.31,4880,4097.95,4098.46,0
15_23_23,33,4093.33,4088.72,4092.82,4093.85,4089.23,4090.77,4089.74,4097.95,4098.46,4104.62,4152.31,4878.97,4097.95,4098.46,0
15_23_23,34,4096.41,4090.77,4091.79,4089.74,4088.21,4088.72,4090.26,4097.95,4098.46,4104.62,4152.31,4876.92,4097.95,4098.46,0
15_23_23,35,4096.41,4089.23,4093.85,4088.21,4092.82,4090.26,4091.28,4098.46,4098.46,4104.62,4152.31,4877.44,4097.95,4098.46,0
15_23_23,36,4098.97,4089.23,4094.87,4095.9,4091.79,4091.28,4090.77,4096.92,4098.46,4104.62,4152.31,4878.97,4097.95,4098.46,0
15_23_23,37,4097.44,4093.85,4092.31,4100.51,4088.21,4090.77,4090.77,4094.36,4098.46,4104.1,4152.31,4877.95,4097.95,4098.46,0
15_23_23,38,4090.77,4093.85,4093.33,4097.44,4089.23,4090.77,4090.26,4092.82,4098.46,4104.62,4152.31,4877.95,4097.95,4098.46,0
15_23_23,39,4087.18,4091.79,4096.92,4095.9,4089.74,4091.79,4088.21,4091.79,4098.46,4104.1,4152.31,4879.49,4097.95,4098.46,0
15_23_23,40,4090.26,4092.82,4097.95,4098.97,4090.26,4091.28,4087.69,4090.26,4098.46,4104.62,4152.31,4878.46,4097.95,4098.46,0
15_23_24,41,4091.28,4092.82,4097.44,4098.46,4093.85,4091.28,4089.23,4093.85,4098.46,4104.1,4152.31,4876.41,4097.44,4098.46,0
15_23_24,42,4092.31,4091.79,4098.46,4092.31,4094.87,4091.79,4088.72,4097.44,4098.46,4104.62,4152.31,4877.44,4097.44,4098.46,0
15_23_24,43,4093.85,4091.79,4098.97,4090.77,4092.31,4089.74,4088.72,4092.31,4098.46,4104.1,4152.31,4879.49,4098.97,4098.46,0
15_23_24,44,4091.28,4089.23,4098.46,4095.38,4094.36,4089.23,4089.74,4088.72,4098.46,4104.62,4152.31,4878.97,4095.38,4098.46,0
15_23_24,45,4089.74,4089.74,4098.46,4095.9,4093.85,4091.79,4089.23,4093.33,4098.46,4104.1,4152.31,4877.95,4092.82,4098.46,0
15_23_24,46,4091.79,4091.79,4098.46,4092.31,4087.69,4090.77,4090.26,4096.41,4098.46,4104.62,4152.31,4877.44,4095.38,4098.46,0
15_23_24,47,4092.82,4089.23,4098.46,4093.33,4089.23,4091.28,4092.31,4092.31,4098.46,4104.62,4152.31,4876.92,4094.87,4098.46,0
15_23_24,48,4093.33,4089.74,4098.46,4093.85,4094.87,4092.82,4089.74,4090.26,4098.97,4104.62,4152.31,4878.46,4094.87,4098.46,0
15_23_24,49,4094.87,4093.33,4098.97,4092.82,4093.85,4091.28,4086.67,4093.33,4099.49,4104.62,4152.31,4879.49,4099.49,4098.46,0
15_23_24,50,4098.97,4093.85,4098.46,4093.33,4092.82,4090.77,4090.26,4095.38,4098.97,4104.62,4152.31,4878.46,4101.03,4098.46,0
15_23_24,51,4098.97,4092.31,4098.46,4093.33,4094.36,4093.33,4092.82,4094.36,4097.95,4104.62,4152.31,4877.95,4098.97,4098.46,0
15_23_24,52,4092.31,4092.82,4099.49,4092.82,4093.85,4091.79,4089.23,4091.79,4096.92,4104.1,4152.31,4878.46,4100.51,4098.97,0
15_23_24,53,4089.23,4092.82,4097.44,4094.87,4092.82,4088.72,4088.72,4091.28,4097.95,4104.62,4152.31,4878.46,4100,4097.95,0
15_23_24,54,4094.87,4091.28,4092.31,4098.46,4093.33,4089.23,4090.77,4093.33,4098.46,4104.1,4152.31,4878.46,4098.97,4097.44,0
15_23_24,55,4097.44,4091.79,4092.31,4097.44,4093.33,4090.77,4089.23,4095.38,4098.46,4104.62,4152.31,4879.49,4100,4099.49,0
15_23_24,56,4090.77,4092.82,4095.9,4093.33,4093.33,4091.79,4087.69,4095.9,4098.46,4104.1,4152.31,4879.49,4096.41,4100,0
15_23_24,57,4089.23,4090.77,4095.38,4092.82,4092.82,4091.79,4089.74,4092.31,4098.46,4104.62,4152.31,4878.46,4093.85,4098.46,0
15_23_24,58,4095.9,4089.74,4093.33,4093.85,4093.33,4093.85,4089.74,4088.72,4098.46,4104.1,4152.31,4878.46,4096.92,4098.46,0
15_23_24,59,4095.38,4092.31,4092.82,4094.36,4093.85,4097.95,4088.72,4093.85,4098.46,4104.62,4152.31,4879.49,4096.92,4098.97,0
15_23_24,60,4089.74,4092.31,4091.79,4094.36,4091.28,4094.87,4091.28,4097.95,4098.46,4104.1,4152.31,4878.46,4092.82,4098.46,0
15_23_24,61,4092.31,4091.28,4093.33,4093.85,4090.26,4088.21,4089.23,4094.36,4098.46,4104.62,4152.31,4877.44,4090.26,4098.46,0
15_23_24,62,4097.95,4093.33,4095.9,4093.33,4093.33,4089.74,4086.67,4092.82,4098.46,4104.62,4152.31,4879.49,4092.82,4098.46,0
15_23_24,63,4093.33,4094.87,4092.31,4092.82,4094.87,4092.82,4091.79,4097.95,4098.46,4104.62,4152.31,4880,4096.41,4098.46,0
15_23_24,64,4089.74,4094.36,4089.23,4094.36,4092.82,4091.79,4092.82,4095.9,4098.46,4104.62,4152.31,4878.97,4096.41,4098.46,0
15_23_24,65,4093.33,4093.33,4093.33,4092.82,4092.82,4091.28,4086.67,4089.74,4098.46,4104.62,4152.31,4878.46,4095.38,4098.46,0
15_23_24,66,4093.33,4093.85,4094.87,4090.26,4091.79,4092.31,4087.69,4093.85,4098.46,4104.62,4152.31,4877.44,4095.38,4098.46,0
15_23_24,67,4091.79,4093.33,4092.82,4092.31,4091.28,4092.82,4091.79,4096.92,4098.46,4104.1,4152.31,4877.44,4097.44,4098.46,0
15_23_24,68,4091.79,4090.77,4092.82,4093.85,4092.31,4092.82,4090.77,4091.79,4098.46,4104.62,4152.31,4878.46,4097.44,4098.46,0
15_23_24,69,4090.77,4089.74,4094.87,4090.77,4090.77,4091.28,4090.77,4089.74,4098.46,4104.1,4152.31,4879.49,4096.41,4098.46,0
15_23_24,70,4092.31,4091.28,4093.33,4092.31,4089.74,4089.23,4091.79,4092.82,4098.46,4104.62,4152.31,4879.49,4096.92,4098.46,0
15_23_24,71,4094.87,4092.82,4091.79,4094.36,4089.74,4090.26,4090.77,4094.87,4098.46,4104.1,4152.31,4878.46,4097.44,4098.46,0
15_23_24,72,4092.31,4093.85,4094.87,4091.28,4089.74,4091.79,4090.26,4094.87,4098.46,4104.62,4152.31,4877.95,4097.95,4098.46,0
15_23_24,73,4088.72,4094.87,4097.95,4089.23,4091.79,4092.31,4090.77,4092.82,4098.46,4104.1,4152.31,4877.95,4097.44,4098.46,0
15_23_24,74,4089.74,4091.79,4094.36,4090.26,4093.33,4092.31,4089.74,4093.33,4097.95,4104.62,4152.31,4877.44,4095.9,4098.46,0
15_23_24,75,4090.77,4090.77,4090.77,4091.28,4090.77,4089.74,4088.72,4100,4098.46,4104.1,4152.82,4877.44,4094.87,4098.46,0
15_23_24,76,4090.26,4091.28,4091.79,4092.82,4087.69,4088.21,4088.72,4096.41,4098.46,4104.62,4152.82,4878.97,4097.44,4098.46,0
15_23_24,77,4087.18,4088.21,4088.72,4092.31,4087.69,4088.72,4089.23,4087.18,4096.41,4104.62,4152.31,4877.44,4099.49,4096.92,0
15_23_24,78,4088.21,4090.26,4091.28,4091.28,4091.28,4090.26,4089.74,4093.33,4097.44,4104.62,4151.28,4874.36,4098.97,4098.46,0
15_23_24,79,4097.95,4097.44,4101.03,4092.82,4095.38,4091.79,4091.28,4095.38,4098.46,4103.59,4153.33,4877.44,4097.44,4101.54,0
15_23_24,80,4098.46,4094.87,4094.36,4094.87,4093.85,4088.72,4089.23,4089.23,4100,4104.62,4154.36,4884.1,4095.9,4096.92,0
15_23_24,81,4111.79,4105.13,4115.9,4104.62,4099.49,4103.08,4103.59,4112.82,4107.69,4108.72,4144.62,4878.46,4105.64,4101.54,0
15_23_24,82,4161.54,4143.59,4178.97,4124.62,4125.13,4135.38,4142.05,4133.85,4106.15,4110.77,4153.85,4886.67,4119.49,4132.82,0
15_23_24,83,4163.08,4141.54,4166.67,4124.1,4130.26,4128.72,4139.49,4100,4086.67,4089.23,4174.87,4921.54,4114.36,4133.85,0
15_23_24,84,4089.74,4084.62,4083.59,4096.92,4098.46,4086.67,4087.69,4076.41,4094.87,4091.79,4156.92,4907.69,4095.9,4089.23,0
15_23_24,85,4051.79,4061.03,4073.85,4074.36,4076.92,4073.33,4064.1,4106.15,4116.92,4130.26,4139.49,4840.51,4091.28,4081.03,0
15_23_24,86,4080,4081.03,4108.21,4070.77,4081.03,4080.51,4077.95,4106.15,4074.36,4040,4142.05,4823.08,4117.95,4098.97,0
15_23_24,87,4110.26,4089.74,4110.77,4082.56,4088.21,4084.1,4086.15,4069.74,4036.92,3918.97,4131.79,4868.21,4117.95,4058.97,0
15_23_24,88,4123.59,4089.23,4142.56,4089.74,4096.41,4099.49,4092.82,4049.23,4091.28,4047.69,4128.21,4863.08,4036.92,3974.87,0
15_23_24,89,4108.72,4091.28,4161.54,4090.26,4095.9,4100.51,4093.85,4020.51,4088.21,4249.74,4134.36,4821.54,3992.31,3997.44,0
15_23_24,90,4064.1,4074.36,4074.36,4092.31,4080.51,4073.85,4074.87,4011.28,4017.95,4208.21,4164.62,4871.79,4034.36,4049.23,0
15_23_24,91,4061.54,4066.15,4033.33,4093.85,4077.44,4073.33,4072.31,4043.08,4044.62,4092.31,4275.9,4960.51,4003.59,3921.03,0
15_23_24,92,4094.87,4082.05,4123.59,4085.13,4091.28,4092.82,4088.72,4042.05,4062.05,4135.38,4320.51,4929.74,3947.18,3856.92,0
15_23_24,93,4079.49,4080,4158.46,4081.54,4089.23,4086.15,4080,3994.87,3976.92,4231.79,4199.49,4848.72,4014.36,4021.54,0
15_23_24,94,4035.9,4059.49,4076.92,4088.72,4071.79,4069.23,4056.41,3977.95,3964.62,4238.97,4131.28,4869.23,4086.15,4114.36,0
15_23_24,95,4027.18,4054.87,4034.87,4086.15,4067.18,4068.72,4054.36,4001.03,4043.08,4156.92,4175.9,4908.21,4062.05,4046.15,0
15_23_24,96,4032.82,4064.1,4066.67,4079.49,4081.54,4075.38,4066.15,4027.69,4070.26,4124.62,4176.41,4869.74,4043.59,4039.49,0
15_23_24,97,4036.41,4070.77,4079.49,4081.03,4098.46,4082.05,4064.62,4061.54,4082.05,4162.05,4121.54,4830.26,4077.44,4108.72,0
15_23_24,98,4068.72,4081.03,4058.97,4086.15,4103.59,4090.77,4066.67,4091.28,4140.51,4136.41,4109.23,4854.87,4102.05,4116.41,0
15_23_24,99,4106.15,4091.28,4063.59,4094.36,4105.64,4095.9,4084.1,4085.13,4162.56,4074.36,4125.13,4876.41,4102.56,4110.77,0
15_23_24,100,4108.72,4107.18,4109.74,4117.44,4114.36,4103.59,4105.64,4100,4082.05,4080.51,4073.85,4845.13,4150.26,4226.67,0
15_23_24,101,4105.13,4131.79,4129.74,4137.44,4125.64,4126.15,4129.23,4172.82,4085.13,4097.95,4000.51,4841.54,4212.82,4346.67,0
15_23_24,102,4109.23,4131.28,4092.31,4127.69,4127.18,4135.9,4131.79,4209.74,4276.92,4023.08,4032.82,4880.51,4188.72,4260,0
15_23_24,103,4104.1,4104.1,4060,4112.82,4115.9,4114.87,4107.18,4169.74,4318.97,3943.59,4121.54,4887.18,4141.03,4136.41,0
15_23_24,104,4104.1,4092.82,4073.85,4109.74,4105.64,4100,4089.23,4138.97,4118.97,3988.21,4145.64,4868.72,4140,4157.44,0
15_23_24,105,4110.77,4102.56,4110.77,4101.54,4102.56,4105.64,4095.9,4132.31,4040,4091.28,4157.44,4869.23,4105.64,4141.54,0
15_23_24,106,4103.08,4100.51,4122.05,4090.77,4103.08,4104.1,4100.51,4098.46,4121.54,4123.59,4172.82,4880.51,4065.64,4072.31,0
15_23_24,107,4091.79,4094.36,4101.03,4091.79,4104.62,4097.44,4095.38,4074.36,4124.62,4108.21,4154.36,4887.69,4085.64,4077.44,0
15_23_24,108,4097.44,4094.87,4091.28,4095.38,4103.08,4100.51,4092.82,4091.79,4076.41,4108.72,4148.72,4878.97,4094.36,4092.82,0
15_23_24,109,4098.97,4094.87,4104.1,4097.44,4099.49,4100.51,4090.77,4111.28,4081.03,4102.56,4155.9,4863.08,4088.72,4097.44,0
15_23_24,110,4090.77,4094.87,4101.54,4097.95,4097.95,4095.9,4092.82,4101.54,4102.05,4100,4152.82,4875.9,4097.44,4108.72,0
15_23_24,111,4089.74,4097.95,4096.92,4095.9,4099.49,4096.41,4101.54,4084.1,4110.26,4105.64,4152.31,4885.64,4094.36,4102.56,0
15_23_24,112,4094.36,4098.97,4106.67,4097.44,4098.46,4097.95,4098.46,4092.31,4093.85,4100.51,4152.31,4869.23,4096.41,4103.08,0
15_23_24,113,4095.9,4096.92,4102.05,4098.97,4097.44,4097.95,4086.15,4107.18,4085.13,4096.92,4151.28,4871.79,4102.56,4107.18,0
15_23_24,114,4089.23,4097.44,4087.18,4096.92,4097.95,4096.92,4086.67,4105.64,4098.97,4098.97,4152.82,4884.62,4098.97,4106.15,0
15_23_24,115,4086.67,4098.46,4090.26,4096.41,4096.92,4097.95,4095.38,4095.38,4101.03,4100,4152.82,4878.97,4095.9,4103.59,0
15_23_24,116,4097.44,4098.46,4106.15,4097.95,4097.95,4098.46,4092.82,4088.21,4094.87,4098.46,4152.31,4868.72,4100,4101.54,0
15_23_24,117,4103.08,4098.46,4103.59,4096.92,4098.97,4094.36,4088.21,4092.31,4095.9,4099.49,4152.31,4873.33,4097.44,4103.59,0
15_23_24,118,4092.82,4099.49,4085.64,4093.85,4094.87,4089.74,4090.77,4098.46,4099.49,4103.59,4152.82,4886.15,4096.92,4104.1,0
15_23_24,119,4087.18,4096.92,4089.23,4092.82,4090.77,4093.33,4094.36,4095.9,4097.95,4105.13,4152.31,4878.97,4099.49,4102.56,0
15_23_24,120,4101.54,4090.77,4106.15,4093.85,4092.31,4098.46,4093.85,4087.69,4093.33,4103.59,4152.31,4867.69,4097.95,4102.56,0
15_23_24,121,4109.23,4092.31,4101.03,4094.36,4092.31,4093.33,4089.23,4089.23,4093.33,4103.08,4152.31,4878.46,4098.46,4103.08,0
15_23_24,122,4097.44,4097.95,4088.72,4094.36,4091.79,4090.26,4090.77,4096.92,4094.87,4105.13,4152.31,4886.67,4098.46,4102.56,0
15_23_24,123,4087.18,4095.9,4096.41,4093.85,4096.41,4093.33,4094.87,4095.38,4094.87,4104.62,4152.31,4873.85,4097.44,4102.56,0
15_23_24,124,4090.26,4090.26,4101.54,4093.33,4099.49,4092.82,4092.31,4089.23,4093.33,4104.1,4152.31,4869.74,4097.44,4102.56,0
15_23_24,125,4093.33,4091.79,4093.85,4092.82,4093.33,4092.82,4089.23,4089.23,4092.82,4104.62,4152.31,4883.59,4098.46,4102.56,0
15_23_24,126,4090.26,4097.95,4093.85,4093.85,4088.21,4095.9,4091.79,4090.77,4096.92,4105.13,4151.79,4882.56,4098.97,4102.56,0
15_23_24,127,4090.26,4099.49,4100.51,4093.33,4090.26,4094.36,4092.82,4089.23,4097.44,4104.62,4151.79,4871.28,4098.46,4102.56,0
15_23_24,128,4093.85,4097.44,4098.97,4093.33,4091.28,4092.82,4089.74,4086.15,4096.41,4106.15,4153.85,4876.41,4098.97,4103.59,0
15_23_24,0,4097.95,4096.92,4096.92,4095.9,4092.31,4095.9,4093.85,4062.56,4097.44,4107.69,4152.82,4887.69,4098.46,4105.13,0
15_23_24,1,4102.05,4097.95,4102.05,4098.46,4094.36,4098.46,4101.54,4053.85,4083.59,4101.03,4153.33,4881.54,4096.92,4104.1,0
15_23_24,2,4101.03,4097.95,4108.72,4100,4093.85,4097.44,4098.97,4084.62,4062.56,4088.72,4161.54,4868.21,4098.46,4104.62,0
15_23_24,3,4095.38,4097.44,4105.64,4095.9,4093.85,4091.28,4089.74,4111.28,4060,4088.21,4167.18,4877.44,4098.97,4105.13,0
15_23_24,4,4097.44,4098.46,4103.59,4090.26,4094.36,4087.69,4089.74,4107.69,4062.56,4074.87,4155.9,4881.54,4097.44,4097.95,0
15_23_24,5,4105.13,4097.44,4113.85,4091.28,4091.79,4092.82,4092.82,4119.49,4051.28,4028.72,4133.85,4852.82,4103.08,4084.1,0
15_23_24,6,4102.05,4097.95,4114.36,4093.33,4091.79,4093.33,4088.72,4137.95,4052.82,4020.51,4127.18,4846.15,4102.56,4076.41,0
15_23_24,7,4093.33,4098.97,4103.08,4089.23,4093.85,4088.72,4087.69,4127.69,4070.77,4070.77,4134.87,4872.82,4096.92,4092.31,0
15_23_24,8,4092.82,4093.85,4102.05,4089.23,4092.31,4088.72,4090.77,4123.08,4071.28,4101.03,4149.23,4881.03,4085.64,4097.95,0
15_23_24,9,4095.38,4088.72,4107.69,4095.38,4090.26,4089.23,4091.79,4130.26,4065.13,4103.08,4184.1,4880,4054.87,4047.69,0
15_23_24,10,4093.85,4091.79,4105.13,4095.9,4088.21,4089.74,4090.77,4120,4073.33,4117.44,4226.67,4900,4026.15,3995.9,0
15_23_24,11,4091.79,4095.9,4106.67,4093.85,4089.23,4091.28,4090.77,4097.95,4081.54,4125.13,4247.18,4909.23,4028.21,4002.56,0
15_23_24,12,4091.79,4093.33,4105.13,4095.38,4093.33,4089.74,4091.28,4090.77,4086.15,4112.82,4224.62,4896.41,4048.21,4036.92,0
15_23_24,13,4091.79,4093.33,4090.77,4094.87,4090.77,4089.23,4091.79,4090.77,4092.31,4101.54,4167.69,4886.67,4082.56,4083.08,0
15_23_24,14,4090.77,4097.95,4094.87,4094.87,4086.67,4089.74,4091.79,4084.62,4099.49,4094.36,4128.72,4874.36,4111.28,4121.54,0
15_23_24,15,4089.23,4098.46,4103.59,4094.87,4088.72,4088.72,4090.26,4078.46,4108.72,4105.13,4130.77,4867.18,4100,4106.15,0
15_23_24,16,4090.77,4098.46,4087.69,4094.36,4090.77,4090.77,4091.79,4065.13,4127.69,4127.18,4123.08,4875.38,4085.13,4086.67,0
15_23_24,17,4086.15,4097.95,4076.41,4095.38,4090.26,4094.36,4093.33,4049.74,4135.38,4128.21,4093.85,4873.85,4108.21,4128.72,0
15_23_24,18,4080.51,4097.44,4085.64,4096.41,4091.28,4092.82,4091.28,4057.95,4098.46,4113.85,4081.03,4855.38,4147.69,4202.56,0
15_23_24,19,4084.62,4101.03,4083.08,4100.51,4090.77,4095.38,4093.33,4056.41,4091.28,4125.13,4085.64,4858.46,4153.85,4231.28,0
15_23_24,20,4079.49,4104.62,4056.41,4105.13,4093.33,4101.54,4100.51,4028.21,4175.9,4155.38,4090.77,4898.97,4131.79,4185.13,0
15_23_24,21,4068.21,4099.49,4041.03,4099.49,4096.41,4100.51,4099.49,4016.92,4221.03,4140,4110.77,4914.36,4131.28,4139.49,0
15_23_24,22,4085.64,4093.33,4069.74,4095.38,4093.85,4094.36,4090.77,4037.95,4131.28,4091.28,4160,4883.59,4133.33,4137.95,0
15_23_24,23,4115.9,4088.72,4118.46,4095.9,4092.82,4090.26,4089.23,4055.9,4048.21,4082.56,4196.41,4868.72,4096.41,4120.51,0
15_23_24,24,4106.15,4088.21,4128.21,4090.26,4091.28,4089.74,4092.31,4062.05,4084.1,4109.23,4172.31,4877.44,4071.28,4080.51,0
15_23_24,25,4079.49,4091.79,4096.41,4087.18,4088.72,4093.33,4091.28,4071.28,4133.85,4117.95,4129.23,4881.54,4094.87,4076.92,0
15_23_24,26,4087.69,4092.31,4075.38,4096.41,4089.23,4096.41,4089.23,4087.69,4111.79,4104.1,4133.85,4886.67,4112.82,4088.72,0
15_23_24,27,4103.08,4081.03,4084.62,4095.9,4085.13,4087.69,4087.18,4104.62,4077.44,4093.85,4155.9,4881.03,4104.62,4094.36,0
15_23_24,28,4088.72,4069.74,4100,4077.44,4078.97,4068.72,4083.59,4105.13,4094.36,4097.95,4156.92,4872.31,4096.41,4106.67,0
15_23_24,29,4078.97,4076.92,4097.95,4074.87,4084.1,4067.69,4087.18,4089.23,4120.51,4109.74,4152.82,4894.36,4097.95,4107.69,0
15_23_24,30,4096.41,4091.79,4094.36,4088.21,4091.79,4086.15,4090.77,4088.21,4105.13,4107.18,4152.31,4900,4105.64,4103.59,0
15_23_24,31,4105.64,4095.38,4106.67,4094.36,4091.79,4093.33,4090.26,4096.92,4085.13,4097.95,4152.82,4865.13,4104.1,4103.08,0
15_23_24,32,4088.21,4089.74,4101.03,4090.77,4089.23,4085.13,4090.26,4102.05,4093.85,4101.54,4153.33,4869.74,4097.95,4103.59,0
15_23_24,33,4074.36,4093.85,4083.08,4091.79,4089.74,4088.21,4093.33,4096.92,4107.18,4109.23,4153.33,4902.05,4095.9,4097.95,0
15_23_24,34,4085.13,4097.44,4095.38,4095.38,4089.74,4099.49,4094.36,4091.28,4102.05,4106.67,4150.77,4880,4100,4089.74,0
15_23_24,35,4099.49,4088.72,4109.74,4089.23,4088.21,4091.28,4087.69,4089.74,4088.72,4098.46,4148.21,4853.33,4103.08,4097.44,0
15_23_25,36,4091.79,4080.51,4089.23,4079.49,4085.64,4080,4079.49,4090.77,4094.36,4097.44,4151.79,4883.08,4093.33,4108.72,0
15_23_25,37,4085.13,4085.13,4081.03,4081.03,4087.69,4085.64,4080,4093.85,4108.21,4102.05,4154.87,4899.49,4090.77,4102.05,0
15_23_25,38,4102.56,4091.79,4108.21,4090.26,4091.28,4091.28,4085.64,4091.28,4103.59,4102.05,4152.31,4860.51,4103.08,4096.92,0
15_23_25,39,4110.26,4089.23,4117.44,4089.23,4092.31,4085.13,4085.13,4092.31,4090.26,4101.03,4149.74,4845.64,4104.1,4105.13,0
15_23_25,40,4089.74,4086.67,4090.77,4085.13,4092.82,4085.13,4084.1,4100,4092.31,4101.54,4153.33,4887.69,4096.41,4105.64,0
15_23_25,41,4083.59,4088.72,4079.49,4089.23,4094.36,4092.82,4088.21,4101.03,4105.64,4102.05,4153.33,4900.51,4098.46,4099.49,0
15_23_25,42,4101.03,4092.31,4101.54,4093.33,4094.87,4093.85,4092.31,4092.82,4107.18,4101.54,4144.62,4865.64,4100.51,4100.51,0
15_23_25,43,4105.64,4092.82,4105.64,4091.79,4093.85,4092.82,4089.23,4092.82,4096.41,4101.54,4143.08,4863.08,4097.44,4103.59,0
15_23_25,44,4096.41,4091.28,4084.62,4088.72,4094.36,4091.79,4085.64,4099.49,4091.28,4101.54,4153.85,4896.41,4097.95,4104.62,0
15_23_25,45,4096.92,4097.44,4091.28,4091.79,4096.92,4090.77,4088.21,4098.46,4094.87,4101.54,4157.44,4890.26,4097.44,4104.62,0
15_23_25,46,4097.95,4100.51,4111.28,4097.44,4094.87,4095.38,4090.26,4094.87,4096.92,4101.54,4151.79,4864.62,4097.44,4103.08,0
15_23_25,47,4092.31,4095.9,4098.97,4102.56,4095.38,4100.51,4091.79,4095.38,4095.9,4101.54,4150.77,4877.44,4098.46,4101.03,0
15_23_25,48,4090.26,4093.85,4079.49,4098.97,4089.74,4097.95,4090.77,4097.44,4097.44,4101.54,4152.31,4892.82,4099.49,4102.56,0
15_23_25,49,4087.69,4094.87,4084.1,4086.67,4073.33,4089.74,4086.15,4104.1,4098.46,4101.54,4151.28,4878.97,4101.54,4105.13,0
15_23_25,50,4086.15,4091.79,4093.85,4088.21,4079.49,4090.26,4091.28,4105.64,4097.44,4101.54,4151.79,4874.87,4098.46,4103.59,0
15_23_25,51,4091.28,4092.31,4090.77,4095.9,4092.82,4095.38,4096.92,4095.9,4096.41,4101.54,4150.77,4885.64,4098.97,4101.03,0
15_23_25,52,4095.38,4094.36,4093.85,4096.92,4093.33,4095.38,4094.87,4093.85,4097.44,4101.54,4149.74,4876.92,4100,4101.54,0
15_23_25,53,4092.82,4092.82,4098.46,4095.38,4090.77,4093.85,4094.87,4101.03,4096.92,4101.54,4151.79,4872.82,4097.44,4103.08,0
15_23_25,54,4098.97,4094.87,4095.9,4099.49,4098.97,4093.85,4097.95,4099.49,4093.85,4101.54,4154.87,4887.18,4093.85,4102.05,0
15_23_25,55,4102.56,4095.9,4087.69,4095.9,4091.79,4091.79,4093.85,4097.95,4093.85,4101.54,4154.87,4887.18,4093.85,4103.08,0
15_23_25,56,4093.85,4092.82,4084.1,4092.31,4079.49,4090.26,4092.31,4103.59,4096.92,4101.54,4151.79,4879.49,4095.38,4104.1,0
15_23_25,57,4089.74,4094.36,4091.79,4096.92,4086.15,4092.31,4093.85,4100,4095.9,4101.54,4151.28,4882.05,4096.92,4102.05,0
15_23_25,58,4095.38,4093.33,4108.72,4098.46,4105.13,4093.33,4094.36,4092.31,4092.82,4101.54,4151.79,4878.97,4098.46,4095.9,0
15_23_25,59,4095.38,4084.62,4115.9,4093.85,4115.9,4091.28,4096.92,4093.85,4093.85,4101.54,4150.77,4871.79,4093.85,4092.31,0
15_23_25,60,4094.87,4081.54,4105.13,4091.79,4107.69,4087.18,4092.82,4095.38,4096.92,4101.54,4150.77,4875.38,4092.82,4096.92,0
15_23_25,61,4098.46,4084.62,4105.64,4092.82,4105.64,4084.62,4089.23,4089.74,4094.87,4101.54,4153.85,4875.38,4092.82,4101.03,0
15_23_25,62,4096.92,4083.08,4116.92,4093.85,4119.49,4087.69,4092.82,4086.67,4091.79,4101.54,4154.36,4868.72,4088.21,4099.49,0
15_23_25,63,4093.33,4081.03,4111.28,4094.87,4123.08,4088.21,4090.26,4089.74,4093.33,4102.05,4152.82,4872.82,4086.15,4093.33,0
15_23_25,64,4092.31,4082.56,4089.74,4093.33,4102.56,4087.69,4085.13,4092.82,4094.87,4102.05,4151.79,4876.92,4091.79,4092.31,0
15_23_25,65,4088.72,4082.05,4075.9,4088.21,4080,4090.26,4086.67,4093.85,4093.85,4101.54,4151.28,4872.82,4095.38,4101.54,0
15_23_25,66,4086.67,4089.23,4077.44,4085.64,4074.36,4091.79,4087.69,4095.9,4094.87,4102.05,4151.28,4876.41,4092.82,4107.69,0
15_23_25,67,4086.15,4097.95,4077.95,4086.67,4068.72,4089.23,4083.08,4098.97,4094.87,4102.56,4152.31,4885.13,4094.87,4103.08,0
15_23_25,68,4084.1,4098.97,4072.82,4087.18,4063.08,4087.69,4084.62,4100,4094.36,4099.49,4151.79,4882.56,4103.59,4101.54,0
15_23_25,69,4085.64,4097.95,4074.87,4087.18,4070.26,4087.18,4088.21,4100.51,4097.95,4096.41,4150.77,4877.95,4106.67,4104.62,0
15_23_25,70,4091.79,4097.44,4087.18,4088.72,4080,4089.74,4088.21,4100.51,4097.44,4096.92,4151.28,4878.97,4101.03,4104.62,0
15_23_25,71,4094.36,4095.9,4093.33,4088.72,4084.1,4092.82,4088.21,4097.95,4094.87,4097.95,4152.31,4877.44,4097.44,4105.13,0
15_23_25,72,4092.82,4096.41,4092.82,4090.26,4087.69,4091.79,4087.18,4095.38,4098.97,4097.44,4153.85,4877.44,4100,4106.15,0
15_23_25,73,4093.85,4098.97,4091.79,4091.79,4089.74,4090.77,4087.69,4097.95,4100,4097.95,4154.36,4880,4100.51,4105.13,0
15_23_25,74,4095.38,4098.46,4095.38,4092.31,4090.26,4091.28,4091.79,4099.49,4094.36,4098.97,4151.79,4878.97,4100.51,4107.18,0
15_23_25,75,4091.79,4098.97,4095.38,4093.33,4092.31,4092.31,4090.77,4098.46,4093.85,4098.46,4153.33,4876.92,4100,4107.18,0
15_23_25,76,4089.74,4100.51,4090.77,4092.82,4092.31,4094.87,4087.18,4098.46,4094.36,4096.92,4156.41,4881.54,4100,4105.64,0
15_23_25,77,4091.28,4098.97,4085.64,4095.9,4089.74,4093.33,4090.77,4097.44,4092.31,4092.82,4153.85,4884.62,4100.51,4111.28,0
15_23_25,78,4092.31,4098.46,4085.13,4098.97,4088.21,4088.72,4093.85,4093.85,4093.85,4090.77,4150.77,4882.56,4101.54,4110.77,0
15_23_25,79,4091.79,4100,4086.67,4096.41,4086.67,4090.77,4089.23,4093.33,4094.36,4097.95,4151.79,4875.9,4097.95,4098.46,0
15_23_25,80,4092.82,4096.92,4086.15,4097.95,4086.15,4090.26,4087.69,4095.38,4091.79,4100.51,4152.82,4873.85,4095.9,4095.9,0
15_23_25,81,4088.72,4087.18,4080,4096.92,4083.59,4086.15,4090.77,4091.28,4090.77,4088.72,4150.77,4872.82,4100.51,4104.1,0
15_23_25,82,4075.9,4081.03,4075.9,4086.67,4073.33,4082.05,4082.56,4084.1,4086.15,4081.54,4148.72,4863.59,4102.56,4106.15,0
15_23_25,83,4068.72,4080.51,4085.64,4084.62,4073.33,4080.51,4072.31,4082.05,4081.54,4086.15,4150.26,4857.95,4099.49,4104.1,0
15_23_25,84,4070.77,4083.08,4086.67,4092.31,4082.05,4083.59,4076.41,4079.49,4084.1,4092.82,4151.79,4857.44,4094.36,4104.62,0
15_23_25,85,4072.31,4082.56,4070.77,4095.9,4084.1,4083.08,4080,4073.85,4086.15,4097.95,4150.26,4853.33,4087.18,4100.51,0
15_23_25,86,4058.46,4064.1,4058.97,4084.1,4070.77,4062.05,4057.95,4076.41,4085.13,4102.05,4149.74,4854.36,4085.64,4091.28,0
15_23_25,87,4050.77,4042.05,4068.72,4070.26,4065.13,4039.49,4042.56,4083.08,4087.18,4104.1,4152.31,4857.44,4090.26,4092.31,0
15_23_25,88,4060.51,4048.21,4082.56,4076.41,4073.85,4051.79,4066.15,4083.08,4089.23,4104.62,4151.28,4854.36,4088.21,4095.38,0
15_23_25,89,4067.18,4064.62,4087.69,4091.28,4086.67,4073.33,4086.67,4080.51,4087.69,4105.13,4152.82,4856.41,4084.1,4091.79,0
15_23_25,90,4071.28,4070.77,4094.36,4091.28,4094.36,4077.44,4083.59,4084.1,4087.18,4105.13,4150.26,4858.97,4086.15,4096.41,0
15_23_25,91,4085.64,4079.49,4103.08,4091.28,4097.44,4081.03,4084.1,4089.23,4089.74,4104.62,4140.51,4852.31,4095.38,4107.69,0
15_23_25,92,4099.49,4091.79,4106.15,4105.13,4100.51,4094.36,4096.92,4093.85,4093.33,4104.1,4142.05,4858.97,4105.64,4106.15,0
15_23_25,93,4096.41,4091.79,4098.46,4108.72,4102.05,4096.41,4100.51,4097.95,4094.87,4103.59,4155.9,4879.49,4104.1,4104.1,0
15_23_25,94,4096.41,4092.31,4097.44,4101.54,4105.13,4093.85,4098.46,4102.05,4092.82,4101.03,4160,4882.05,4098.46,4112.82,0
15_23_25,95,4099.49,4096.92,4102.05,4096.92,4102.05,4093.85,4099.49,4102.05,4092.31,4096.92,4154.36,4872.31,4098.97,4112.82,0
15_23_25,96,4095.9,4092.31,4102.56,4093.85,4094.87,4092.82,4097.44,4099.49,4093.85,4097.95,4151.79,4876.41,4100,4106.15,0
15_23_25,97,4093.85,4092.31,4097.44,4091.28,4095.38,4092.82,4091.79,4101.03,4090.77,4098.46,4154.36,4892.31,4101.54,4115.38,0
15_23_25,98,4095.38,4101.54,4087.18,4091.79,4100,4094.87,4091.79,4103.08,4089.23,4097.44,4158.97,4897.95,4106.67,4122.05,0
15_23_25,99,4095.38,4102.05,4091.79,4094.36,4099.49,4092.31,4092.82,4104.1,4094.87,4098.46,4150.77,4887.69,4105.13,4112.31,0
15_23_25,100,4094.36,4097.95,4107.18,4095.38,4101.54,4093.33,4090.77,4107.69,4097.95,4098.46,4134.36,4882.05,4098.46,4105.64,0
15_23_25,101,4093.85,4096.92,4102.56,4096.92,4110.26,4098.46,4090.77,4109.74,4098.46,4096.92,4133.85,4897.44,4095.38,4107.69,0
15_23_25,102,4085.13,4093.33,4090.77,4103.59,4103.59,4097.44,4093.85,4106.15,4103.59,4101.03,4136.92,4900,4093.85,4102.56,0
15_23_25,103,4073.85,4084.62,4116.41,4104.1,4104.62,4096.41,4092.31,4102.05,4101.54,4105.64,4133.33,4869.23,4093.85,4095.9,0
15_23_25,104,4065.13,4072.31,4141.03,4103.08,4121.03,4095.9,4089.23,4104.1,4092.31,4103.08,4144.1,4842.56,4090.26,4095.38,0
15_23_25,105,4042.56,4063.59,4093.33,4117.44,4071.28,4094.87,4086.67,4107.69,4097.44,4103.59,4168.72,4837.95,4089.23,4092.82,0
15_23_25,106,4028.72,4075.9,4056.41,4125.13,4017.44,4097.95,4089.74,4113.33,4109.23,4108.72,4171.79,4831.28,4095.38,4095.38,0
15_23_25,107,4053.85,4091.79,4107.69,4107.18,4066.67,4101.54,4093.33,4111.79,4102.05,4106.15,4161.03,4818.46,4095.9,4101.54,0
15_23_25,108,4078.97,4089.74,4140.51,4091.79,4110.26,4098.97,4090.26,4098.97,4093.85,4103.08,4163.59,4822.56,4094.36,4101.54,0
15_23_25,109,4075.38,4089.74,4107.18,4094.87,4084.1,4094.36,4091.28,4091.79,4098.97,4106.67,4169.23,4845.13,4090.77,4101.54,0
15_23_25,110,4077.95,4096.92,4087.69,4097.44,4078.97,4094.87,4095.38,4101.54,4097.95,4105.64,4158.97,4860,4087.69,4105.64,0
15_23_25,111,4086.15,4094.36,4116.41,4096.92,4104.1,4094.36,4091.79,4106.15,4092.82,4101.03,4146.15,4846.15,4092.31,4102.56,0
15_23_25,112,4083.59,4091.28,4135.9,4096.41,4096.92,4091.28,4089.23,4093.85,4095.9,4106.67,4153.33,4823.59,4095.38,4100.51,0
15_23_25,113,4087.18,4092.31,4124.1,4093.85,4091.79,4093.85,4094.36,4091.79,4096.92,4110.77,4165.64,4837.44,4087.18,4100.51,0
15_23_25,114,4090.77,4092.31,4091.79,4093.33,4089.74,4100.51,4091.79,4102.05,4095.38,4105.13,4160.51,4873.85,4088.72,4097.44,0
15_23_25,115,4086.15,4097.44,4084.1,4098.46,4083.08,4098.46,4090.77,4102.56,4100,4102.56,4151.79,4878.46,4100.51,4096.92,0
15_23_25,116,4095.9,4109.23,4098.46,4093.33,4091.28,4089.23,4094.87,4096.41,4100.51,4104.62,4154.87,4864.1,4098.97,4099.49,0
15_23_25,117,4080.51,4080.51,4092.82,4102.56,4093.85,4092.31,4102.56,4097.44,4092.82,4104.1,4156.41,4877.44,4090.77,4095.38,0
15_23_25,118,4020.51,4014.36,4087.69,4151.79,4081.54,4099.49,4120,4100,4095.38,4102.56,4155.9,4895.9,4091.79,4090.77,0
15_23_25,119,4013.85,4019.49,4092.82,4168.72,4076.92,4097.95,4123.59,4097.95,4103.59,4104.1,4158.97,4883.08,4094.36,4093.33,0
15_23_25,120,4091.28,4102.56,4090.26,4120.51,4087.18,4094.87,4101.54,4100,4101.54,4105.13,4156.41,4870.77,4094.36,4101.54,0
15_23_25,121,4136.41,4139.49,4088.72,4091.79,4086.67,4090.77,4087.18,4107.18,4093.85,4103.59,4158.97,4873.85,4098.46,4109.23,0
15_23_25,122,4116.41,4113.33,4093.33,4104.62,4073.33,4081.03,4089.74,4104.62,4091.79,4105.13,4167.69,4869.74,4098.46,4112.31,0
15_23_25,123,4101.54,4102.05,4086.67,4102.56,4070.26,4073.33,4087.18,4095.38,4093.33,4109.23,4159.49,4868.72,4090.26,4110.77,0
15_23_25,124,4095.9,4096.92,4080,4086.67,4081.54,4082.05,4083.08,4093.85,4092.31,4108.21,4149.23,4872.82,4089.23,4102.05,0
15_23_25,125,4081.03,4079.49,4090.77,4086.15,4098.97,4096.41,4086.67,4095.38,4094.36,4104.1,4151.28,4863.08,4093.85,4093.85,0
15_23_25,126,4076.92,4083.59,4099.49,4090.26,4106.67,4094.87,4086.15,4094.36,4097.95,4103.08,4152.31,4857.95,4091.28,4097.44,0
15_23_25,127,4086.67,4092.31,4091.28,4096.92,4097.44,4088.21,4085.13,4095.38,4098.97,4104.1,4150.77,4875.38,4089.23,4101.54,0
15_23_25,128,4095.9,4095.38,4092.31,4105.13,4089.23,4092.31,4091.79,4097.95,4096.41,4103.08,4155.38,4886.67,4094.36,4101.54,0
15_23_25,0,4105.64,4109.23,4107.69,4114.36,4084.1,4096.41,4099.49,4099.49,4093.33,4103.08,4156.92,4882.05,4096.92,4106.15,0
15_23_25,1,4117.95,4121.54,4106.67,4124.1,4069.74,4088.21,4097.95,4103.59,4096.92,4104.1,4154.36,4879.49,4094.36,4109.74,0
15_23_25,2,4121.54,4115.9,4088.21,4121.03,4060.51,4081.54,4089.23,4101.03,4102.05,4103.59,4154.36,4881.03,4095.9,4107.18,0
15_23_25,3,4112.31,4108.21,4090.26,4112.31,4074.36,4086.15,4092.31,4096.92,4101.03,4103.59,4155.9,4882.56,4100.51,4106.67,0
15_23_25,4,4101.54,4104.1,4102.56,4110.77,4091.28,4093.33,4099.49,4100,4097.95,4103.59,4155.9,4884.62,4099.49,4108.21,0
15_23_25,5,4095.38,4093.33,4092.82,4111.28,4094.36,4095.9,4093.85,4097.95,4097.95,4103.59,4152.31,4883.08,4095.38,4104.62,0
15_23_25,6,4081.54,4081.54,4077.44,4098.97,4089.23,4091.79,4082.05,4090.26,4096.92,4103.59,4151.28,4875.9,4094.36,4102.56,0
15_23_25,7,4065.13,4072.82,4071.79,4085.13,4081.54,4085.13,4073.85,4089.23,4092.82,4103.59,4151.79,4871.28,4093.33,4100,0
15_23_25,8,4063.08,4065.64,4065.64,4081.54,4071.28,4078.46,4068.21,4088.21,4089.74,4103.59,4151.79,4870.77,4088.72,4097.44,0
15_23_25,9,4060.51,4064.1,4060.51,4080,4070.26,4074.36,4066.67,4085.64,4089.23,4103.59,4151.79,4869.23,4087.18,4097.44,0
15_23_25,10,4050.77,4068.21,4059.49,4070.77,4069.23,4073.33,4067.18,4086.15,4090.26,4103.59,4150.26,4867.69,4088.21,4096.92,0
15_23_25,11,4047.69,4064.62,4060.51,4062.56,4064.1,4078.46,4066.15,4086.15,4091.28,4103.59,4148.72,4868.21,4088.72,4092.31,0
15_23_25,12,4049.74,4055.38,4063.08,4064.62,4081.03,4087.18,4068.21,4084.1,4089.74,4104.1,4150.26,4868.21,4087.69,4091.28,0
15_23_25,13,4047.18,4057.44,4070.77,4067.18,4105.13,4090.26,4073.33,4086.15,4090.77,4103.59,4150.77,4867.69,4085.64,4091.79,0
15_23_25,14,4051.28,4071.28,4080.51,4069.23,4097.95,4094.36,4077.44,4088.72,4093.85,4103.59,4150.77,4868.72,4085.64,4085.64,0
15_23_25,15,4065.64,4079.49,4091.28,4077.95,4081.03,4105.13,4081.54,4088.21,4092.82,4105.64,4152.31,4872.31,4087.18,4085.13,0
15_23_25,16,4069.74,4074.87,4108.72,4095.38,4099.49,4108.72,4089.23,4088.72,4093.85,4106.15,4147.69,4873.33,4089.23,4091.79,0
15_23_25,17,4064.1,4074.36,4124.62,4108.21,4123.08,4105.13,4094.87,4095.9,4099.49,4102.56,4144.1,4873.33,4091.28,4095.38,0
15_23_25,18,4072.31,4085.64,4126.15,4110.26,4118.97,4104.1,4098.97,4104.1,4102.56,4102.05,4143.08,4876.92,4091.79,4095.9,0
15_23_25,19,4089.74,4092.82,4123.59,4106.67,4110.26,4105.64,4100.51,4103.59,4101.54,4104.62,4142.05,4872.31,4089.74,4097.95,0
15_23_25,20,4091.28,4091.28,4128.21,4104.62,4114.36,4105.13,4099.49,4100.51,4102.05,4105.13,4147.69,4860,4088.21,4100.51,0
15_23_25,21,4081.03,4088.72,4129.23,4103.59,4107.69,4104.1,4096.41,4098.46,4102.56,4108.21,4155.38,4858.97,4090.77,4099.49,0
15_23_25,22,4081.03,4086.15,4139.49,4102.56,4100,4104.62,4094.36,4096.92,4102.05,4109.74,4151.28,4846.15,4091.79,4096.92,0
15_23_25,23,4091.79,4092.31,4165.13,4100.51,4108.21,4104.1,4097.44,4097.95,4101.54,4103.08,4150.77,4813.33,4090.26,4094.36,0
15_23_25,24,4101.54,4105.13,4172.31,4096.92,4109.74,4099.49,4096.41,4098.97,4102.05,4099.49,4151.79,4806.67,4089.23,4092.82,0
15_23_25,25,4100.51,4101.03,4151.79,4094.87,4097.44,4095.38,4087.69,4094.87,4096.92,4103.59,4143.59,4823.08,4090.26,4093.33,0
15_23_25,26,4090.26,4087.18,4156.92,4100,4094.36,4099.49,4086.67,4091.79,4089.23,4105.64,4142.56,4807.69,4092.31,4092.31,0
15_23_25,27,4078.97,4082.56,4187.69,4105.64,4098.46,4103.08,4094.36,4095.9,4092.82,4103.08,4146.67,4783.59,4090.77,4090.26,0
15_23_25,28,4070.26,4076.92,4191.79,4115.9,4101.54,4103.08,4102.05,4101.03,4105.13,4102.56,4143.08,4796.92,4087.69,4089.74,0
15_23_25,29,4063.08,4063.59,4178.46,4140,4101.03,4101.54,4100.51,4098.97,4100.51,4104.62,4140.51,4817.95,4087.18,4094.36,0
15_23_25,30,4063.59,4061.03,4184.62,4161.03,4100,4100,4095.38,4092.82,4094.36,4103.59,4140.51,4818.46,4087.18,4088.72,0
15_23_25,31,4066.67,4070.77,4178.97,4165.64,4096.92,4102.05,4097.44,4089.74,4103.08,4090.77,4135.38,4825.13,4085.64,4078.97,0
15_23_25,32,4064.1,4067.69,4151.79,4168.72,4104.1,4103.59,4102.05,4090.26,4105.13,4078.46,4136.92,4850.77,4086.15,4086.15,0
15_23_25,33,4073.33,4070.77,4135.38,4166.67,4094.87,4095.9,4094.87,4093.85,4096.92,4084.1,4146.15,4869.23,4086.67,4101.03,0
15_23_25,34,4106.67,4106.15,4125.13,4145.13,4070.77,4088.21,4089.23,4094.36,4089.23,4103.59,4152.82,4887.18,4088.21,4120,0
15_23_26,35,4143.59,4129.23,4112.31,4117.95,4092.82,4093.85,4088.72,4090.26,4080,4119.49,4154.87,4895.38,4097.95,4136.41,0
15_23_26,36,4165.13,4120,4136.92,4094.87,4148.21,4105.13,4084.62,4095.38,4082.56,4116.41,4143.59,4849.23,4100.51,4124.1,0
15_23_26,37,4139.49,4103.08,4194.87,4082.56,4151.79,4108.72,4089.23,4106.67,4104.1,4098.97,4121.54,4774.36,4096.92,4092.82,0
15_23_26,38,4118.46,4090.26,4250.26,4092.31,4121.54,4110.77,4104.1,4105.64,4109.23,4096.92,4112.82,4711.79,4095.9,4081.54,0
15_23_26,39,4208.21,4136.92,4253.85,4051.79,4133.33,4117.95,4083.59,4093.33,4091.28,4133.85,4136.92,4663.08,4075.38,4073.33,0
15_23_26,40,4285.64,4191.79,4207.69,3979.49,4154.87,4131.28,4063.59,4083.59,4089.23,4134.36,4149.74,4662.05,4068.21,4062.05,0
15_23_26,41,4160.51,4098.46,4180,4030.26,4144.1,4154.36,4110.77,4088.72,4083.08,4034.87,4151.28,4729.74,4105.64,4066.67,0
15_23_26,42,3997.95,3970.77,4187.18,4147.18,4131.28,4166.67,4149.23,4084.1,4029.23,3979.49,4221.54,4825.64,4102.05,4046.67,0
15_23_26,43,4004.62,3994.36,4180.51,4156.92,4127.18,4152.31,4117.95,4053.85,3993.85,4085.13,4283.08,4882.05,4050.26,4030.26,0
15_23_26,44,4042.56,4055.38,4161.03,4117.95,4126.15,4129.23,4088.21,4024.1,4040.51,4197.44,4214.36,4891.28,4040,4043.59,0
15_23_26,45,3996.92,4048.72,4151.79,4125.64,4126.15,4112.31,4092.31,4016.92,4067.18,4187.18,4173.85,4929.74,4030.77,4010.26,0
15_23_26,46,3969.23,4056.92,4137.44,4123.59,4119.49,4100,4093.33,4015.9,3998.97,4172.31,4325.13,5020.51,3971.28,3918.46,0
15_23_26,47,3996.92,4070.77,4112.31,4116.92,4108.21,4103.08,4090.77,4029.74,4011.28,4216.41,4285.64,4973.85,3948.72,3859.49,0
15_23_26,48,4004.1,4039.49,4078.46,4125.13,4094.36,4114.87,4085.64,4057.95,4125.64,4219.49,3930.26,4804.62,4033.33,3945.64,0
15_23_26,49,3962.05,4010.77,4054.87,4169.23,4087.69,4128.21,4084.62,4090.26,4130.77,4245.13,3787.69,4777.95,4126.67,4025.13,0
15_23_26,50,3949.23,4012.31,4065.13,4219.49,4083.59,4129.74,4106.15,4141.03,4074.87,4337.44,3976.41,4853.85,4106.67,4025.13,0
15_23_26,51,4023.08,4043.08,4081.54,4164.1,4101.03,4108.21,4113.33,4154.87,4104.1,4285.64,4120.51,4876.92,4056.41,4102.56,0
15_23_26,52,4089.74,4082.05,4055.9,4078.97,4122.05,4087.18,4091.28,4109.23,4131.28,4092.82,4122.56,4898.46,4110.26,4222.05,0
15_23_26,53,4083.08,4109.23,4043.08,4102.05,4082.56,4091.79,4095.38,4085.13,4108.72,4051.79,4164.62,4910.77,4122.56,4117.95,0
15_23_26,54,4074.87,4098.46,4082.56,4133.85,4128.72,4105.13,4111.79,4071.79,4109.74,4128.21,4231.28,4817.44,4012.82,3876.41,0
15_23_26,55,4102.56,4087.69,4093.33,4149.74,4149.23,4087.18,4095.38,4053.33,4098.46,4059.49,4158.97,4717.44,4078.97,3991.79,0
15_23_26,56,4091.28,4134.36,4064.62,4258.46,3855.9,4051.28,4083.59,4129.74,4106.15,3953.33,4032.31,4745.13,4268.72,4292.82,0
15_23_26,57,4045.64,4157.95,3996.41,4303.08,3707.69,4063.59,4102.05,4206.67,4175.38,4064.1,4087.18,4852.82,4170.26,4238.46,0
15_23_26,58,4049.23,4106.67,3890.26,4172.31,4027.18,4113.85,4106.15,4135.38,4174.87,4247.18,4246.67,4932.31,3934.87,4000,0
15_23_26,59,4101.03,4071.28,3895.38,4059.49,4222.05,4115.9,4080,4061.03,4121.54,4228.72,4226.67,4912.31,3960,4003.59,0
15_23_26,60,4133.33,4107.18,4034.87,4012.31,4090.26,4068.21,4062.05,4099.49,4143.59,4098.97,4149.74,4867.18,4084.1,4105.64,0
15_23_26,61,4105.13,4119.49,4097.44,3977.44,4078.46,4053.33,4071.79,4150.77,4196.92,4105.13,4187.18,4876.41,4061.03,4069.23,0
15_23_26,62,4071.79,4082.56,4056.92,3996.92,4146.67,4084.1,4087.69,4151.28,4182.56,4165.64,4203.59,4887.69,4037.95,4056.41,0
15_23_26,63,4080,4078.97,4069.74,4040.51,4125.13,4111.28,4089.74,4125.64,4133.33,4127.69,4153.33,4867.69,4085.13,4064.1,0
15_23_26,64,4084.62,4094.87,4124.1,4053.33,4134.87,4106.67,4077.44,4094.36,4100,4067.18,4142.05,4857.44,4102.56,4056.92,0
15_23_26,65,4071.79,4100.51,4125.64,4070.77,4104.1,4085.64,4055.9,4079.49,4088.72,4048.21,4185.64,4863.59,4100.51,4090.77,0
15_23_26,66,4081.54,4101.03,4093.85,4101.54,4065.64,4077.44,4043.08,4078.46,4084.62,4033.85,4190.26,4852.82,4106.67,4092.31,0
15_23_26,67,4077.95,4068.72,4111.79,4119.49,4086.15,4078.97,4067.18,4079.49,4070.77,4023.59,4173.85,4847.18,4108.21,4094.36,0
15_23_26,68,4045.13,4031.28,4150.26,4090.77,4084.1,4083.59,4094.36,4092.82,4082.05,4038.46,4226.15,4876.41,4104.1,4138.97,0
15_23_26,69,4071.28,4079.49,4094.36,4021.54,4079.49,4083.59,4073.33,4109.74,4134.36,4083.59,4253.85,4912.31,4094.36,4126.15,0
15_23_26,70,4123.08,4138.46,4032.82,3997.44,4111.79,4080.51,4056.41,4128.72,4183.08,4122.56,4187.69,4923.59,4078.97,4048.21,0
15_23_26,71,4117.95,4100,4053.85,4022.05,4127.69,4082.05,4087.69,4139.49,4195.9,4133.85,4163.08,4915.9,4069.74,4001.03,0
15_23_26,72,4102.05,4067.18,4035.38,4024.1,4113.85,4092.31,4110.77,4147.69,4188.21,4151.28,4211.28,4938.46,4066.15,3987.69,0
15_23_26,73,4103.59,4090.77,3969.23,4007.69,4118.46,4101.03,4103.08,4136.41,4178.97,4159.49,4194.36,4973.33,4076.92,3990.26,0
15_23_26,74,4105.13,4092.82,3981.03,4001.03,4122.56,4100.51,4100,4094.36,4163.08,4109.74,4156.92,4961.03,4102.56,4023.59,0
15_23_26,75,4101.54,4079.49,4058.97,3993.85,4116.41,4098.46,4108.72,4076.41,4134.87,4057.95,4191.28,4920,4111.79,4056.92,0
15_23_26,76,4091.28,4086.15,4103.08,3988.21,4114.87,4097.95,4107.18,4086.15,4100.51,4064.1,4194.87,4888.72,4109.23,4089.74,0
15_23_26,77,4079.49,4098.46,4063.59,3990.26,4114.87,4101.54,4100.51,4094.36,4086.67,4092.31,4127.69,4861.54,4108.72,4112.82,0
15_23_26,78,4083.59,4107.69,3963.59,3998.97,4116.92,4106.15,4106.15,4111.28,4105.13,4110.26,4088.21,4841.03,4108.21,4090.26,0
15_23_26,79,4077.95,4105.13,3892.31,4014.36,4124.62,4114.87,4121.03,4121.03,4123.59,4120,4098.46,4850.26,4109.23,4062.56,0
15_23_26,80,4061.54,4098.97,3885.64,4021.54,4123.59,4117.44,4124.62,4102.56,4115.38,4107.18,4100.51,4869.23,4113.33,4053.85,0
15_23_26,81,4063.08,4100.51,3896.41,4032.31,4115.9,4108.72,4116.41,4092.82,4102.56,4091.28,4102.05,4877.95,4110.26,4053.85,0
15_23_26,82,4071.79,4102.56,3901.03,4047.69,4114.36,4099.49,4111.79,4092.31,4101.54,4097.44,4124.62,4884.1,4105.64,4080.51,0
15_23_26,83,4076.92,4097.95,3917.95,4055.38,4114.87,4096.92,4110.77,4081.54,4095.9,4106.67,4152.82,4882.05,4104.1,4097.95,0
15_23_26,84,4075.9,4096.41,3941.03,4066.67,4109.74,4099.49,4109.23,4089.74,4088.72,4098.97,4155.38,4873.85,4103.08,4083.08,0
15_23_26,85,4075.9,4097.95,3954.87,4074.87,4105.64,4097.44,4104.62,4102.56,4097.95,4087.69,4127.18,4861.03,4105.13,4070.26,0
15_23_26,86,4084.1,4097.95,3969.74,4075.9,4102.05,4091.28,4100.51,4085.64,4111.79,4107.69,4140.51,4860,4089.74,4046.15,0
15_23_26,87,4094.87,4097.95,3997.44,4081.54,4097.44,4086.67,4096.41,4066.15,4100,4091.28,4191.28,4867.18,4079.49,4015.9,0
15_23_26,88,4104.62,4098.97,4019.49,4085.64,4095.9,4086.15,4096.41,4068.72,4082.56,4004.62,4214.87,4872.82,4094.87,3989.74,0
15_23_26,89,4112.82,4096.92,4032.82,4082.56,4096.92,4087.69,4099.49,4078.97,4092.31,3997.44,4206.67,4876.92,4087.69,3964.1,0
15_23_26,90,4115.38,4097.44,4047.18,4083.08,4094.36,4084.62,4093.85,4071.28,4096.41,4090.26,4191.28,4880.51,4076.41,4007.69,0
15_23_26,91,4112.82,4099.49,4061.54,4087.69,4091.79,4081.03,4084.1,4062.05,4083.59,4121.03,4166.67,4877.44,4097.95,4100,0
15_23_26,92,4116.92,4095.9,4070.26,4087.18,4088.21,4081.54,4086.15,4079.49,4084.62,4088.72,4149.74,4873.85,4114.87,4120.51,0
15_23_26,93,4122.56,4089.74,4076.92,4088.72,4087.18,4083.08,4091.28,4091.79,4092.82,4095.38,4153.33,4877.95,4104.62,4097.44,0
15_23_26,94,4119.49,4091.28,4085.13,4091.79,4089.23,4083.59,4087.18,4085.13,4090.26,4108.72,4145.64,4875.38,4102.56,4111.28,0
15_23_26,95,4113.85,4095.38,4089.74,4089.74,4090.26,4081.54,4082.56,4083.59,4089.74,4098.46,4131.79,4870.26,4111.28,4119.49,0
15_23_26,96,4108.72,4094.36,4089.74,4091.28,4090.26,4081.54,4087.69,4085.64,4092.82,4097.44,4132.82,4874.36,4106.67,4110.26,0
15_23_26,97,4104.62,4093.33,4092.31,4094.87,4092.82,4083.08,4091.28,4085.64,4089.74,4099.49,4128.21,4877.44,4106.15,4122.05,0
15_23_26,98,4102.56,4094.36,4097.44,4094.36,4092.31,4083.59,4086.15,4093.85,4089.23,4097.44,4113.85,4871.28,4110.26,4128.21,0
15_23_26,99,4104.62,4093.33,4096.92,4092.82,4089.23,4082.56,4082.05,4096.92,4089.74,4093.33,4122.05,4873.85,4108.72,4116.92,0
15_23_26,100,4103.08,4092.82,4098.97,4090.77,4089.74,4082.56,4084.62,4090.77,4092.82,4095.9,4148.72,4886.15,4098.97,4102.05,0
15_23_26,101,4104.62,4094.87,4105.13,4089.74,4088.72,4081.54,4086.15,4091.28,4091.79,4104.62,4157.95,4889.74,4094.87,4101.03,0
15_23_26,102,4106.15,4091.28,4103.08,4092.82,4088.72,4081.54,4083.59,4091.28,4090.77,4105.13,4151.79,4888.72,4097.95,4100.51,0
15_23_26,103,4104.1,4082.56,4101.03,4093.85,4092.31,4081.54,4082.56,4090.26,4096.92,4102.56,4151.79,4889.23,4095.9,4093.85,0
15_23_26,104,4102.05,4081.03,4103.59,4090.26,4093.33,4081.54,4082.56,4096.92,4098.97,4103.59,4155.38,4885.13,4094.87,4099.49,0
15_23_26,105,4099.49,4084.62,4100,4090.26,4092.82,4084.62,4084.1,4100.51,4096.41,4103.59,4150.26,4880,4097.95,4104.1,0
15_23_26,106,4093.85,4082.56,4094.87,4090.26,4100.51,4088.21,4084.1,4098.97,4094.36,4104.1,4138.97,4879.49,4097.44,4107.69,0
15_23_26,107,4089.74,4082.05,4094.87,4089.74,4108.72,4088.72,4080,4099.49,4089.74,4102.05,4126.67,4870.77,4103.59,4137.95,0
15_23_26,108,4086.67,4087.18,4092.31,4092.31,4108.72,4089.74,4080,4100.51,4086.15,4101.54,4116.92,4859.49,4109.23,4166.15,0
15_23_26,109,4084.1,4087.18,4087.69,4091.79,4107.18,4088.72,4080,4099.49,4090.77,4114.36,4120.51,4865.64,4095.9,4148.72,0
15_23_26,110,4087.69,4082.05,4091.28,4089.23,4106.15,4082.56,4077.95,4098.46,4096.41,4125.64,4133.85,4877.95,4079.49,4114.87,0
15_23_26,111,4091.28,4082.05,4095.38,4089.74,4104.62,4083.08,4080.51,4096.41,4098.46,4121.54,4141.54,4878.46,4080.51,4103.08,0
15_23_26,112,4090.77,4086.15,4095.38,4089.23,4101.54,4087.69,4084.1,4091.28,4098.46,4118.46,4137.44,4876.92,4084.62,4108.72,0
15_23_26,113,4092.82,4089.74,4096.41,4087.69,4096.41,4088.21,4083.59,4088.72,4098.46,4121.54,4141.03,4881.03,4086.15,4111.28,0
15_23_26,114,4093.85,4090.26,4098.97,4087.69,4089.74,4086.67,4082.56,4089.23,4098.46,4115.9,4151.28,4884.62,4093.33,4105.64,0
15_23_26,115,4094.87,4087.69,4098.46,4086.67,4090.77,4085.64,4083.59,4089.74,4095.38,4104.1,4153.33,4888.21,4096.92,4108.72,0
15_23_26,116,4098.97,4088.21,4101.03,4088.72,4096.92,4086.15,4083.08,4088.72,4095.38,4101.03,4150.26,4891.79,4096.41,4120,0
15_23_26,117,4100.51,4090.77,4105.13,4092.31,4095.9,4084.62,4082.56,4089.74,4097.44,4106.15,4149.74,4889.74,4101.03,4115.9,0
15_23_26,118,4102.05,4089.74,4105.64,4088.72,4090.77,4082.05,4083.59,4092.82,4093.33,4106.15,4152.31,4889.23,4100.51,4101.54,0
15_23_26,119,4100,4088.72,4104.1,4087.69,4092.31,4085.13,4085.64,4090.26,4091.28,4100,4152.82,4891.28,4096.92,4098.97,0
15_23_26,120,4098.46,4092.82,4104.62,4094.36,4095.38,4090.77,4085.64,4083.08,4095.9,4098.46,4150.26,4890.26,4097.44,4098.97,0
15_23_26,121,4101.54,4094.36,4104.1,4096.41,4089.23,4087.18,4083.59,4082.05,4098.97,4100,4155.9,4890.77,4094.36,4084.1,0
15_23_26,122,4102.56,4091.28,4104.62,4092.31,4086.15,4081.03,4084.1,4083.59,4098.46,4097.95,4167.69,4896.41,4089.23,4070.77,0
15_23_26,123,4097.95,4089.74,4103.59,4092.82,4090.26,4083.08,4083.08,4082.56,4099.49,4096.41,4171.28,4898.46,4087.69,4064.62,0
15_23_26,124,4100.51,4093.33,4105.13,4095.38,4086.15,4083.08,4084.1,4082.56,4100,4091.28,4170.77,4898.46,4087.18,4060.51,0
15_23_26,125,4106.15,4095.9,4107.69,4093.33,4080.51,4082.05,4088.72,4083.08,4091.79,4064.62,4168.72,4895.38,4097.95,4077.95,0
15_23_26,126,4106.15,4097.44,4107.18,4091.28,4081.54,4083.08,4087.18,4084.62,4082.56,4044.1,4155.38,4888.21,4117.44,4111.79,0
15_23_26,127,4105.13,4094.87,4107.69,4097.44,4083.08,4083.59,4085.13,4090.26,4085.64,4064.1,4144.62,4887.18,4118.97,4121.03,0
15_23_26,128,4103.59,4091.28,4109.23,4101.54,4082.05,4083.59,4090.26,4094.36,4090.26,4089.23,4149.74,4890.77,4105.13,4109.23,0
15_23_26,0,4102.56,4090.77,4108.72,4099.49,4082.05,4083.59,4090.77,4093.85,4090.26,4090.26,4152.31,4891.79,4096.92,4102.05,0
15_23_26,1,4103.08,4091.79,4106.67,4098.46,4081.03,4083.08,4087.69,4092.82,4090.77,4091.28,4149.74,4894.87,4098.97,4108.21,0
15_23_26,2,4104.62,4090.77,4106.67,4095.38,4082.05,4083.08,4088.21,4093.85,4088.21,4093.85,4151.28,4897.95,4108.21,4129.74,0
15_23_26,3,4105.13,4090.77,4107.18,4088.72,4083.59,4082.56,4087.18,4094.87,4087.18,4091.28,4152.31,4894.87,4110.26,4137.95,0
15_23_26,4,4104.1,4093.85,4106.67,4089.23,4081.03,4081.54,4087.69,4092.82,4092.31,4095.9,4151.28,4898.97,4100,4116.41,0
15_23_26,5,4101.03,4091.79,4106.67,4094.87,4081.03,4081.54,4092.31,4092.82,4094.87,4101.03,4152.82,4905.13,4098.97,4108.21,0
15_23_26,6,4101.54,4090.77,4106.67,4094.36,4083.59,4083.08,4091.28,4097.95,4093.85,4101.54,4154.87,4899.49,4105.64,4118.97,0
15_23_26,7,4106.15,4096.92,4107.18,4093.33,4082.05,4084.62,4088.21,4096.92,4092.31,4096.41,4150.77,4891.79,4105.13,4113.33,0
15_23_26,8,4105.13,4099.49,4106.15,4094.87,4080,4083.08,4088.72,4084.1,4091.28,4080.51,4153.85,4896.41,4098.97,4086.15,0
15_23_26,9,4103.08,4096.92,4106.15,4095.9,4083.08,4082.56,4089.74,4080.51,4096.41,4075.9,4171.79,4906.15,4088.72,4057.95,0
15_23_26,10,4111.28,4097.44,4105.13,4100.51,4083.08,4084.62,4086.15,4087.18,4100,4090.77,4170.77,4902.05,4088.21,4066.67,0
15_23_26,11,4118.97,4099.49,4104.1,4103.08,4080,4079.49,4083.08,4089.74,4097.44,4098.46,4152.31,4892.31,4102.05,4106.15,0
15_23_26,12,4113.85,4099.49,4107.18,4101.03,4081.54,4076.41,4083.08,4093.85,4096.92,4097.44,4147.69,4894.36,4107.18,4125.13,0
15_23_26,13,4105.64,4098.97,4106.67,4095.9,4084.1,4083.59,4085.13,4098.97,4090.77,4098.97,4146.67,4898.46,4107.18,4138.97,0
15_23_26,14,4103.08,4092.31,4103.08,4087.18,4081.03,4086.15,4088.72,4098.97,4080.51,4101.03,4133.85,4891.79,4116.92,4172.82,0
15_23_26,15,4103.59,4090.77,4105.13,4081.54,4080.51,4081.03,4088.72,4102.56,4089.23,4120,4129.74,4887.69,4110.26,4178.97,0
15_23_26,16,4105.64,4096.41,4105.64,4088.21,4083.59,4081.54,4084.62,4106.15,4106.15,4157.95,4141.03,4895.9,4084.62,4146.67,0
15_23_26,17,4105.64,4097.95,4101.54,4095.38,4082.56,4084.1,4082.05,4098.46,4104.1,4169.23,4151.28,4902.56,4077.95,4126.67,0
15_23_26,18,4103.08,4098.97,4101.03,4094.36,4080,4082.05,4085.13,4089.74,4096.41,4134.36,4153.85,4903.08,4092.31,4124.62,0
15_23_26,19,4103.59,4096.92,4104.1,4093.33,4082.56,4082.05,4089.23,4092.31,4097.95,4101.03,4152.31,4898.97,4103.08,4114.36,0
15_23_26,20,4104.1,4092.82,4104.1,4094.87,4083.59,4082.05,4091.28,4097.44,4098.46,4094.87,4154.36,4899.49,4102.56,4098.46,0
15_23_26,21,4104.1,4092.31,4103.08,4093.33,4080.51,4081.03,4089.23,4097.95,4092.82,4086.15,4155.38,4900.51,4102.56,4103.08,0
15_23_26,22,4105.13,4095.9,4104.1,4092.82,4081.03,4081.54,4085.64,4095.38,4090.26,4072.82,4149.23,4893.33,4108.72,4123.08,0
15_23_26,23,4106.15,4095.9,4106.67,4093.85,4084.1,4081.54,4082.56,4095.9,4096.41,4083.59,4150.77,4889.23,4102.56,4119.49,0
15_23_26,24,4105.64,4092.31,4107.18,4093.85,4081.54,4081.54,4082.56,4098.46,4098.97,4092.82,4155.38,4893.33,4099.49,4117.44,0
15_23_26,25,4102.56,4092.31,4105.64,4092.82,4080,4081.54,4086.15,4098.97,4087.18,4077.44,4135.38,4890.77,4126.67,4171.28,0
15_23_26,26,4097.95,4095.9,4105.13,4093.85,4083.59,4083.08,4089.74,4100,4084.62,4094.87,4118.46,4889.23,4129.74,4204.1,0
15_23_26,27,4097.95,4098.97,4103.08,4099.49,4083.08,4083.59,4091.28,4105.13,4103.08,4133.33,4147.18,4900,4088.21,4142.56,0
15_23_26,28,4098.97,4094.87,4100,4098.46,4080,4083.59,4086.67,4113.33,4110.77,4120,4175.9,4906.67,4077.44,4086.15,0
15_23_26,29,4097.95,4089.74,4101.54,4089.74,4082.05,4083.59,4084.1,4113.85,4100.51,4089.74,4167.18,4901.03,4104.1,4101.03,0
15_23_26,30,4098.46,4089.23,4102.56,4088.72,4083.59,4083.59,4089.23,4103.08,4097.44,4096.92,4162.56,4897.44,4105.64,4114.87,0
15_23_26,31,4098.97,4091.28,4100.51,4095.9,4080.51,4083.59,4092.31,4097.95,4100,4105.64,4168.72,4898.46,4092.82,4104.1,0
15_23_26,32,4097.44,4092.82,4101.03,4095.9,4081.03,4083.59,4089.23,4099.49,4097.44,4096.41,4158.46,4897.95,4097.95,4102.56,0
15_23_26,33,4100.51,4092.31,4102.05,4092.82,4083.59,4083.59,4087.18,4097.44,4097.44,4096.92,4148.21,4897.44,4101.03,4108.72,0
15_23_27,34,4104.1,4091.28,4101.03,4093.85,4082.05,4083.59,4089.23,4097.44,4098.97,4101.03,4152.31,4896.41,4097.44,4111.28,0
15_23_27,35,4104.62,4091.79,4102.05,4095.9,4080,4083.59,4089.74,4097.44,4097.95,4100,4153.85,4892.82,4100.51,4112.82,0
15_23_27,36,4103.59,4093.33,4104.62,4094.87,4083.08,4083.59,4088.21,4087.18,4097.44,4098.46,4149.23,4891.79,4104.1,4114.36,0
15_23_27,37,4104.1,4091.79,4103.59,4094.36,4083.08,4083.08,4087.69,4080.51,4096.92,4096.41,4156.41,4897.44,4095.9,4094.87,0
15_23_27,38,4103.59,4090.77,4101.03,4094.36,4080,4083.59,4088.21,4083.08,4096.92,4093.85,4171.79,4902.05,4086.67,4062.05,0
15_23_27,39,4102.56,4092.31,4101.54,4095.9,4081.54,4083.59,4087.69,4081.54,4096.92,4080,4174.87,4896.41,4096.92,4072.31,0
15_23_27,40,4103.59,4092.31,4102.56,4092.82,4084.1,4082.56,4087.69,4081.54,4096.92,4065.64,4164.62,4892.31,4106.67,4106.15,0
15_23_27,41,4102.56,4091.28,4102.56,4089.74,4081.03,4084.1,4090.26,4090.77,4096.92,4072.31,4155.38,4893.33,4102.56,4109.74,0
15_23_27,42,4102.56,4091.28,4102.56,4098.46,4080.51,4088.21,4093.85,4095.9,4096.92,4088.21,4150.77,4889.23,4100.51,4106.67,0
15_23_27,43,4103.59,4091.28,4102.05,4103.59,4083.59,4089.74,4092.82,4093.85,4096.92,4097.44,4149.74,4882.05,4103.59,4121.54,0
15_23_27,44,4101.03,4094.36,4100,4093.33,4082.56,4090.77,4091.28,4093.33,4096.92,4103.08,4149.74,4885.13,4104.1,4124.62,0
15_23_27,45,4096.92,4098.46,4096.92,4086.67,4080,4089.23,4091.28,4094.36,4096.92,4106.15,4148.21,4891.28,4096.92,4111.28,0
15_23_27,46,4097.44,4095.38,4097.44,4089.74,4082.56,4088.21,4090.77,4092.82,4096.92,4104.1,4150.77,4892.82,4092.31,4101.54,0
15_23_27,47,4099.49,4090.26,4098.97,4091.28,4083.59,4089.23,4090.26,4093.85,4096.92,4102.56,4153.85,4889.74,4096.41,4101.54,0
15_23_27,48,4099.49,4092.31,4099.49,4092.82,4080.51,4087.69,4088.72,4097.95,4096.92,4104.1,4153.85,4889.23,4101.03,4109.23,0
15_23_27,49,4099.49,4094.87,4098.97,4094.36,4081.03,4082.05,4088.21,4098.97,4096.92,4104.1,4154.36,4893.33,4097.44,4109.74,0
15_23_27,50,4098.46,4091.28,4098.97,4090.26,4084.1,4081.03,4092.31,4097.95,4096.92,4103.59,4153.33,4893.85,4096.41,4109.74,0
15_23_27,51,4098.97,4089.74,4101.54,4088.21,4081.03,4084.62,4094.87,4097.95,4096.92,4103.59,4150.26,4888.72,4104.62,4121.03,0
15_23_27,52,4098.97,4090.26,4101.54,4091.28,4080.51,4088.72,4090.26,4098.97,4097.44,4105.13,4149.74,4887.69,4104.62,4128.72,0
15_23_27,53,4097.44,4093.33,4100,4092.31,4084.1,4089.23,4087.18,4099.49,4096.92,4105.13,4151.79,4889.74,4097.95,4121.03,0
15_23_27,54,4100.51,4097.95,4102.05,4093.85,4080.51,4083.59,4088.21,4095.38,4096.41,4102.56,4151.28,4888.21,4096.41,4108.21,0
15_23_27,55,4105.13,4097.44,4102.05,4093.33,4082.56,4082.56,4089.23,4089.74,4096.92,4101.03,4149.74,4889.23,4099.49,4105.64,0
15_23_27,56,4101.03,4092.31,4099.49,4091.79,4090.26,4089.23,4092.31,4089.23,4095.9,4092.31,4152.31,4888.72,4101.03,4107.69,0
15_23_27,57,4097.95,4090.26,4100.51,4098.46,4086.67,4091.28,4095.38,4089.74,4090.26,4057.44,4152.31,4883.59,4109.74,4102.05,0
15_23_27,58,4098.97,4091.79,4098.46,4108.21,4079.49,4085.64,4092.31,4089.74,4086.67,4027.18,4152.82,4883.08,4118.97,4089.74,0
15_23_27,59,4098.46,4096.41,4096.41,4106.15,4084.1,4083.08,4088.21,4087.69,4094.36,4048.21,4165.64,4887.69,4107.69,4075.38,0
15_23_27,60,4100,4102.05,4100.51,4098.46,4089.23,4088.72,4088.72,4082.05,4102.05,4090.77,4171.79,4892.82,4089.23,4073.33,0
15_23_27,61,4103.08,4098.97,4100.51,4096.92,4089.23,4090.26,4088.72,4083.59,4100,4098.97,4157.95,4895.38,4089.23,4087.69,0
15_23_27,62,4099.49,4091.28,4094.36,4094.87,4088.72,4084.62,4088.21,4095.38,4096.41,4093.33,4148.21,4891.28,4099.49,4104.1,0
15_23_27,63,4096.41,4088.72,4093.33,4091.28,4087.18,4082.05,4090.77,4100,4098.97,4103.08,4152.82,4885.64,4099.49,4110.26,0
15_23_27,64,4098.97,4092.31,4094.87,4093.33,4086.15,4085.13,4091.79,4096.92,4098.97,4107.69,4152.82,4888.72,4096.41,4119.49,0
15_23_27,65,4098.97,4096.92,4093.85,4095.9,4086.15,4084.1,4089.74,4099.49,4093.33,4106.15,4141.03,4891.79,4101.03,4136.41,0
15_23_27,66,4098.46,4096.92,4094.36,4094.36,4087.18,4082.05,4088.21,4101.03,4095.38,4117.95,4131.79,4888.72,4102.05,4140,0
15_23_27,67,4100,4091.28,4091.79,4093.33,4088.21,4082.56,4087.69,4098.97,4100.51,4124.62,4137.95,4888.72,4097.44,4128.21,0
15_23_27,68,4099.49,4090.26,4092.31,4093.85,4084.1,4083.59,4087.69,4098.46,4098.97,4111.79,4153.33,4888.72,4093.85,4112.31,0
15_23_27,69,4099.49,4093.33,4101.54,4092.82,4080.51,4086.67,4087.69,4097.44,4096.41,4100.51,4156.41,4886.67,4092.31,4102.56,0
15_23_27,70,4100,4093.33,4102.56,4089.23,4086.15,4090.26,4087.69,4093.33,4098.46,4092.31,4149.23,4888.72,4098.46,4104.62,0
15_23_27,71,4099.49,4089.23,4094.87,4087.69,4088.72,4090.26,4087.69,4091.79,4099.49,4077.95,4154.87,4890.26,4108.72,4104.62,0
15_23_27,72,4098.97,4089.74,4098.46,4092.82,4087.69,4087.18,4087.69,4095.38,4098.97,4079.49,4163.08,4889.23,4105.13,4097.95,0
15_23_27,73,4102.56,4094.87,4102.05,4098.97,4090.26,4085.13,4087.69,4098.46,4099.49,4099.49,4159.49,4890.77,4096.92,4099.49,0
15_23_27,74,4105.13,4097.95,4095.9,4098.46,4087.18,4082.05,4087.69,4098.97,4098.46,4104.62,4150.26,4891.79,4098.97,4114.87,0
15_23_27,75,4102.05,4100,4095.9,4095.9,4081.03,4081.54,4087.69,4098.46,4098.46,4101.03,4137.95,4886.67,4103.08,4130.26,0
15_23_27,76,4102.56,4098.46,4101.54,4097.95,4082.56,4086.67,4087.69,4098.46,4098.97,4112.31,4133.85,4885.13,4098.46,4129.23,0
15_23_27,77,4104.62,4091.79,4099.49,4096.92,4086.67,4092.82,4087.69,4098.97,4098.46,4114.87,4146.67,4888.72,4091.79,4113.33,0
15_23_27,78,4101.54,4090.26,4095.9,4091.79,4087.69,4091.79,4088.21,4098.46,4098.46,4101.03,4156.41,4889.23,4091.79,4103.59,0
15_23_27,79,4097.44,4096.92,4094.87,4093.85,4086.67,4087.69,4088.21,4094.36,4098.46,4095.9,4151.79,4888.72,4095.38,4107.18,0
15_23_27,80,4097.95,4098.97,4094.36,4101.54,4087.18,4087.18,4089.74,4091.79,4098.46,4100,4150.77,4887.69,4095.9,4105.64,0
15_23_27,81,4097.95,4097.95,4092.31,4096.92,4089.23,4090.77,4092.31,4094.87,4098.46,4098.97,4153.85,4886.15,4096.92,4102.05,0
15_23_27,82,4097.44,4097.44,4091.79,4086.67,4088.21,4091.28,4090.77,4097.95,4098.46,4097.44,4151.79,4888.21,4098.97,4106.67,0
15_23_27,83,4097.44,4096.92,4093.33,4088.21,4086.15,4085.64,4088.72,4097.44,4098.46,4098.46,4152.31,4888.72,4094.87,4105.64,0
15_23_27,84,4096.92,4098.97,4094.87,4090.77,4086.15,4085.64,4088.21,4097.44,4097.95,4096.41,4152.82,4883.59,4094.87,4105.64,0
15_23_27,85,4096.92,4095.9,4093.33,4089.74,4085.64,4090.77,4088.21,4098.46,4097.95,4096.92,4151.79,4884.62,4101.54,4116.92,0
15_23_27,86,4096.92,4090.26,4093.85,4095.38,4087.69,4092.82,4089.74,4098.97,4099.49,4105.13,4151.28,4889.74,4098.97,4121.03,0
15_23_27,87,4096.92,4093.85,4094.87,4096.92,4090.26,4091.79,4091.79,4098.97,4098.46,4110.77,4152.31,4888.21,4095.9,4118.97,0
15_23_27,88,4096.92,4097.44,4093.33,4087.18,4086.15,4090.77,4090.26,4097.44,4096.92,4123.08,4149.23,4885.64,4093.85,4121.03,0
15_23_27,89,4096.41,4096.92,4090.26,4085.13,4082.56,4089.23,4088.72,4098.97,4105.64,4161.03,4150.26,4891.79,4077.95,4111.79,0
15_23_27,90,4096.92,4098.46,4088.72,4089.74,4088.72,4089.74,4089.23,4103.59,4113.33,4174.87,4163.08,4895.38,4067.69,4095.38,0
15_23_27,91,4096.92,4098.97,4092.31,4088.21,4089.74,4093.33,4088.72,4104.1,4105.64,4128.21,4165.13,4892.82,4084.1,4098.97,0
15_23_27,92,4093.85,4097.95,4091.79,4089.74,4084.1,4094.36,4088.72,4102.56,4096.41,4089.23,4152.31,4891.79,4098.97,4107.69,0
15_23_27,93,4092.31,4097.95,4090.26,4094.87,4083.59,4089.74,4089.74,4103.59,4098.46,4096.41,4149.23,4889.23,4097.44,4104.1,0
15_23_27,94,4095.9,4097.44,4094.36,4093.33,4088.72,4088.72,4090.77,4102.05,4100,4103.08,4154.36,4886.67,4098.46,4104.62,0
15_23_27,95,4098.97,4097.44,4096.41,4089.74,4091.79,4090.26,4090.77,4097.44,4097.95,4095.38,4151.79,4886.67,4100,4110.26,0
15_23_27,96,4097.95,4098.97,4093.33,4091.79,4090.26,4088.21,4089.23,4097.44,4097.95,4098.97,4149.74,4882.05,4097.44,4107.18,0
15_23_27,97,4098.97,4098.46,4093.85,4093.85,4089.23,4085.64,4088.72,4098.97,4097.44,4103.08,4151.79,4880,4101.03,4103.59,0
15_23_27,98,4098.46,4098.46,4095.9,4093.33,4090.26,4088.72,4089.74,4098.46,4096.92,4101.54,4151.79,4887.18,4103.08,4105.64,0
15_23_27,99,4097.95,4098.46,4094.36,4093.85,4089.23,4090.77,4089.23,4098.46,4097.44,4102.05,4152.82,4892.31,4096.92,4108.21,0
15_23_27,100,4101.03,4097.95,4091.28,4094.36,4087.69,4086.15,4084.1,4098.46,4097.44,4102.05,4152.82,4889.74,4096.41,4107.69,0
15_23_27,101,4102.05,4098.46,4091.28,4094.36,4088.72,4084.1,4081.03,4098.46,4097.44,4101.54,4152.31,4885.64,4101.03,4103.59,0
15_23_27,102,4097.95,4098.46,4092.82,4094.87,4090.77,4087.69,4084.62,4098.97,4097.44,4101.54,4152.31,4884.1,4097.44,4101.03,0
15_23_27,103,4096.41,4094.36,4093.33,4092.82,4090.77,4090.77,4090.26,4097.95,4097.44,4101.54,4152.82,4884.1,4094.87,4100.51,0
15_23_27,104,4098.46,4090.77,4091.79,4087.69,4087.69,4090.26,4091.79,4097.44,4097.44,4101.54,4152.31,4881.54,4101.03,4101.54,0
15_23_27,105,4098.46,4095.38,4091.28,4088.72,4086.67,4090.26,4089.74,4097.95,4097.44,4101.54,4151.79,4878.46,4101.54,4101.03,0
15_23_27,106,4096.92,4098.97,4091.28,4093.33,4087.69,4092.31,4088.72,4098.46,4097.44,4101.54,4151.28,4885.64,4095.9,4100,0
15_23_27,107,4096.92,4094.87,4090.77,4094.87,4089.74,4092.31,4088.21,4098.97,4097.44,4101.54,4151.79,4891.28,4095.38,4102.56,0
15_23_27,108,4096.92,4094.36,4091.79,4093.33,4090.26,4093.33,4087.18,4097.95,4097.44,4101.54,4153.33,4883.08,4097.95,4105.64,0
15_23_27,109,4096.41,4100,4092.31,4094.36,4087.69,4095.38,4087.18,4098.46,4097.44,4101.54,4154.36,4876.41,4098.46,4105.64,0
15_23_27,110,4096.92,4096.41,4092.82,4095.38,4087.18,4093.33,4088.21,4099.49,4097.44,4101.54,4153.33,4878.97,4098.97,4105.13,0
15_23_27,111,4097.44,4090.77,4094.36,4092.82,4089.23,4089.23,4089.23,4096.41,4097.44,4101.54,4150.26,4880,4097.95,4105.64,0
15_23_27,112,4095.38,4094.87,4095.38,4091.28,4091.28,4088.72,4088.72,4093.33,4097.44,4101.54,4149.23,4878.46,4097.95,4104.62,0
15_23_27,113,4094.87,4097.44,4092.31,4092.31,4090.26,4090.77,4088.21,4093.33,4097.44,4101.54,4150.77,4883.08,4099.49,4104.1,0
15_23_27,114,4098.46,4095.9,4091.28,4092.31,4088.21,4088.72,4089.74,4093.33,4097.44,4101.54,4152.31,4886.15,4098.46,4104.1,0
15_23_27,115,4102.05,4097.44,4093.33,4090.26,4089.23,4087.18,4092.82,4092.82,4097.44,4101.54,4151.79,4879.49,4097.44,4102.56,0
15_23_27,116,4097.95,4098.46,4093.33,4089.74,4090.26,4091.28,4091.28,4096.92,4097.44,4102.05,4150.77,4880.51,4097.44,4102.05,0
15_23_27,117,4090.26,4097.44,4091.79,4091.28,4089.74,4094.36,4088.21,4100,4097.44,4102.05,4150.77,4886.67,4097.95,4104.1,0
15_23_27,118,4091.79,4096.92,4092.31,4091.79,4091.28,4090.77,4089.74,4095.38,4097.44,4101.54,4151.28,4883.59,4097.44,4104.62,0
15_23_27,119,4098.46,4098.97,4091.79,4092.82,4093.85,4087.69,4090.77,4089.23,4097.44,4102.05,4151.28,4877.44,4098.97,4103.59,0
15_23_27,120,4097.44,4098.97,4091.28,4093.33,4091.28,4089.74,4088.72,4087.69,4097.44,4102.56,4150.77,4877.95,4101.54,4106.67,0
15_23_27,121,4093.85,4092.82,4091.28,4093.85,4088.21,4089.74,4088.72,4089.74,4097.44,4100,4150.77,4882.56,4096.41,4108.21,0
15_23_27,122,4096.92,4091.28,4091.79,4094.87,4088.72,4088.21,4089.23,4094.36,4097.44,4096.41,4152.82,4885.13,4091.28,4106.67,0
15_23_27,123,4101.03,4096.41,4091.79,4094.87,4089.74,4088.72,4089.23,4097.44,4097.44,4096.92,4154.36,4886.67,4096.41,4106.15,0
15_23_27,124,4099.49,4095.9,4091.79,4092.31,4088.72,4091.79,4090.26,4097.95,4097.44,4097.95,4153.33,4888.72,4101.54,4106.67,0
15_23_27,125,4092.82,4093.85,4090.77,4090.26,4088.21,4091.79,4088.72,4097.95,4097.44,4096.92,4152.82,4884.62,4098.97,4105.13,0
15_23_27,126,4090.26,4099.49,4090.26,4092.82,4089.23,4091.28,4088.21,4094.87,4097.44,4097.95,4152.82,4876.41,4097.44,4104.62,0
15_23_27,127,4097.95,4101.03,4091.79,4092.31,4089.23,4091.28,4090.77,4089.23,4097.44,4098.97,4151.28,4875.38,4098.46,4105.13,0
15_23_27,128,4101.03,4098.46,4094.36,4088.72,4088.72,4090.77,4090.26,4088.21,4097.44,4098.46,4151.28,4878.97,4097.44,4107.69,0
15_23_27,0,4092.31,4098.46,4094.36,4090.77,4090.77,4090.77,4086.15,4091.79,4097.44,4098.46,4152.31,4877.95,4097.95,4107.69,0
15_23_27,1,4088.21,4100.51,4090.77,4094.87,4092.82,4090.77,4087.69,4092.82,4097.44,4098.46,4151.28,4876.92,4098.46,4102.05,0
15_23_27,2,4092.82,4099.49,4089.74,4094.36,4091.28,4089.74,4090.26,4090.77,4097.44,4098.46,4150.77,4878.46,4096.92,4100.51,0
15_23_27,3,4096.41,4094.36,4091.28,4093.85,4092.31,4091.28,4088.72,4089.74,4097.44,4098.46,4151.28,4877.95,4098.46,4103.59,0
15_23_27,4,4097.95,4092.31,4090.77,4094.87,4092.82,4094.87,4089.74,4088.72,4097.44,4098.46,4150.77,4878.46,4097.95,4103.59,0
15_23_27,5,4098.97,4098.46,4091.28,4094.36,4088.72,4091.28,4090.26,4089.74,4097.44,4098.46,4150.77,4877.95,4093.33,4103.08,0
15_23_27,6,4100,4099.49,4092.31,4094.36,4089.23,4088.21,4084.62,4091.28,4097.44,4098.46,4152.31,4876.41,4092.82,4102.56,0
15_23_27,7,4101.54,4094.87,4091.28,4094.36,4093.85,4091.28,4081.54,4090.26,4097.44,4098.46,4152.31,4878.46,4094.36,4101.54,0
15_23_27,8,4097.95,4094.87,4089.74,4092.31,4092.31,4091.28,4083.08,4088.72,4097.44,4097.95,4151.28,4880.51,4094.87,4103.08,0
15_23_27,9,4090.77,4095.9,4090.77,4088.21,4089.23,4090.26,4083.59,4090.26,4097.44,4097.95,4150.77,4878.97,4096.92,4102.56,0
15_23_27,10,4092.82,4093.33,4091.79,4087.69,4089.74,4090.26,4083.59,4092.82,4097.44,4098.46,4151.28,4882.05,4098.46,4101.54,0
15_23_27,11,4097.95,4093.85,4091.79,4092.82,4091.79,4088.21,4084.1,4091.28,4097.44,4097.95,4151.28,4886.15,4099.49,4104.62,0
15_23_27,12,4091.79,4096.41,4090.26,4094.36,4092.31,4088.21,4082.56,4093.33,4097.44,4098.46,4150.77,4885.13,4100,4105.13,0
15_23_27,13,4088.72,4096.41,4089.74,4091.79,4092.82,4091.79,4082.56,4097.44,4097.44,4103.08,4150.77,4884.62,4092.82,4103.08,0
15_23_27,14,4095.9,4095.9,4091.28,4092.82,4092.82,4091.28,4084.1,4097.95,4097.44,4105.13,4150.77,4885.64,4088.21,4105.13,0
15_23_27,15,4096.41,4093.85,4092.82,4095.38,4091.79,4088.72,4083.08,4098.46,4097.44,4104.1,4150.77,4885.13,4093.33,4103.59,0
15_23_27,16,4093.85,4089.74,4091.79,4092.31,4088.72,4089.74,4083.59,4096.92,4097.44,4104.62,4150.77,4884.62,4094.36,4100,0
15_23_27,17,4098.97,4089.23,4090.77,4090.77,4087.69,4089.74,4084.1,4093.85,4097.44,4102.05,4150.77,4882.05,4091.28,4103.08,0
15_23_27,18,4101.03,4093.85,4089.74,4092.82,4087.69,4088.72,4082.56,4096.41,4097.44,4097.44,4150.77,4878.46,4096.41,4105.64,0
15_23_27,19,4092.31,4096.41,4089.74,4093.33,4086.67,4087.18,4084.62,4098.97,4097.44,4098.97,4150.77,4878.46,4100,4103.08,0
15_23_27,20,4088.72,4097.44,4091.28,4090.77,4089.23,4088.72,4089.74,4095.38,4097.44,4102.56,4150.77,4879.49,4093.85,4104.1,0
15_23_27,21,4095.38,4098.46,4092.31,4089.74,4090.26,4089.74,4091.79,4096.92,4097.44,4101.54,4150.77,4878.97,4093.33,4104.1,0
15_23_27,22,4095.38,4097.95,4092.82,4090.77,4087.69,4088.72,4090.77,4098.46,4097.44,4101.03,4150.77,4878.46,4098.46,4100,0
15_23_27,23,4090.77,4097.44,4090.26,4090.26,4088.72,4089.74,4090.26,4089.74,4097.44,4102.56,4150.77,4876.92,4100,4099.49,0
15_23_27,24,4093.33,4096.92,4088.72,4091.28,4091.28,4091.79,4089.74,4088.72,4097.95,4103.59,4150.26,4876.92,4098.46,4106.15,0
15_23_27,25,4099.49,4096.92,4092.31,4094.36,4091.28,4090.26,4091.28,4096.41,4096.41,4103.59,4148.72,4878.46,4097.44,4110.26,0
15_23_27,26,4098.46,4097.44,4091.28,4096.41,4088.21,4087.69,4092.31,4096.92,4097.44,4101.54,4152.31,4880,4098.46,4106.67,0
15_23_27,27,4093.85,4096.92,4086.67,4097.95,4085.64,4089.23,4091.28,4092.82,4099.49,4102.56,4154.36,4878.46,4097.95,4103.59,0
15_23_27,28,4093.85,4096.41,4088.21,4098.46,4086.67,4093.33,4088.72,4087.18,4091.79,4099.49,4148.72,4877.95,4099.49,4106.67,0
15_23_28,29,4097.44,4097.44,4091.79,4093.33,4089.23,4096.41,4089.74,4081.54,4088.72,4073.85,4161.54,4884.62,4101.03,4090.26,0
15_23_28,30,4098.46,4096.41,4093.85,4088.72,4089.74,4092.82,4090.77,4081.03,4098.46,4045.64,4184.62,4892.31,4093.85,4050.77,0
15_23_28,31,4098.46,4093.33,4098.97,4093.33,4089.74,4089.23,4090.26,4082.56,4101.03,4044.1,4176.92,4885.13,4092.31,4048.21,0
15_23_28,32,4097.44,4092.82,4101.03,4096.41,4091.79,4092.82,4091.28,4083.59,4092.82,4060,4152.31,4876.41,4104.62,4089.23,0
15_23_28,33,4094.36,4094.87,4094.36,4094.36,4090.77,4091.79,4092.82,4090.77,4091.79,4074.87,4144.1,4875.9,4109.23,4112.31,0
15_23_28,34,4093.33,4096.92,4090.77,4093.33,4090.26,4088.72,4092.31,4098.97,4093.33,4087.69,4140,4875.9,4103.59,4121.03,0
15_23_28,35,4093.33,4098.97,4093.33,4094.36,4092.31,4092.82,4089.74,4098.97,4092.82,4106.15,4132.31,4873.33,4103.08,4139.49,0
15_23_28,36,4089.23,4094.36,4091.28,4093.85,4090.77,4092.82,4088.21,4099.49,4098.97,4134.36,4134.36,4876.92,4096.41,4142.05,0
15_23_28,37,4089.74,4089.23,4087.18,4092.31,4088.72,4088.21,4088.72,4103.59,4101.54,4163.08,4134.87,4883.08,4081.54,4125.64,0
15_23_28,38,4096.41,4089.74,4089.74,4090.26,4088.72,4089.74,4090.26,4103.59,4097.95,4165.64,4137.95,4881.54,4076.92,4114.36,0
15_23_28,39,4099.49,4093.33,4093.33,4091.79,4090.26,4091.28,4089.74,4098.46,4098.46,4132.82,4149.74,4878.46,4082.56,4107.18,0
15_23_28,40,4098.46,4096.41,4091.28,4094.87,4089.74,4090.77,4089.23,4093.85,4100,4100,4154.87,4879.49,4090.77,4102.56,0
15_23_28,41,4097.44,4100,4089.23,4091.79,4087.69,4089.74,4089.23,4093.33,4097.95,4093.85,4151.79,4881.03,4096.92,4104.62,0
15_23_28,42,4095.38,4099.49,4090.26,4090.77,4089.23,4086.15,4089.23,4092.82,4096.92,4098.97,4151.79,4879.49,4097.44,4103.59,0
15_23_28,43,4094.36,4094.36,4090.77,4096.41,4091.79,4086.15,4096.41,4092.82,4098.46,4096.92,4153.33,4878.97,4098.46,4101.03,0
15_23_28,44,4094.36,4092.82,4091.79,4097.95,4088.72,4089.74,4100,4093.33,4096.92,4095.9,4151.28,4881.03,4100,4104.1,0
