TIME, ED_COUNTER, AF3, F7, F3, FC5, T7, P7, O1, O2, P8, T8, FC6, F4, F8, AF4, LABEL
15_12_41,5,4243.59,4224.62,4244.1,4244.1,4242.56,4236.41,4226.15,4235.38,4225.64,4242.05,4234.36,4254.87,4240,4238.46,0
15_12_41,6,4411.79,4328.21,4414.36,4426.15,4423.08,4396.41,4338.46,4375.38,4325.64,4353.33,4353.85,4429.23,4372.31,4329.23,0
15_12_41,7,3402.05,3728.72,3392.31,3357.44,3371.28,3484.1,3692.82,3543.08,3729.74,3538.97,3607.18,3291.79,3528.21,3655.38,0
15_12_41,8,1717.44,2713.85,1681.54,1556.92,1595.9,1939.49,2601.54,2148.72,2726.67,2274.87,2371.28,1435.38,2142.56,2596.41,0
15_12_41,9,1267.18,2436.92,1224.62,1071.28,1119.49,1524.1,2310.77,1774.36,2453.33,1989.23,2042.05,951.282,1780.51,2328.72,0
15_12_41,10,1668.21,2679.49,1636.92,1504.1,1547.69,1895.38,2572.82,2105.13,2691.28,2296.92,2331.28,1387.18,2109.23,2569.23,0
15_12_41,11,1597.95,2638.97,1568.72,1439.49,1478.97,1832.82,2524.62,2049.74,2653.85,2225.13,2274.87,1304.62,2047.18,2515.38,0
15_12_41,12,1464.1,2552.82,1430.77,1297.44,1335.38,1706.15,2432.31,1941.03,2570.26,2129.23,2176.41,1167.18,1938.46,2444.1,0
15_12_41,13,1628.21,2646.67,1597.44,1469.74,1506.67,1856.92,2537.44,2072.82,2661.54,2252.31,2292.31,1337.95,2069.74,2537.95,0
15_12_41,14,1650.77,2657.95,1623.08,1493.85,1530.26,1877.44,2549.23,2087.18,2675.9,2262.56,2304.62,1352.31,2090.26,2545.64,0
15_12_41,15,1639.49,2646.67,1605.13,1480,1516.92,1863.59,2538.46,2072.82,2660.51,2249.74,2293.33,1335.9,2076.41,2533.85,0
15_12_41,16,1661.03,2655.38,1629.23,1497.95,1535.9,1876.92,2546.67,2087.69,2658.46,2264.1,2311.28,1372.31,2089.23,2549.74,0
15_12_41,17,1653.33,2650.26,1636.41,1491.28,1528.72,1871.28,2539.49,2081.54,2656.92,2267.69,2308.21,1376.41,2085.13,2548.72,0
15_12_41,18,1660.51,2653.85,1647.69,1502.56,1542.56,1884.62,2544.62,2091.28,2669.23,2272.31,2311.79,1378.97,2090.77,2545.13,0
15_12_41,19,1667.18,2651.28,1640,1503.08,1547.69,1882.56,2541.03,2098.97,2664.62,2265.13,2308.21,1374.36,2090.77,2542.05,0
15_12_41,20,1676.92,2652.31,1644.62,1513.33,1557.95,1881.54,2541.54,2106.15,2663.59,2269.74,2308.72,1383.59,2097.95,2548.72,0
15_12_41,21,1671.79,2652.31,1653.85,1520.51,1560.51,1888.72,2543.59,2102.56,2667.18,2271.28,2313.85,1387.18,2101.54,2547.18,0
15_12_41,22,1676.41,2652.31,1657.44,1522.56,1564.62,1898.97,2545.13,2100.51,2666.15,2270.77,2319.49,1389.23,2102.56,2546.15,0
15_12_41,23,1687.18,2652.82,1656.41,1528.21,1576.92,1901.54,2545.13,2105.13,2664.1,2270.77,2318.97,1396.41,2108.21,2549.74,0
15_12_41,24,1691.28,2652.31,1661.54,1533.85,1580.51,1898.46,2544.1,2104.1,2667.69,2270.77,2318.97,1403.59,2112.82,2549.74,0
15_12_41,25,1693.33,2652.82,1672.82,1540,1582.05,1903.08,2546.15,2108.21,2664.62,2278.97,2321.54,1410.26,2111.28,2548.21,0
15_12_41,26,1694.87,2652.31,1679.49,1545.64,1590.77,1910.26,2549.23,2120.51,2655.38,2287.18,2322.56,1415.38,2113.85,2552.31,0
15_12_41,27,1697.95,2652.82,1684.1,1551.79,1597.44,1911.79,2550.77,2123.08,2658.46,2286.15,2323.59,1415.38,2123.08,2552.31,0
15_12_41,28,1703.59,2652.82,1689.23,1556.41,1598.97,1912.82,2547.69,2117.95,2668.72,2285.13,2324.1,1421.03,2127.69,2551.79,0
15_12_41,29,1711.79,2651.28,1689.74,1560.51,1608.72,1918.97,2546.15,2123.08,2669.23,2287.18,2323.59,1429.74,2124.1,2553.33,0
15_12_41,30,1719.49,2649.23,1692.31,1567.18,1616.41,1924.62,2548.21,2130.77,2666.15,2287.69,2326.67,1432.31,2125.64,2554.36,0
15_12_41,31,1722.05,2650.26,1698.97,1575.9,1617.95,1927.18,2549.74,2131.79,2667.69,2287.18,2330.77,1432.31,2130.26,2552.31,0
15_12_41,32,1719.49,2651.79,1703.59,1582.05,1621.03,1929.23,2549.23,2134.36,2668.21,2285.64,2330.77,1439.49,2132.31,2552.31,0
15_12_41,33,1725.64,2651.28,1711.79,1584.1,1626.67,1931.79,2549.74,2138.46,2666.67,2290.26,2330.77,1447.69,2135.9,2555.38,0
15_12_41,34,1738.46,2652.31,1717.95,1590.26,1633.33,1935.38,2550.26,2139.49,2667.69,2298.97,2330.77,1451.79,2140.51,2557.44,0
15_12_41,35,1738.97,2652.82,1715.38,1595.38,1641.03,1938.97,2548.72,2137.95,2668.72,2301.54,2330.26,1449.23,2140.51,2555.38,0
15_12_41,36,1739.49,2652.82,1715.9,1598.46,1647.69,1941.54,2551.28,2135.38,2665.64,2301.03,2331.79,1449.74,2141.03,2553.85,0
15_12_41,37,1749.23,2652.31,1726.67,1605.13,1647.18,1946.67,2554.87,2140,2657.95,2303.08,2338.97,1464.62,2149.23,2556.92,0
15_12_41,38,1753.33,2651.79,1735.38,1609.74,1646.15,1948.72,2553.33,2150.77,2656.92,2302.56,2341.54,1474.36,2154.36,2560.51,0
15_12_41,39,1753.85,2651.79,1738.97,1615.9,1652.82,1949.23,2552.82,2156.41,2663.59,2300.51,2339.49,1467.18,2151.79,2559.49,0
15_12_41,40,1760.51,2652.31,1744.1,1624.62,1664.1,1955.9,2557.95,2155.9,2667.69,2304.1,2342.05,1466.15,2155.38,2556.41,0
15_12_41,41,1766.67,2652.31,1751.79,1626.67,1671.79,1964.1,2558.46,2158.46,2667.18,2306.15,2345.13,1476.41,2163.08,2558.46,0
15_12_41,42,1766.67,2652.82,1757.44,1626.15,1676.41,1966.67,2555.9,2164.62,2666.67,2303.08,2345.13,1482.05,2160.51,2560,0
15_12_41,43,1770.77,2653.85,1760,1634.36,1681.03,1965.13,2557.95,2169.74,2667.18,2307.18,2347.69,1487.18,2160.51,2560.51,0
15_12_41,44,1781.03,2654.36,1763.59,1641.03,1688.72,1968.21,2558.46,2167.69,2668.21,2317.95,2349.23,1493.33,2168.72,2560.51,0
15_12_41,45,1785.64,2653.85,1768.72,1645.64,1694.36,1975.38,2556.41,2167.18,2667.69,2320.51,2350.26,1498.46,2171.79,2562.56,0
15_12_41,46,1785.13,2652.82,1772.31,1656.41,1695.9,1980,2560,2176.41,2667.18,2316.41,2349.74,1503.59,2170.77,2561.03,0
15_12_41,47,1789.23,2652.31,1775.38,1660,1698.97,1978.97,2560.51,2178.46,2667.18,2316.92,2350.26,1510.26,2175.9,2563.08,0
15_12_41,48,1795.9,2652.82,1778.97,1656.92,1705.13,1981.54,2556.92,2175.9,2668.21,2320,2356.41,1512.31,2178.97,2565.64,0
15_12_41,49,1799.49,2652.31,1787.18,1663.59,1712.31,1987.18,2557.44,2181.54,2668.72,2320.51,2359.49,1514.36,2178.46,2565.64,0
15_12_41,50,1801.54,2652.31,1794.36,1672.82,1718.97,1990.77,2558.46,2185.64,2667.18,2319.49,2356.41,1517.44,2182.05,2565.13,0
15_12_41,51,1805.13,2653.85,1798.97,1675.9,1724.1,1993.85,2556.41,2185.13,2667.69,2318.46,2355.9,1522.56,2185.64,2567.69,0
15_12_41,52,1811.28,2654.87,1798.97,1684.62,1728.21,1996.41,2557.44,2191.28,2668.72,2326.67,2360.51,1528.72,2188.21,2570.77,0
15_12_41,53,1818.46,2653.85,1801.54,1691.79,1730.26,1999.49,2561.03,2193.85,2668.72,2335.38,2360.51,1532.82,2192.82,2569.74,0
15_12_41,54,1819.49,2652.31,1809.74,1687.18,1734.36,2003.08,2562.05,2191.79,2669.23,2333.85,2358.97,1535.38,2194.87,2569.23,0
15_12_41,55,1820,2653.33,1816.41,1691.28,1741.54,2006.67,2563.08,2201.03,2669.74,2333.33,2360.51,1540,2194.36,2569.74,0
15_12_41,56,1828.72,2654.36,1814.36,1704.62,1748.21,2009.23,2562.05,2209.23,2668.72,2336.92,2363.59,1542.05,2196.92,2566.67,0
15_12_41,57,1835.38,2653.33,1815.9,1705.13,1754.87,2014.87,2564.1,2204.62,2668.21,2336.92,2365.64,1544.1,2201.03,2565.13,0
15_12_41,58,1834.36,2651.28,1830.26,1707.18,1761.03,2018.46,2566.67,2204.1,2668.21,2335.9,2370.26,1556.41,2204.62,2572.31,0
15_12_41,59,1833.33,2653.33,1837.44,1720.51,1763.59,2019.49,2567.18,2208.72,2668.21,2336.41,2374.36,1562.05,2207.18,2575.38,0
15_12_41,60,1842.05,2656.41,1835.38,1722.56,1766.15,2022.56,2567.18,2207.18,2668.21,2338.46,2372.82,1557.44,2210.77,2572.82,0
15_12_41,61,1853.33,2654.36,1842.05,1717.95,1774.36,2027.18,2569.74,2210.77,2668.21,2344.1,2371.79,1558.97,2214.36,2572.31,0
15_12_41,62,1856.41,2652.82,1847.69,1727.69,1778.97,2028.21,2568.21,2221.03,2668.21,2348.72,2372.82,1566.67,2216.92,2575.9,0
15_12_41,63,1854.87,2654.36,1847.18,1738.97,1779.49,2027.18,2567.18,2223.08,2668.72,2349.74,2374.87,1570.77,2217.44,2576.41,0
15_12_41,64,1859.49,2653.85,1853.85,1735.9,1784.62,2032.31,2570.26,2218.97,2669.74,2352.31,2378.97,1576.92,2221.03,2576.41,0
15_12_41,65,1868.21,2654.36,1861.54,1738.46,1793.33,2040,2569.74,2224.62,2670.26,2351.79,2378.97,1583.08,2225.13,2574.87,0
15_12_41,66,1872.82,2655.9,1862.05,1749.74,1797.44,2041.03,2569.74,2235.38,2671.28,2352.31,2378.97,1588.72,2227.69,2575.38,0
15_12_41,67,1870.77,2654.87,1864.1,1754.87,1798.97,2042.05,2572.82,2237.44,2672.31,2355.9,2383.08,1593.33,2229.23,2578.46,0
15_12_41,68,1870.26,2653.85,1871.28,1757.44,1805.64,2049.23,2571.28,2236.41,2671.79,2355.9,2385.13,1597.44,2231.28,2582.56,0
15_12_41,69,1876.41,2654.87,1876.41,1764.62,1811.79,2054.87,2570.77,2236.92,2670.26,2357.95,2384.62,1599.49,2233.85,2581.54,0
15_12_41,70,1885.64,2656.41,1884.62,1767.69,1812.82,2053.85,2575.38,2236.92,2671.28,2364.62,2387.18,1598.46,2235.9,2580.51,0
15_12_41,71,1887.69,2657.44,1889.23,1767.69,1815.38,2056.92,2577.44,2240.51,2672.82,2367.18,2390.77,1600.51,2238.46,2582.56,0
15_12_41,72,1886.15,2655.9,1884.62,1775.9,1822.56,2062.56,2572.82,2242.56,2671.28,2367.69,2392.31,1610.26,2243.59,2583.08,0
15_12_41,73,1892.82,2654.87,1887.69,1785.64,1829.74,2064.62,2573.85,2243.08,2670.77,2369.74,2391.28,1615.38,2248.21,2581.03,0
15_12_41,74,1901.03,2657.95,1897.95,1786.15,1832.82,2066.67,2576.92,2250.26,2672.31,2368.72,2392.31,1612.31,2248.72,2580.51,0
15_12_41,75,1900.51,2657.44,1901.03,1786.67,1834.36,2069.74,2577.44,2256.41,2671.79,2368.21,2393.33,1618.46,2250.26,2583.59,0
15_12_41,76,1902.05,2655.9,1900,1794.87,1839.49,2075.38,2576.41,2251.79,2672.31,2373.85,2393.85,1626.67,2249.74,2584.62,0
15_12_41,77,1912.31,2657.44,1904.1,1805.13,1847.18,2080,2575.9,2251.79,2671.28,2378.46,2395.38,1624.62,2250.26,2583.08,0
15_12_41,78,1918.46,2658.46,1910.77,1809.23,1855.9,2081.03,2578.46,2255.9,2669.74,2380,2394.87,1625.13,2255.9,2584.1,0
15_12_41,79,1918.46,2656.41,1923.08,1806.15,1858.46,2082.05,2577.95,2254.87,2677.44,2381.54,2398.46,1638.97,2262.56,2590.26,0
15_12_41,80,1926.15,2657.95,1930.26,1807.18,1856.92,2088.21,2578.46,2262.56,2683.08,2383.59,2405.64,1644.1,2265.13,2593.33,0
15_12_41,81,1935.38,2663.08,1925.13,1814.87,1861.03,2091.28,2581.54,2271.79,2674.87,2383.59,2407.18,1638.97,2266.15,2591.28,0
15_12_41,82,1934.87,2665.13,1925.64,1821.03,1868.72,2091.79,2585.13,2269.74,2669.74,2384.1,2406.67,1640.51,2265.64,2588.72,0
15_12_41,83,1932.82,2665.13,1935.38,1825.13,1870.77,2093.85,2584.62,2269.74,2678.46,2387.18,2407.69,1648.72,2267.18,2591.28,0
15_12_41,84,1938.46,2667.69,1936.92,1830.77,1872.31,2096.41,2584.1,2272.31,2684.62,2389.74,2407.18,1654.36,2272.31,2591.79,0
15_12_41,85,1944.62,2670.77,1937.44,1834.36,1877.95,2099.49,2588.21,2270.77,2682.05,2391.79,2409.23,1662.56,2277.95,2592.31,0
15_12_41,86,1947.69,2663.08,1944.62,1836.92,1885.64,2105.64,2586.67,2277.44,2681.54,2389.74,2411.79,1669.23,2276.41,2594.36,0
15_12_41,87,1949.74,2657.95,1950.26,1844.62,1892.31,2110.77,2582.56,2287.69,2683.59,2388.72,2410.77,1669.74,2277.44,2596.92,0
15_12_41,88,1955.38,2665.64,1952.82,1853.85,1894.36,2112.82,2586.67,2285.64,2684.1,2393.85,2415.38,1672.31,2285.64,2596.92,0
15_12_42,89,1963.59,2670.26,1955.38,1855.9,1894.87,2114.36,2591.28,2283.59,2682.05,2400,2421.54,1675.9,2289.74,2596.92,0
15_12_42,90,1966.67,2668.21,1959.49,1852.82,1900,2118.46,2589.74,2286.67,2682.05,2401.03,2421.03,1674.87,2288.72,2598.97,0
15_12_42,91,1965.64,2667.18,1966.15,1857.95,1906.15,2123.59,2590.77,2285.64,2685.13,2403.08,2420.51,1677.95,2290.26,2598.46,0
15_12_42,92,1966.67,2669.23,1969.23,1870.26,1913.33,2124.62,2593.85,2289.74,2685.13,2406.15,2423.59,1686.67,2292.31,2600,0
15_12_42,93,1969.23,2668.21,1969.74,1873.33,1918.46,2125.13,2591.28,2299.49,2682.56,2404.1,2423.08,1693.33,2293.85,2601.03,0
15_12_42,94,1973.85,2667.69,1972.82,1868.72,1919.49,2129.23,2589.74,2301.54,2683.08,2406.67,2422.05,1695.38,2297.95,2601.03,0
15_12_42,95,1978.97,2666.67,1977.95,1874.87,1922.05,2133.85,2592.31,2300,2685.64,2413.33,2423.08,1696.41,2297.95,2601.54,0
15_12_42,96,1983.08,2668.21,1986.67,1885.64,1930.77,2137.44,2591.28,2303.08,2685.64,2412.82,2425.64,1699.49,2297.95,2603.59,0
15_12_42,97,1987.18,2669.74,1989.23,1886.67,1935.9,2140,2593.85,2301.54,2684.1,2410.26,2428.21,1695.9,2306.15,2604.1,0
15_12_42,98,1994.87,2668.21,1985.13,1890.77,1932.82,2140.51,2598.97,2303.08,2684.1,2412.31,2429.23,1692.31,2311.28,2603.08,0
15_12_42,99,1996.92,2668.21,1992.82,1901.54,1935.9,2143.59,2600,2311.79,2684.1,2416.92,2431.28,1700,2308.21,2603.08,0
15_12_42,100,1995.9,2669.74,2006.15,1903.59,1945.13,2147.18,2598.46,2313.33,2684.62,2419.49,2437.44,1718.97,2311.28,2607.18,0
15_12_42,101,2002.56,2669.74,2008.21,1901.54,1951.28,2149.74,2598.46,2312.31,2684.1,2420,2438.97,1724.62,2318.46,2608.21,0
15_12_42,102,2010.26,2669.23,2008.21,1908.72,1952.31,2151.28,2598.97,2318.46,2684.1,2421.03,2435.38,1720.51,2318.46,2607.18,0
15_12_42,103,2010.26,2669.23,2013.33,1918.46,1954.36,2156.92,2600.51,2320.51,2685.64,2424.1,2435.38,1723.08,2318.97,2607.18,0
15_12_42,104,2011.28,2669.74,2015.9,1919.49,1959.49,2161.54,2603.08,2318.97,2686.67,2426.15,2438.46,1729.74,2324.62,2610.77,0
15_12_42,105,2021.03,2670.26,2019.49,1916.41,1965.64,2163.08,2602.05,2318.97,2686.67,2426.15,2441.54,1731.28,2326.67,2608.72,0
15_12_42,106,2027.69,2671.28,2025.64,1923.59,1968.72,2166.15,2600.51,2318.97,2688.21,2428.21,2443.59,1733.33,2327.18,2607.69,0
15_12_42,107,2026.15,2669.74,2028.21,1933.85,1971.28,2170.77,2605.13,2323.59,2689.23,2431.79,2443.59,1737.44,2328.21,2611.28,0
15_12_42,108,2023.59,2668.21,2026.67,1936.92,1977.44,2173.33,2607.18,2333.33,2687.69,2435.38,2445.13,1740,2330.26,2614.87,0
15_12_42,109,2029.23,2671.28,2027.69,1941.03,1982.05,2174.36,2606.15,2334.36,2688.21,2437.95,2447.69,1744.1,2332.82,2614.87,0
15_12_42,110,2038.46,2674.87,2033.85,1947.69,1981.54,2176.41,2605.13,2333.85,2689.74,2436.92,2446.67,1749.23,2335.9,2615.38,0
15_12_42,111,2041.54,2673.33,2041.54,1949.74,1987.18,2176.92,2606.67,2337.44,2688.72,2434.87,2446.15,1751.28,2337.44,2619.49,0
15_12_42,112,2045.13,2674.87,2049.23,1948.21,1994.87,2179.49,2607.18,2334.36,2687.69,2437.95,2448.72,1751.28,2341.03,2618.97,0
15_12_42,113,2049.74,2676.92,2055.9,1949.74,1994.87,2185.64,2607.18,2335.38,2689.23,2442.56,2451.28,1751.79,2343.08,2615.38,0
15_12_42,114,2047.18,2678.46,2056.92,1955.9,1995.9,2189.74,2607.69,2348.72,2687.69,2441.54,2454.36,1753.85,2344.1,2614.36,0
15_12_42,115,2046.67,2677.95,2057.44,1964.1,2005.64,2192.31,2608.72,2352.31,2687.18,2442.56,2457.44,1758.46,2348.72,2618.46,0
15_12_42,116,2057.44,2677.44,2060.51,1965.64,2012.82,2196.41,2609.74,2345.64,2694.36,2451.79,2457.44,1766.15,2351.79,2621.03,0
15_12_42,117,2066.15,2680,2058.46,1967.18,2010.26,2197.95,2607.18,2347.69,2700.51,2454.36,2457.95,1778.46,2352.31,2621.54,0
15_12_42,118,2060.51,2684.62,2057.44,1976.41,2011.79,2198.97,2608.72,2352.31,2698.97,2448.72,2460.51,1780.51,2354.87,2621.03,0
15_12_42,119,2061.54,2685.13,2066.15,1981.54,2020.51,2201.54,2616.41,2355.38,2697.95,2449.23,2462.05,1773.85,2356.41,2622.05,0
15_12_42,120,2071.79,2682.56,2076.41,1983.59,2025.64,2205.13,2617.95,2362.05,2700.51,2452.82,2462.05,1777.95,2357.44,2621.03,0
15_12_42,121,2073.85,2684.1,2084.1,1982.56,2025.13,2205.64,2615.9,2364.62,2701.03,2454.36,2468.21,1791.79,2360.51,2623.59,0
15_12_42,122,2072.82,2685.64,2088.21,1981.03,2030.77,2207.69,2614.87,2363.08,2700,2457.95,2473.85,1790.77,2362.56,2628.21,0
15_12_42,123,2080.51,2683.59,2089.74,1988.72,2039.49,2213.85,2615.38,2367.18,2698.97,2460.51,2472.82,1786.67,2365.64,2629.74,0
15_12_42,124,2087.69,2683.08,2089.23,1998.46,2041.03,2215.9,2618.46,2367.69,2699.49,2457.44,2474.36,1793.85,2370.77,2625.13,0
15_12_42,125,2086.67,2685.64,2090.26,2002.05,2042.05,2214.87,2623.08,2366.15,2702.05,2460.51,2475.38,1798.97,2374.87,2626.67,0
15_12_42,126,2089.23,2687.18,2091.79,2006.15,2050.77,2221.54,2622.56,2371.28,2702.05,2467.69,2472.31,1800.51,2374.87,2632.82,0
15_12_42,127,2096.41,2685.13,2096.41,2012.82,2057.95,2227.69,2622.05,2371.28,2701.03,2468.21,2473.85,1804.1,2373.85,2634.36,0
15_12_42,128,2098.46,2685.13,2103.08,2012.82,2056.92,2225.64,2625.64,2368.21,2700.51,2466.15,2480,1809.23,2374.87,2631.79,0
15_12_42,0,2098.46,2686.67,2105.64,2012.82,2060,2226.67,2623.59,2374.36,2701.03,2469.23,2480.51,1811.79,2380,2631.79,0
15_12_42,1,2102.05,2685.64,2106.15,2020,2069.74,2234.36,2623.08,2380,2701.03,2474.36,2478.46,1813.33,2385.13,2634.87,0
15_12_42,2,2105.13,2685.13,2115.38,2025.64,2072.31,2235.38,2624.62,2381.54,2701.54,2474.36,2479.49,1813.33,2384.62,2635.38,0
15_12_42,3,2108.72,2685.64,2125.64,2024.62,2069.74,2235.9,2622.05,2384.62,2703.59,2471.79,2484.62,1812.82,2385.64,2635.9,0
15_12_42,4,2116.41,2687.18,2124.1,2027.18,2074.36,2241.03,2625.64,2384.1,2705.64,2475.9,2488.21,1814.36,2388.21,2638.46,0
15_12_42,5,2122.56,2687.18,2121.03,2037.44,2082.05,2241.54,2629.74,2384.1,2703.59,2483.08,2489.23,1824.1,2390.77,2640.51,0
15_12_42,6,2121.03,2686.67,2130.26,2043.08,2086.15,2242.05,2627.69,2391.28,2702.56,2482.05,2489.74,1830.77,2393.33,2637.44,0
15_12_42,7,2119.49,2686.67,2137.95,2041.54,2088.72,2249.23,2628.72,2394.36,2705.64,2480,2489.23,1831.79,2397.44,2635.38,0
15_12_42,8,2125.64,2688.72,2133.85,2041.54,2091.79,2255.9,2633.85,2394.87,2705.13,2483.59,2490.26,1834.87,2398.97,2637.44,0
15_12_42,9,2134.36,2688.72,2135.38,2047.69,2094.36,2252.82,2632.82,2400,2705.13,2485.64,2495.9,1840.51,2399.49,2642.05,0
15_12_42,10,2136.92,2689.74,2141.03,2057.44,2099.49,2254.87,2631.28,2400,2712.82,2486.67,2496.41,1833.85,2401.54,2640.51,0
15_12_42,11,2134.87,2694.36,2140.51,2060,2105.13,2261.03,2635.9,2398.97,2717.95,2488.21,2492.31,1830.26,2403.08,2641.54,0
15_12_42,12,2136.92,2693.33,2145.64,2058.97,2107.18,2260.51,2638.97,2402.05,2714.87,2490.77,2495.9,1842.56,2405.64,2646.67,0
15_12_42,13,2137.44,2691.79,2160.51,2064.62,2109.74,2260.51,2637.95,2405.64,2714.36,2495.38,2503.08,1856.92,2410.26,2650.26,0
15_12_42,14,2138.46,2696.41,2164.62,2072.82,2115.9,2270.26,2637.95,2409.74,2716.41,2498.97,2501.03,1860.51,2413.85,2648.21,0
15_12_42,15,2148.72,2701.54,2157.95,2075.38,2118.46,2275.38,2638.46,2411.79,2715.38,2496.92,2498.46,1858.97,2414.36,2648.72,0
15_12_42,16,2155.38,2701.54,2158.46,2074.36,2118.97,2271.79,2640.51,2410.77,2713.85,2496.92,2505.13,1860.51,2415.9,2651.79,0
15_12_42,17,2151.28,2701.03,2164.1,2076.41,2122.05,2275.9,2638.97,2415.9,2715.9,2504.1,2508.21,1863.59,2417.44,2649.74,0
15_12_42,18,2154.36,2700.51,2166.15,2083.08,2124.62,2281.03,2638.97,2422.56,2717.44,2506.67,2504.62,1865.64,2417.44,2650.77,0
15_12_42,19,2166.67,2700,2169.23,2091.28,2124.62,2280,2641.03,2421.03,2717.95,2504.1,2506.67,1868.21,2423.08,2654.87,0
15_12_42,20,2171.28,2701.54,2175.38,2093.33,2129.74,2282.05,2638.97,2420.51,2717.44,2504.62,2511.79,1873.33,2428.21,2654.36,0
15_12_42,21,2167.18,2701.03,2178.97,2093.85,2138.46,2287.69,2640,2425.64,2717.44,2505.13,2510.77,1873.85,2425.64,2651.79,0
15_12_42,22,2169.74,2700.51,2182.56,2098.46,2138.97,2287.69,2644.62,2430.26,2717.44,2506.15,2509.74,1872.82,2427.69,2654.36,0
15_12_42,23,2180,2702.05,2187.18,2102.56,2141.54,2288.72,2645.64,2432.82,2717.44,2510.26,2513.33,1873.85,2434.87,2655.38,0
15_12_42,24,2183.59,2702.05,2188.72,2104.1,2150.26,2294.36,2642.56,2432.82,2717.95,2512.82,2512.31,1877.44,2435.9,2654.87,0
15_12_42,25,2180.51,2701.54,2187.69,2107.69,2155.38,2295.38,2642.05,2433.33,2716.92,2512.31,2511.28,1882.56,2434.36,2657.44,0
15_12_42,26,2183.08,2700.51,2191.79,2114.36,2153.85,2296.41,2648.21,2436.92,2717.44,2514.36,2520,1889.23,2437.95,2660.51,0
15_12_42,27,2189.23,2702.05,2198.97,2118.97,2157.44,2303.08,2653.33,2440,2718.46,2515.9,2525.64,1890.77,2442.05,2660,0
15_12_42,28,2189.23,2704.62,2203.08,2119.49,2163.59,2302.56,2652.82,2440.51,2719.49,2514.87,2523.59,1892.82,2444.1,2661.54,0
15_12_42,29,2192.82,2704.62,2205.13,2121.03,2164.1,2301.03,2652.82,2442.05,2719.49,2517.44,2525.13,1898.97,2444.1,2661.03,0
15_12_42,30,2200,2701.54,2209.23,2126.15,2164.62,2307.69,2654.87,2445.13,2718.97,2522.56,2528.21,1905.64,2445.13,2663.59,0
15_12_42,31,2204.1,2703.59,2210.77,2132.31,2170.77,2312.82,2655.38,2450.77,2723.08,2523.59,2525.13,1899.49,2449.23,2665.64,0
15_12_42,32,2205.13,2707.69,2212.31,2133.85,2177.44,2311.79,2654.36,2452.31,2730.26,2523.08,2526.15,1895.38,2450.26,2664.1,0
15_12_42,33,2207.18,2705.13,2217.44,2134.36,2177.44,2315.38,2655.9,2452.31,2734.87,2526.15,2531.28,1908.21,2451.28,2663.08,0
15_12_42,34,2212.31,2707.18,2224.62,2138.97,2178.46,2322.05,2653.85,2456.92,2728.72,2530.77,2532.82,1921.54,2458.46,2668.72,0
15_12_42,35,2215.9,2713.85,2227.69,2144.1,2186.15,2324.62,2654.36,2460.51,2721.54,2531.79,2532.82,1920.51,2462.05,2672.82,0
15_12_42,36,2217.44,2713.85,2227.69,2147.69,2192.31,2325.64,2658.46,2458.46,2726.15,2530.77,2531.79,1918.46,2458.46,2667.69,0
15_12_42,37,2220,2711.28,2230.77,2151.79,2192.31,2326.15,2655.9,2456.41,2734.36,2531.79,2533.85,1922.05,2460,2665.64,0
15_12_42,38,2222.05,2714.36,2236.92,2155.9,2194.36,2327.18,2657.95,2461.03,2733.33,2531.28,2540,1922.56,2465.64,2669.74,0
15_12_42,39,2222.56,2714.36,2237.44,2157.44,2201.54,2332.82,2661.03,2466.67,2729.74,2533.85,2543.08,1924.62,2468.21,2672.31,0
15_12_42,40,2230.77,2712.31,2234.87,2161.03,2204.1,2336.92,2661.54,2468.21,2731.28,2538.46,2541.03,1926.67,2466.15,2671.28,0
15_12_42,41,2240,2716.92,2240,2167.69,2202.56,2333.85,2663.59,2468.21,2732.82,2540.51,2541.54,1930.26,2467.18,2671.79,0
15_12_42,42,2238.46,2718.46,2249.23,2171.28,2207.69,2333.33,2665.13,2471.79,2733.33,2541.03,2542.05,1934.36,2472.82,2673.85,0
15_12_42,43,2236.92,2717.44,2251.28,2171.79,2214.36,2342.05,2666.67,2472.82,2734.36,2542.56,2542.05,1936.41,2476.41,2677.44,0
15_12_42,44,2237.44,2717.44,2250.77,2173.85,2215.9,2349.23,2670.26,2469.74,2733.33,2544.1,2542.56,1935.38,2474.87,2677.95,0
15_12_42,45,2240,2717.95,2256.41,2178.97,2216.41,2347.69,2670.26,2473.85,2734.36,2547.18,2546.67,1938.46,2478.46,2677.95,0
15_12_42,46,2248.72,2717.95,2261.54,2183.08,2224.1,2348.72,2667.18,2481.54,2733.85,2548.72,2549.74,1942.56,2482.56,2677.44,0
15_12_42,47,2254.36,2717.44,2261.03,2185.64,2228.72,2353.33,2671.28,2484.1,2732.82,2547.69,2549.23,1945.13,2482.56,2680,0
15_12_42,48,2253.85,2717.95,2262.56,2188.72,2227.69,2355.9,2674.87,2483.59,2737.44,2552.31,2549.74,1946.67,2485.13,2682.05,0
15_12_42,49,2252.82,2721.03,2270.26,2193.85,2229.74,2358.46,2669.74,2483.59,2739.49,2559.49,2552.82,1954.36,2490.77,2684.1,0
15_12_42,50,2255.9,2723.08,2272.31,2194.87,2236.92,2360,2670.77,2485.13,2738.46,2558.46,2557.44,1959.49,2489.74,2684.62,0
15_12_42,51,2265.13,2721.54,2268.21,2193.85,2243.59,2357.95,2673.33,2489.23,2739.49,2556.92,2557.44,1961.03,2489.74,2684.1,0
15_12_42,52,2270.77,2723.08,2274.87,2204.1,2246.15,2362.56,2673.33,2490.26,2739.49,2558.46,2552.31,1957.95,2491.79,2684.62,0
15_12_42,53,2268.72,2725.13,2285.13,2211.28,2246.67,2371.28,2674.87,2488.72,2739.49,2560,2553.85,1957.44,2494.36,2686.15,0
15_12_42,54,2269.23,2720.51,2284.62,2206.15,2249.74,2368.72,2675.9,2494.36,2744.62,2562.05,2562.56,1968.21,2495.9,2687.69,0
15_12_42,55,2271.28,2721.54,2284.62,2208.72,2253.85,2369.74,2677.95,2500.51,2750.26,2562.56,2564.1,1977.95,2495.38,2688.21,0
15_12_42,56,2273.33,2729.23,2290.77,2219.49,2254.36,2377.44,2677.44,2500,2749.74,2565.13,2562.05,1973.85,2500,2690.26,0
15_12_42,57,2282.56,2729.74,2290.26,2220.51,2257.95,2376.41,2677.95,2499.49,2748.72,2570.77,2565.13,1970.26,2505.64,2690.26,0
15_12_42,58,2288.21,2730.26,2290.77,2217.44,2264.1,2375.9,2680.51,2502.56,2748.21,2572.31,2566.15,1977.95,2504.1,2690.77,0
15_12_42,59,2284.62,2733.33,2300,2225.64,2266.15,2383.59,2683.08,2505.64,2748.72,2572.31,2567.18,1979.49,2504.62,2692.82,0
15_12_42,60,2287.18,2733.33,2303.59,2232.31,2265.64,2384.62,2684.62,2506.67,2749.23,2575.38,2569.74,1976.41,2513.33,2696.41,0
15_12_42,61,2289.74,2731.79,2298.46,2228.72,2271.79,2384.62,2685.64,2505.64,2749.23,2575.9,2569.74,1980.51,2513.33,2695.38,0
15_12_42,62,2287.18,2734.36,2300,2230.77,2276.92,2390.26,2686.67,2506.67,2750.26,2574.87,2570.26,1989.74,2511.28,2696.41,0
15_12_42,63,2292.31,2734.36,2309.23,2241.03,2276.92,2391.79,2685.64,2512.82,2749.74,2577.44,2573.85,1992.82,2516.41,2700,0
15_12_42,64,2301.03,2731.79,2314.87,2242.56,2278.46,2390.77,2686.15,2515.38,2750.26,2580.51,2576.92,1990.26,2517.44,2701.54,0
15_12_42,65,2302.56,2733.85,2315.9,2239.49,2285.13,2396.41,2687.18,2515.9,2750.26,2579.49,2575.9,1989.23,2516.92,2698.46,0
15_12_42,66,2302.56,2734.36,2318.46,2246.15,2288.21,2398.46,2685.64,2520,2750.26,2577.95,2577.95,1994.87,2521.03,2700.51,0
15_12_42,67,2302.56,2734.36,2320.51,2256.41,2287.69,2400,2688.72,2522.56,2754.36,2581.54,2582.05,1998.46,2523.08,2705.13,0
15_12_42,68,2306.15,2735.38,2320.51,2257.95,2290.26,2405.13,2688.72,2522.05,2754.36,2588.72,2585.64,2002.05,2526.15,2705.13,0
15_12_42,69,2315.38,2737.95,2324.62,2255.38,2295.38,2405.64,2687.69,2522.56,2753.33,2589.74,2584.62,2007.18,2529.74,2704.1,0
15_12_42,70,2320.51,2737.95,2331.28,2255.38,2297.44,2405.13,2694.87,2525.13,2754.36,2588.21,2581.54,2008.72,2529.74,2704.1,0
15_12_42,71,2316.92,2735.9,2332.31,2263.08,2298.97,2410.77,2697.44,2529.23,2755.38,2590.26,2583.59,2011.79,2529.74,2704.1,0
15_12_42,72,2318.97,2739.49,2333.85,2269.74,2305.64,2413.85,2693.33,2530.77,2755.38,2591.79,2586.15,2018.46,2534.36,2705.13,0
15_12_42,73,2322.56,2744.62,2335.38,2270.26,2310.77,2414.36,2697.95,2531.28,2758.97,2591.28,2583.59,2014.36,2537.95,2706.67,0
15_12_42,74,2320,2745.64,2334.87,2274.36,2311.28,2420,2705.13,2536.41,2763.08,2593.85,2585.64,2008.72,2539.49,2709.23,0
15_12_42,75,2320.51,2741.03,2340,2280,2309.23,2421.54,2701.54,2543.08,2764.1,2596.92,2592.31,2022.05,2538.97,2712.31,0
15_12_42,76,2330.26,2740.51,2350.26,2277.44,2310.77,2421.03,2698.97,2541.54,2765.13,2595.38,2595.38,2033.33,2538.97,2711.79,0
15_12_42,77,2337.44,2744.1,2352.31,2280,2313.85,2425.64,2703.59,2537.44,2764.62,2596.92,2595.38,2025.64,2544.62,2711.79,0
15_12_42,78,2334.36,2744.62,2349.23,2290.26,2320,2430.77,2704.62,2540,2764.62,2604.62,2594.36,2023.59,2546.67,2714.87,0
15_12_42,79,2336.41,2747.18,2353.85,2290.26,2328.72,2430.26,2701.54,2545.64,2765.64,2607.18,2594.87,2031.79,2546.67,2717.44,0
15_12_42,80,2347.69,2749.23,2361.54,2285.64,2329.74,2430.26,2702.05,2545.64,2765.64,2603.08,2597.44,2032.82,2550.26,2714.87,0
15_12_42,81,2352.31,2749.23,2363.59,2294.36,2327.18,2435.38,2704.62,2545.64,2765.13,2604.1,2597.95,2033.33,2553.33,2718.97,0
15_12_42,82,2350.77,2749.23,2362.56,2304.1,2332.82,2440,2706.67,2552.31,2766.15,2607.69,2598.46,2037.44,2553.85,2721.54,0
15_12_42,83,2351.79,2749.74,2365.64,2300,2339.49,2440.51,2707.69,2558.97,2767.18,2607.69,2602.05,2042.56,2553.33,2721.03,0
15_12_42,84,2353.85,2751.28,2366.15,2298.97,2337.44,2442.56,2709.74,2558.46,2764.62,2607.18,2603.08,2043.08,2554.87,2720.51,0
15_12_42,85,2353.33,2750.26,2365.64,2308.21,2337.44,2446.15,2711.79,2557.95,2766.67,2608.72,2605.64,2042.56,2560,2722.56,0
15_12_42,86,2352.82,2750.26,2372.82,2310.26,2345.13,2445.64,2712.31,2560,2772.82,2613.85,2607.69,2041.03,2559.49,2722.56,0
15_12_42,87,2356.92,2751.28,2380.51,2308.72,2346.67,2448.21,2712.82,2562.05,2770.77,2614.87,2607.69,2044.1,2558.97,2723.59,0
15_12_43,88,2363.59,2753.85,2381.54,2316.41,2346.15,2455.38,2711.28,2561.03,2767.18,2614.36,2611.79,2050.26,2567.18,2724.62,0
15_12_43,89,2368.21,2753.85,2383.08,2320,2353.33,2456.92,2711.28,2560.51,2776.41,2619.49,2615.38,2055.9,2571.28,2724.62,0
15_12_43,90,2367.69,2753.85,2388.72,2316.41,2358.97,2454.87,2713.85,2565.64,2783.59,2623.59,2614.36,2059.49,2567.69,2727.18,0
15_12_43,91,2369.23,2758.46,2392.82,2321.54,2358.46,2457.95,2714.36,2568.21,2780.51,2623.08,2614.36,2060.51,2570.77,2729.74,0
15_12_43,92,2374.36,2757.44,2394.36,2330.77,2363.08,2463.08,2717.44,2565.13,2778.97,2623.59,2615.9,2063.59,2572.31,2730.26,0
15_12_43,93,2380.51,2755.9,2394.36,2329.23,2366.67,2462.05,2719.49,2570.26,2781.54,2623.08,2615.38,2063.59,2572.31,2730.77,0
15_12_43,94,2384.1,2761.54,2393.85,2329.74,2366.67,2462.05,2717.95,2577.44,2781.54,2622.56,2616.92,2057.95,2577.44,2729.74,0
15_12_43,95,2383.08,2766.15,2396.92,2336.92,2371.28,2465.13,2722.05,2576.41,2780.51,2627.69,2619.49,2060,2576.41,2727.18,0
15_12_43,96,2382.05,2763.59,2404.1,2335.38,2376.41,2467.18,2726.15,2575.9,2780.51,2628.21,2625.64,2075.38,2576.92,2734.36,0
15_12_43,97,2385.64,2763.08,2410.26,2334.36,2377.44,2470.77,2724.62,2579.49,2780.51,2627.18,2630.26,2081.54,2584.1,2738.97,0
15_12_43,98,2388.72,2765.64,2412.31,2344.1,2378.46,2473.85,2725.64,2578.97,2780.51,2633.85,2628.72,2073.85,2585.64,2736.41,0
15_12_43,99,2390.77,2766.67,2413.85,2350.77,2384.1,2473.85,2728.72,2583.08,2780.51,2640,2627.18,2074.87,2584.1,2734.87,0
15_12_43,100,2394.87,2767.69,2413.33,2347.69,2388.72,2475.9,2725.13,2590.77,2780,2638.46,2628.21,2085.64,2587.69,2738.97,0
15_12_43,101,2400,2767.18,2412.82,2348.21,2390.77,2481.03,2725.64,2590.77,2781.03,2636.92,2630.26,2088.21,2589.74,2740,0
15_12_43,102,2403.59,2767.18,2414.87,2354.87,2392.31,2483.08,2729.74,2588.21,2784.62,2639.49,2631.28,2087.18,2591.28,2740.51,0
15_12_43,103,2404.62,2772.82,2414.36,2360.51,2395.38,2484.62,2729.74,2589.74,2787.18,2639.49,2631.79,2087.18,2593.33,2741.54,0
15_12_43,104,2404.62,2774.36,2419.49,2362.05,2398.97,2489.23,2731.28,2591.79,2787.69,2638.97,2635.38,2088.21,2594.87,2742.56,0
15_12_43,105,2408.21,2770.77,2431.28,2363.59,2401.54,2490.26,2731.79,2592.82,2787.69,2640.51,2636.41,2089.74,2597.95,2742.05,0
15_12_43,106,2411.28,2770.77,2435.38,2365.13,2405.13,2491.28,2731.79,2595.9,2787.18,2642.05,2637.95,2090.26,2600,2742.56,0
15_12_43,107,2410.77,2773.33,2430.77,2365.13,2407.69,2494.36,2734.87,2595.9,2787.69,2648.21,2638.46,2090.77,2602.05,2746.15,0
15_12_43,108,2413.85,2772.31,2433.33,2370.26,2410.26,2495.38,2735.9,2594.36,2791.28,2652.82,2638.97,2095.38,2603.08,2748.21,0
15_12_43,109,2422.05,2771.79,2438.46,2377.44,2411.79,2495.38,2736.41,2598.46,2795.9,2652.82,2642.56,2101.54,2603.59,2746.67,0
15_12_43,110,2424.62,2775.9,2440,2378.46,2413.85,2499.49,2737.95,2607.18,2797.95,2652.82,2644.1,2105.64,2607.18,2749.74,0
15_12_43,111,2425.64,2777.44,2444.1,2380,2417.95,2504.1,2737.95,2608.21,2797.44,2654.87,2643.08,2107.18,2611.28,2753.33,0
15_12_43,112,2428.72,2778.46,2446.15,2382.05,2422.05,2506.15,2739.49,2604.1,2796.92,2654.87,2644.62,2104.62,2610.26,2748.72,0
15_12_43,113,2428.72,2780,2445.64,2383.08,2423.59,2506.67,2740.51,2606.15,2797.95,2654.87,2649.23,2107.69,2610.77,2749.74,0
15_12_43,114,2431.28,2780.51,2446.15,2390.77,2427.69,2509.23,2740.51,2610.26,2796.92,2655.9,2648.21,2109.23,2613.85,2754.87,0
15_12_43,115,2436.41,2783.08,2447.18,2398.46,2430.77,2512.31,2742.05,2610.26,2796.41,2656.92,2644.1,2103.59,2613.85,2753.85,0
15_12_43,116,2437.44,2784.1,2449.23,2397.95,2429.74,2514.87,2743.08,2608.21,2799.49,2660,2647.18,2107.18,2614.36,2751.79,0
15_12_43,117,2437.95,2780.51,2457.95,2396.92,2430.26,2515.38,2742.56,2612.31,2803.08,2664.1,2653.85,2124.62,2618.46,2757.95,0
15_12_43,118,2442.05,2782.56,2465.64,2400,2431.79,2517.95,2743.59,2619.49,2803.08,2667.18,2657.44,2127.69,2619.49,2761.03,0
15_12_43,119,2448.72,2788.21,2462.05,2400.51,2433.33,2522.56,2747.69,2620,2803.08,2670.26,2656.92,2120.51,2621.54,2760,0
15_12_43,120,2452.82,2785.13,2461.03,2404.1,2438.97,2524.62,2749.74,2618.46,2803.08,2669.23,2656.41,2123.59,2626.15,2760.51,0
15_12_43,121,2453.85,2783.08,2466.67,2411.79,2442.56,2525.64,2749.23,2622.56,2802.56,2668.21,2657.44,2127.69,2628.72,2763.08,0
15_12_43,122,2455.9,2788.21,2470.26,2412.31,2440,2526.15,2748.72,2625.64,2800.51,2670.77,2660,2124.1,2628.21,2762.05,0
15_12_43,123,2458.97,2789.23,2469.74,2412.82,2442.05,2527.18,2750.26,2627.18,2801.54,2672.82,2661.54,2128.21,2629.23,2763.08,0
15_12_43,124,2457.95,2789.23,2468.21,2417.44,2450.77,2526.67,2754.87,2630.77,2804.1,2672.31,2661.54,2134.87,2630.77,2766.15,0
15_12_43,125,2460,2788.72,2474.36,2417.44,2450.26,2527.69,2755.9,2631.79,2805.13,2671.28,2661.54,2135.9,2632.31,2768.21,0
15_12_43,126,2466.15,2786.15,2481.03,2417.95,2447.69,2532.82,2754.87,2632.82,2807.69,2672.31,2661.54,2135.38,2633.85,2767.69,0
15_12_43,127,2466.15,2791.28,2483.59,2425.64,2456.41,2538.46,2757.44,2636.92,2815.9,2678.97,2666.67,2138.46,2639.49,2767.18,0
15_12_43,128,2465.64,2797.44,2483.08,2430.77,2464.62,2542.56,2760.51,2638.46,2820.51,2685.13,2672.31,2137.95,2645.13,2767.69,0
15_12_43,0,2470.26,2795.38,2485.64,2432.31,2462.56,2544.1,2760.51,2636.41,2817.95,2684.62,2671.28,2135.9,2643.59,2770.77,0
15_12_43,1,2473.85,2793.33,2492.31,2433.85,2461.54,2544.1,2758.46,2637.44,2816.41,2682.56,2671.28,2139.49,2642.05,2773.85,0
15_12_43,2,2477.44,2797.95,2495.9,2434.87,2467.69,2543.08,2759.49,2639.49,2817.95,2685.13,2671.28,2146.15,2645.64,2773.85,0
15_12_43,3,2481.54,2799.49,2495.9,2433.85,2469.74,2543.08,2764.62,2638.97,2817.44,2686.67,2674.87,2148.72,2646.15,2773.33,0
15_12_43,4,2482.56,2796.92,2495.9,2440.51,2469.74,2548.21,2768.72,2644.1,2817.95,2685.64,2681.03,2150.26,2645.13,2773.33,0
15_12_43,5,2485.64,2798.97,2501.03,2447.69,2474.36,2552.82,2767.69,2653.85,2819.49,2687.69,2681.03,2154.87,2650.26,2776.92,0
15_12_43,6,2490.26,2803.08,2502.56,2445.64,2480.51,2554.87,2768.21,2652.82,2818.97,2687.69,2676.92,2154.36,2652.82,2778.46,0
15_12_43,7,2490.26,2804.1,2498.46,2445.64,2481.54,2557.44,2772.82,2646.67,2817.95,2687.18,2675.38,2152.31,2652.82,2777.95,0
15_12_43,8,2488.72,2802.56,2501.03,2453.85,2485.13,2560,2772.31,2650.26,2818.97,2693.85,2679.49,2157.95,2654.87,2778.46,0
15_12_43,9,2490.77,2802.05,2510.77,2454.87,2489.23,2557.95,2768.21,2656.41,2820,2700.51,2688.21,2170.77,2659.49,2783.59,0
15_12_43,10,2490.26,2803.08,2515.9,2451.28,2488.72,2560.51,2770.77,2654.36,2819.49,2700.51,2690.26,2171.79,2660.51,2786.15,0
15_12_43,11,2488.21,2802.56,2515.38,2458.97,2490.26,2566.15,2774.87,2655.9,2821.03,2700.51,2686.15,2164.62,2661.03,2785.64,0
15_12_43,12,2494.87,2805.13,2515.38,2464.62,2496.92,2565.64,2773.33,2658.97,2821.03,2702.56,2685.13,2165.13,2662.05,2785.13,0
15_12_43,13,2506.15,2809.23,2517.44,2460.51,2498.46,2566.15,2772.31,2657.44,2819.49,2703.08,2688.21,2172.31,2664.62,2788.72,0
15_12_43,14,2507.18,2808.72,2519.49,2465.13,2498.46,2569.74,2776.92,2661.54,2824.1,2702.56,2692.31,2175.38,2667.18,2790.77,0
15_12_43,15,2503.08,2806.67,2518.46,2472.31,2501.03,2570.77,2777.95,2669.74,2827.69,2701.54,2694.87,2177.44,2667.18,2791.28,0
15_12_43,16,2508.72,2807.18,2519.49,2472.31,2503.08,2574.36,2774.36,2669.23,2825.64,2701.03,2694.36,2179.49,2668.21,2791.79,0
15_12_43,17,2515.9,2809.23,2526.67,2469.74,2506.67,2578.97,2777.95,2666.15,2829.74,2703.59,2696.41,2178.97,2672.82,2792.82,0
15_12_43,18,2516.92,2808.72,2532.31,2472.82,2509.74,2576.92,2781.03,2670.26,2835.9,2705.13,2698.97,2177.95,2675.9,2792.31,0
15_12_43,19,2518.46,2810.26,2531.28,2480,2510.26,2576.92,2779.49,2673.33,2835.38,2711.28,2699.49,2177.95,2676.41,2791.79,0
15_12_43,20,2521.03,2816.92,2530.26,2484.62,2513.33,2583.59,2783.08,2670.26,2833.33,2717.44,2700,2180.51,2677.44,2793.85,0
15_12_43,21,2521.03,2820.51,2536.41,2485.64,2520,2583.08,2786.67,2675.9,2833.85,2716.41,2701.54,2184.1,2676.92,2794.87,0
15_12_43,22,2521.54,2820,2543.59,2485.64,2522.56,2584.1,2784.1,2685.13,2833.33,2716.92,2702.05,2186.67,2677.95,2797.95,0
15_12_43,23,2524.62,2817.44,2545.13,2488.72,2522.05,2590.77,2784.1,2685.64,2835.38,2718.97,2701.03,2187.69,2682.05,2798.97,0
15_12_43,24,2526.15,2819.49,2543.59,2493.33,2523.08,2591.79,2787.18,2683.08,2836.41,2717.95,2704.62,2191.28,2683.59,2801.03,0
15_12_43,25,2529.23,2822.56,2544.1,2495.38,2527.69,2592.31,2786.67,2684.62,2835.38,2716.92,2711.28,2195.38,2682.56,2800.51,0
15_12_43,26,2531.79,2821.03,2550.77,2496.92,2529.74,2594.87,2787.18,2685.64,2835.9,2718.97,2711.79,2201.03,2686.15,2801.54,0
15_12_43,27,2529.23,2820.51,2553.85,2499.49,2532.31,2596.41,2792.31,2684.1,2835.9,2718.46,2708.72,2197.44,2690.26,2802.56,0
15_12_43,28,2532.31,2824.1,2550.26,2502.56,2537.95,2600,2792.82,2684.62,2835.38,2717.95,2710.26,2189.23,2689.74,2802.05,0
15_12_43,29,2541.03,2826.15,2550.77,2504.1,2537.95,2602.56,2790.77,2686.67,2835.38,2725.13,2712.82,2195.9,2689.74,2801.54,0
15_12_43,30,2544.1,2821.54,2561.03,2507.18,2536.92,2598.97,2789.74,2686.67,2836.92,2733.33,2717.44,2211.79,2693.33,2806.15,0
15_12_43,31,2545.64,2821.03,2564.1,2510.77,2542.05,2603.59,2792.31,2686.67,2836.41,2733.33,2722.05,2213.33,2695.38,2810.26,0
15_12_43,32,2547.18,2828.72,2560.51,2512.82,2544.1,2610.26,2797.44,2691.79,2834.36,2731.28,2721.03,2207.18,2694.36,2807.18,0
15_12_43,33,2545.13,2830.77,2564.62,2514.87,2545.64,2608.21,2799.49,2698.46,2841.03,2732.82,2722.05,2209.23,2696.92,2805.64,0
15_12_43,34,2549.74,2828.72,2569.23,2517.44,2552.31,2611.28,2799.49,2701.03,2850.77,2734.36,2725.13,2213.85,2703.08,2811.28,0
15_12_43,35,2560.51,2831.79,2569.23,2522.56,2554.36,2614.87,2800,2700.51,2850.77,2733.33,2725.13,2211.28,2704.62,2815.38,0
15_12_43,36,2560,2836.41,2572.82,2524.1,2549.74,2613.85,2800,2700.51,2848.72,2733.85,2725.13,2210.77,2701.54,2813.33,0
15_12_43,37,2556.41,2835.38,2576.92,2521.54,2553.33,2618.46,2804.1,2700.51,2851.28,2733.85,2727.18,2215.38,2703.08,2813.33,0
15_12_43,38,2562.05,2832.82,2576.41,2524.62,2560.51,2621.54,2806.15,2702.56,2851.79,2734.87,2726.15,2219.49,2708.72,2817.44,0
15_12_43,39,2565.64,2835.38,2578.97,2530.26,2561.54,2618.46,2803.59,2705.13,2850.26,2738.46,2727.69,2220.51,2709.23,2817.44,0
15_12_43,40,2563.08,2834.87,2584.62,2532.82,2561.54,2624.62,2803.59,2703.08,2851.28,2743.08,2729.23,2220.51,2708.72,2815.38,0
15_12_43,41,2566.15,2834.87,2587.18,2535.9,2562.05,2629.23,2805.13,2704.62,2851.79,2745.64,2728.21,2221.54,2711.79,2818.46,0
15_12_43,42,2575.38,2837.95,2588.21,2540.51,2562.56,2627.18,2806.67,2714.36,2850.77,2748.21,2729.74,2221.54,2712.82,2820.51,0
15_12_43,43,2575.9,2836.92,2591.28,2542.56,2567.18,2628.21,2806.67,2719.49,2851.79,2750.26,2734.36,2224.62,2712.31,2820,0
15_12_43,44,2570.26,2837.95,2589.74,2542.56,2575.38,2628.72,2809.23,2715.9,2852.82,2749.23,2734.36,2227.69,2713.33,2821.54,0
15_12_43,45,2572.82,2838.97,2587.69,2544.62,2576.41,2630.26,2810.26,2715.38,2852.82,2749.23,2733.85,2232.31,2717.44,2825.64,0
15_12_43,46,2576.92,2840,2593.85,2548.21,2575.38,2634.36,2809.74,2719.49,2852.31,2750.26,2738.97,2236.41,2722.56,2826.15,0
15_12_43,47,2580,2842.05,2600.51,2547.18,2577.44,2636.92,2809.74,2718.97,2854.87,2750.26,2741.54,2238.97,2724.62,2826.15,0
15_12_43,48,2587.69,2841.54,2598.46,2548.21,2579.49,2639.49,2812.82,2717.44,2853.33,2749.23,2737.95,2235.9,2724.1,2825.64,0
15_12_43,49,2592.31,2843.59,2596.92,2555.9,2583.08,2641.03,2816.92,2718.46,2851.28,2751.28,2736.92,2231.28,2725.64,2825.64,0
15_12_43,50,2589.74,2846.67,2604.1,2562.05,2587.18,2639.49,2816.92,2723.08,2860.51,2754.87,2743.08,2235.9,2727.18,2827.18,0
15_12_43,51,2590.26,2847.18,2610.77,2558.97,2587.18,2640.51,2814.36,2732.31,2868.72,2755.9,2747.69,2249.23,2728.72,2830.26,0
15_12_43,52,2591.28,2847.69,2609.74,2557.95,2589.74,2644.1,2815.9,2735.9,2866.15,2757.95,2747.69,2251.79,2730.77,2830.77,0
15_12_43,53,2590.77,2851.79,2607.18,2566.15,2594.36,2645.13,2821.54,2731.79,2864.1,2764.1,2747.18,2247.18,2733.33,2831.79,0
15_12_43,54,2592.82,2852.82,2612.31,2571.79,2591.79,2648.21,2824.62,2730.77,2867.69,2767.69,2749.74,2249.74,2734.87,2834.36,0
15_12_43,55,2596.41,2849.74,2621.03,2570.26,2591.79,2651.79,2824.1,2733.33,2868.72,2766.15,2751.28,2252.31,2734.87,2833.85,0
15_12_43,56,2600,2851.79,2623.59,2571.28,2599.49,2653.33,2824.1,2732.31,2866.67,2765.13,2751.79,2251.79,2736.92,2832.82,0
15_12_43,57,2605.64,2853.33,2623.59,2575.38,2602.56,2655.38,2826.67,2731.79,2866.67,2765.13,2752.82,2254.36,2740.51,2834.87,0
15_12_43,58,2608.21,2854.36,2623.59,2575.9,2602.05,2653.33,2827.18,2737.44,2867.18,2763.59,2754.36,2257.44,2743.59,2836.92,0
15_12_43,59,2607.18,2853.85,2624.1,2576.92,2606.67,2655.38,2828.21,2738.46,2868.21,2764.1,2753.33,2257.44,2741.03,2837.44,0
15_12_43,60,2608.21,2850.77,2623.59,2581.54,2606.67,2663.08,2828.21,2735.38,2868.72,2767.18,2753.85,2263.59,2741.03,2839.49,0
15_12_43,61,2609.74,2855.38,2623.08,2583.08,2607.18,2663.08,2828.21,2742.56,2868.72,2775.38,2756.92,2269.23,2745.64,2838.97,0
15_12_43,62,2612.31,2861.03,2624.1,2586.67,2613.33,2662.56,2829.23,2751.28,2870.26,2782.05,2760,2266.67,2747.69,2839.49,0
15_12_43,63,2617.95,2861.03,2631.79,2591.79,2614.87,2668.21,2829.23,2749.23,2868.21,2783.08,2760,2260.51,2745.13,2841.03,0
15_12_43,64,2621.03,2860,2638.97,2591.28,2613.85,2669.74,2831.28,2747.18,2867.18,2782.05,2762.05,2262.05,2748.72,2844.62,0
15_12_43,65,2621.03,2863.08,2639.49,2590.77,2622.05,2671.28,2835.38,2748.72,2874.87,2781.54,2765.13,2266.67,2754.36,2845.64,0
15_12_43,66,2622.56,2864.62,2638.46,2591.28,2624.62,2671.79,2836.92,2748.72,2880.51,2782.05,2764.62,2269.23,2754.87,2845.64,0
15_12_43,67,2623.59,2863.08,2639.49,2594.87,2621.54,2671.28,2836.92,2748.72,2879.49,2781.54,2763.59,2271.28,2755.38,2845.64,0
15_12_43,68,2624.1,2865.13,2642.05,2602.05,2624.62,2674.36,2837.44,2750.77,2881.54,2780.51,2765.64,2277.95,2758.97,2849.23,0
15_12_43,69,2626.15,2866.67,2642.05,2603.59,2628.72,2680,2840.51,2753.85,2884.62,2781.03,2765.64,2277.95,2759.49,2849.23,0
15_12_43,70,2626.67,2867.18,2639.49,2601.54,2631.79,2681.54,2842.56,2754.87,2882.56,2785.64,2766.67,2270.77,2760.51,2847.18,0
15_12_43,71,2629.74,2867.69,2644.62,2605.13,2631.79,2680,2844.1,2755.9,2881.03,2790.26,2772.82,2275.9,2761.03,2852.31,0
15_12_43,72,2636.41,2864.62,2655.38,2608.21,2628.72,2678.97,2843.59,2762.05,2882.05,2787.18,2778.46,2289.23,2761.03,2858.46,0
15_12_43,73,2638.46,2866.67,2657.44,2607.18,2633.33,2682.05,2841.03,2766.67,2882.56,2788.21,2776.92,2287.69,2766.15,2855.38,0
15_12_43,74,2638.97,2869.23,2654.36,2607.69,2641.54,2687.69,2843.59,2765.13,2883.59,2798.97,2773.85,2280,2771.79,2849.74,0
15_12_43,75,2643.08,2868.72,2658.97,2609.23,2638.46,2688.21,2845.64,2764.62,2885.13,2802.56,2775.38,2283.59,2771.79,2853.85,0
15_12_43,76,2643.59,2870.26,2661.54,2611.28,2640,2693.85,2846.67,2767.69,2883.59,2795.9,2780.51,2287.69,2768.72,2856.92,0
15_12_43,77,2642.56,2872.82,2658.46,2617.44,2649.23,2696.41,2849.23,2766.67,2885.64,2795.38,2784.62,2287.18,2771.28,2859.49,0
15_12_43,78,2648.21,2874.87,2662.56,2624.62,2649.23,2692.31,2849.74,2765.13,2891.79,2798.46,2782.05,2290.77,2774.87,2861.54,0
15_12_43,79,2653.85,2877.44,2669.74,2623.59,2650.26,2694.36,2851.28,2770.26,2893.33,2795.38,2781.54,2297.95,2775.9,2862.05,0
15_12_43,80,2652.31,2880.51,2669.23,2622.56,2657.44,2697.44,2851.28,2773.85,2891.28,2796.41,2784.1,2297.95,2774.36,2862.05,0
15_12_43,81,2651.79,2880.51,2667.69,2626.67,2654.87,2697.95,2850.77,2775.9,2891.28,2803.59,2785.13,2295.38,2775.9,2864.1,0
15_12_43,82,2654.36,2880.51,2669.23,2629.74,2653.85,2702.56,2851.79,2778.97,2894.36,2805.64,2785.13,2295.38,2781.54,2862.05,0
15_12_44,83,2655.9,2882.05,2673.33,2631.28,2658.46,2701.54,2850.77,2779.49,2895.38,2802.56,2788.72,2297.95,2783.59,2860.51,0
15_12_44,84,2658.46,2880.51,2678.46,2636.92,2661.54,2701.03,2852.82,2777.44,2896.41,2805.13,2790.77,2300,2781.54,2863.59,0
15_12_44,85,2657.44,2880.51,2678.97,2638.97,2663.08,2707.69,2855.38,2780.51,2898.97,2815.9,2790.77,2303.08,2784.62,2867.69,0
15_12_44,86,2658.46,2883.59,2677.95,2636.92,2665.13,2708.72,2857.95,2782.56,2900,2820,2790.77,2303.59,2786.67,2866.67,0
15_12_44,87,2666.67,2883.08,2680.51,2640.51,2666.15,2708.72,2861.03,2780,2900.51,2817.44,2791.28,2303.59,2787.18,2867.69,0
15_12_44,88,2670.77,2882.05,2680.51,2641.03,2669.74,2712.31,2862.56,2781.54,2898.97,2817.95,2794.36,2306.67,2791.28,2872.82,0
15_12_44,89,2666.67,2881.54,2683.59,2639.49,2672.82,2710.77,2862.05,2787.18,2898.97,2820.51,2799.49,2310.26,2792.31,2874.87,0
15_12_44,90,2668.21,2883.08,2688.21,2649.23,2669.74,2714.36,2863.08,2788.21,2899.49,2819.49,2799.49,2305.64,2790.26,2869.74,0
15_12_44,91,2673.33,2888.21,2686.15,2656.92,2674.36,2721.03,2865.64,2786.67,2900.51,2818.97,2796.92,2301.54,2793.33,2867.18,0
15_12_44,92,2671.28,2889.23,2691.28,2653.33,2682.05,2717.95,2864.62,2790.26,2901.03,2818.97,2800,2312.31,2796.92,2874.87,0
15_12_44,93,2668.72,2890.26,2700,2651.79,2681.03,2716.92,2865.13,2793.85,2900.51,2818.46,2806.15,2324.62,2796.41,2880,0
15_12_44,94,2675.9,2893.85,2694.87,2655.9,2677.95,2721.54,2868.72,2793.33,2901.03,2820,2805.64,2323.59,2798.46,2877.44,0
15_12_44,95,2685.13,2892.82,2694.36,2658.46,2677.95,2723.59,2868.21,2792.82,2900.51,2817.95,2802.05,2318.97,2800.51,2877.95,0
15_12_44,96,2686.15,2891.28,2702.05,2656.41,2682.56,2727.18,2866.67,2795.38,2901.54,2817.95,2804.62,2321.03,2802.05,2884.62,0
15_12_44,97,2684.62,2895.38,2702.05,2657.44,2688.21,2730.26,2868.72,2800.51,2901.03,2828.21,2808.72,2323.08,2805.13,2882.56,0
15_12_44,98,2688.72,2898.97,2701.03,2666.15,2685.64,2730.77,2872.31,2804.1,2900,2836.41,2811.79,2323.59,2807.18,2879.49,0
15_12_44,99,2690.77,2897.95,2703.59,2671.79,2686.15,2734.36,2874.87,2803.08,2904.62,2833.85,2813.85,2322.05,2806.67,2883.59,0
15_12_44,100,2688.72,2899.49,2706.67,2669.23,2694.87,2736.41,2875.38,2802.05,2912.31,2832.31,2811.28,2324.62,2807.18,2889.23,0
15_12_44,101,2692.82,2900,2711.79,2669.74,2696.41,2735.9,2876.41,2804.62,2915.9,2835.38,2810.77,2331.79,2809.74,2886.67,0
15_12_44,102,2700,2897.95,2715.9,2672.82,2694.36,2736.92,2876.92,2804.62,2915.9,2835.9,2815.38,2333.85,2811.79,2885.13,0
15_12_44,103,2701.54,2899.49,2713.85,2671.79,2698.97,2737.44,2878.97,2806.67,2915.9,2834.36,2817.95,2330.77,2810.77,2887.18,0
15_12_44,104,2702.05,2900,2715.38,2670.77,2700.51,2737.44,2880.51,2817.44,2915.9,2833.33,2818.97,2334.36,2813.33,2889.74,0
15_12_44,105,2703.08,2902.05,2717.95,2672.31,2702.05,2743.08,2877.44,2820,2916.41,2833.85,2821.54,2340,2815.9,2888.21,0
15_12_44,106,2701.54,2901.03,2718.46,2675.9,2704.1,2747.69,2875.9,2816.92,2917.44,2834.36,2821.54,2340,2815.9,2889.23,0
15_12_44,107,2699.49,2898.97,2720,2683.59,2702.05,2745.64,2879.49,2817.44,2917.95,2837.95,2821.54,2336.41,2819.49,2892.82,0
15_12_44,108,2699.49,2906.67,2722.05,2686.67,2705.64,2745.13,2882.05,2816.92,2916.41,2847.18,2824.62,2335.9,2823.59,2897.44,0
15_12_44,109,2702.05,2910.77,2726.15,2684.62,2713.85,2748.21,2884.1,2814.87,2916.41,2851.79,2823.08,2338.97,2823.59,2900,0
15_12_44,110,2703.08,2906.67,2726.15,2688.21,2713.85,2751.79,2884.62,2817.95,2923.59,2849.23,2821.03,2343.08,2822.56,2898.46,0
15_12_44,111,2703.59,2907.69,2722.56,2692.82,2715.9,2753.85,2884.62,2820.51,2927.69,2850.26,2822.56,2340,2824.62,2897.44,0
15_12_44,112,2709.74,2913.33,2725.64,2694.87,2718.97,2755.38,2887.69,2818.97,2925.13,2851.28,2822.56,2337.44,2825.13,2900.51,0
15_12_44,113,2717.44,2912.31,2731.79,2698.97,2716.92,2754.87,2890.26,2820,2925.13,2849.23,2824.62,2347.18,2825.64,2905.64,0
15_12_44,114,2717.44,2911.79,2731.28,2702.05,2716.41,2757.44,2889.74,2818.97,2926.67,2850.77,2831.79,2354.36,2828.21,2904.1,0
15_12_44,115,2714.87,2914.87,2734.87,2701.54,2717.95,2760.51,2891.28,2816.41,2926.15,2853.33,2833.33,2349.74,2831.28,2900.51,0
15_12_44,116,2722.56,2914.36,2739.49,2701.03,2720,2761.54,2892.82,2826.15,2926.15,2851.79,2830.26,2346.15,2831.79,2900.51,0
15_12_44,117,2732.82,2915.38,2740.51,2701.03,2720.51,2763.08,2892.82,2836.41,2926.67,2850.77,2834.36,2352.82,2834.36,2902.05,0
15_12_44,118,2735.38,2916.92,2743.08,2700.51,2721.54,2766.67,2897.95,2834.87,2927.18,2850.77,2841.03,2356.41,2837.95,2902.05,0
15_12_44,119,2733.85,2914.36,2742.05,2701.03,2727.69,2768.72,2901.03,2832.31,2928.72,2851.28,2843.08,2353.33,2836.41,2905.13,0
15_12_44,120,2735.9,2916.41,2742.56,2703.08,2734.87,2770.26,2897.44,2835.38,2930.26,2851.28,2841.54,2355.38,2833.85,2906.15,0
15_12_44,121,2739.49,2923.59,2751.28,2704.62,2734.36,2769.74,2897.95,2838.46,2931.79,2851.79,2841.03,2358.97,2838.46,2908.21,0
15_12_44,122,2737.44,2926.15,2752.82,2704.1,2733.85,2771.28,2900.51,2842.05,2933.33,2857.95,2844.1,2356.41,2841.54,2912.31,0
15_12_44,123,2734.36,2922.56,2748.72,2707.18,2740,2773.85,2899.49,2840.51,2933.33,2866.15,2844.62,2355.38,2841.54,2913.85,0
15_12_44,124,2732.31,2922.56,2752.31,2717.44,2743.59,2774.87,2900,2834.87,2933.33,2867.69,2841.03,2364.1,2842.56,2910.26,0
15_12_44,125,2731.28,2926.15,2755.9,2720.51,2745.64,2775.9,2898.97,2835.9,2932.31,2866.15,2840.51,2372.31,2843.59,2910.77,0
15_12_44,126,2731.79,2924.1,2752.82,2717.44,2746.15,2775.9,2898.97,2839.49,2931.28,2867.18,2840,2371.79,2844.1,2912.31,0
15_12_44,127,2731.79,2922.56,2753.33,2720.51,2745.13,2778.97,2904.1,2835.9,2937.44,2868.21,2835.9,2375.38,2847.69,2914.36,0
15_12_44,128,2731.79,2925.64,2758.46,2724.62,2748.21,2783.59,2907.18,2837.44,2941.03,2867.18,2836.92,2379.49,2851.79,2917.95,0
15_12_44,0,2736.41,2930.77,2761.03,2725.64,2752.82,2783.08,2906.15,2845.13,2940.51,2866.67,2844.1,2372.82,2852.82,2916.41,0
15_12_44,1,2745.13,2932.82,2757.95,2727.69,2751.79,2782.56,2909.23,2848.21,2941.54,2867.18,2847.18,2368.21,2854.87,2918.46,0
15_12_44,2,2750.77,2930.26,2760.51,2729.23,2752.31,2789.23,2912.31,2848.21,2941.54,2868.21,2849.23,2368.21,2856.41,2924.62,0
15_12_44,3,2751.79,2930.77,2768.72,2732.31,2758.46,2792.82,2911.28,2851.28,2942.56,2869.74,2852.82,2362.56,2857.44,2921.54,0
15_12_44,4,2749.74,2931.28,2770.26,2736.41,2762.56,2791.79,2913.85,2853.85,2945.64,2868.21,2856.92,2359.49,2856.41,2916.92,0
15_12_44,5,2751.28,2931.79,2772.82,2731.79,2760.51,2794.36,2916.41,2854.36,2946.15,2868.21,2861.54,2373.33,2857.44,2925.13,0
15_12_44,6,2759.49,2932.82,2780.51,2732.31,2760.51,2796.92,2912.82,2852.82,2945.64,2878.46,2862.56,2387.18,2862.56,2930.77,0
15_12_44,7,2765.13,2932.31,2780,2740.51,2763.59,2797.44,2912.31,2852.31,2948.21,2886.67,2860,2386.67,2863.08,2928.21,0
15_12_44,8,2764.1,2932.82,2775.38,2742.05,2765.13,2797.95,2915.38,2856.92,2948.72,2884.1,2860,2384.62,2860,2925.13,0
15_12_44,9,2764.1,2933.33,2778.97,2741.54,2765.64,2800.51,2914.87,2861.03,2948.72,2882.05,2863.08,2389.74,2863.08,2929.23,0
15_12_44,10,2767.18,2935.9,2782.05,2745.13,2769.74,2803.08,2915.9,2862.05,2949.74,2884.1,2863.59,2389.23,2868.72,2931.28,0
15_12_44,11,2767.69,2939.49,2782.05,2747.69,2770.77,2802.05,2917.95,2865.64,2947.18,2884.1,2862.56,2388.21,2868.72,2930.77,0
15_12_44,12,2766.15,2942.56,2782.56,2748.21,2769.23,2803.08,2915.9,2867.18,2949.74,2884.1,2863.59,2393.33,2866.15,2930.77,0
15_12_44,13,2766.67,2943.08,2783.59,2752.31,2772.31,2806.67,2915.9,2865.13,2957.95,2885.13,2867.18,2395.9,2867.69,2934.87,0
15_12_44,14,2770.26,2944.1,2784.62,2755.9,2776.92,2807.69,2922.05,2866.15,2960,2884.1,2866.15,2391.28,2870.77,2934.87,0
15_12_44,15,2772.82,2946.67,2786.67,2758.97,2776.92,2808.72,2925.64,2869.23,2957.95,2885.13,2866.15,2389.23,2872.31,2932.31,0
15_12_44,16,2774.87,2946.15,2791.28,2759.49,2777.44,2813.33,2928.21,2868.21,2957.44,2884.62,2871.28,2392.82,2874.36,2935.38,0
15_12_44,17,2780.51,2945.13,2795.9,2758.46,2778.97,2813.33,2930.77,2868.72,2958.97,2883.08,2873.85,2393.33,2876.41,2941.03,0
15_12_44,18,2784.62,2946.67,2796.92,2762.05,2780,2811.79,2928.72,2869.74,2958.97,2889.74,2872.31,2392.82,2875.9,2941.54,0
15_12_44,19,2782.05,2947.18,2795.9,2765.13,2781.54,2814.87,2928.21,2868.21,2957.95,2898.97,2872.82,2396.41,2876.92,2939.49,0
15_12_44,20,2781.54,2947.18,2797.95,2764.62,2784.62,2817.44,2930.77,2871.28,2959.49,2900,2873.85,2400,2878.97,2940.51,0
15_12_44,21,2787.18,2947.69,2800.51,2767.18,2787.18,2818.46,2930.77,2875.9,2961.54,2898.46,2872.31,2400,2880.51,2941.54,0
15_12_44,22,2787.18,2946.67,2802.56,2769.74,2784.1,2820,2929.74,2876.41,2960.51,2899.49,2873.85,2403.59,2883.59,2943.08,0
15_12_44,23,2788.72,2947.18,2804.62,2770.77,2787.18,2822.05,2931.79,2878.97,2960.51,2900,2876.92,2405.64,2885.13,2945.13,0
15_12_44,24,2798.97,2954.87,2800.51,2771.79,2798.46,2824.62,2935.9,2885.13,2965.13,2899.49,2877.95,2398.46,2884.62,2945.64,0
15_12_44,25,2802.05,2961.03,2803.59,2772.82,2801.54,2825.13,2936.41,2885.13,2966.67,2900.51,2877.95,2398.46,2887.18,2941.54,0
15_12_44,26,2795.9,2957.95,2818.46,2772.82,2796.92,2825.13,2932.82,2883.08,2963.08,2901.54,2883.59,2415.38,2890.26,2946.15,0
15_12_44,27,2794.36,2956.92,2820,2773.85,2798.46,2827.18,2934.36,2885.13,2965.13,2899.49,2891.79,2420.51,2888.72,2953.33,0
15_12_44,28,2797.44,2960,2812.31,2775.9,2801.03,2832.82,2941.03,2884.62,2972.31,2901.54,2890.26,2410.26,2889.23,2951.79,0
15_12_44,29,2796.41,2960,2816.92,2780,2804.62,2834.36,2944.1,2884.1,2975.38,2908.72,2887.18,2410.77,2892.82,2948.72,0
15_12_44,30,2796.41,2960,2820.51,2785.64,2806.67,2831.28,2944.1,2884.1,2973.33,2912.31,2889.23,2422.05,2894.36,2951.28,0
15_12_44,31,2800.51,2961.54,2814.36,2787.18,2804.62,2834.36,2944.1,2887.18,2972.31,2912.82,2890.77,2422.05,2892.31,2953.85,0
15_12_44,32,2802.56,2961.03,2816.92,2784.1,2808.21,2840,2944.1,2894.36,2973.33,2914.36,2891.79,2417.95,2894.87,2956.41,0
15_12_44,33,2803.08,2962.05,2821.03,2786.15,2816.41,2839.49,2944.62,2898.46,2973.33,2914.36,2893.85,2421.54,2902.05,2957.44,0
15_12_44,34,2800.51,2963.59,2818.46,2793.33,2816.92,2838.46,2944.1,2898.46,2973.85,2913.85,2895.9,2423.59,2902.56,2956.41,0
15_12_44,35,2807.18,2964.1,2823.59,2792.31,2815.9,2840,2945.13,2898.97,2974.87,2916.41,2896.92,2421.03,2901.03,2956.92,0
15_12_44,36,2817.44,2964.1,2829.23,2792.31,2816.92,2842.05,2947.18,2899.49,2974.87,2917.44,2898.97,2422.05,2904.1,2959.49,0
15_12_44,37,2815.9,2963.59,2830.77,2799.49,2816.92,2844.62,2946.15,2898.46,2974.87,2916.92,2898.46,2425.64,2906.15,2959.49,0
15_12_44,38,2812.82,2965.64,2829.74,2800,2821.54,2846.67,2948.21,2899.49,2977.95,2917.44,2898.46,2428.72,2906.15,2960,0
15_12_44,39,2816.92,2969.74,2825.64,2798.46,2824.62,2847.18,2950.26,2900.51,2980.51,2916.92,2897.95,2433.85,2908.21,2960.51,0
15_12_44,40,2818.97,2971.79,2828.72,2804.1,2823.59,2847.69,2950.77,2899.49,2978.46,2917.44,2897.95,2433.85,2909.23,2960.51,0
15_12_44,41,2817.95,2970.26,2836.41,2805.64,2824.62,2848.72,2953.33,2901.54,2976.92,2918.46,2899.49,2428.21,2909.74,2964.62,0
15_12_44,42,2819.49,2969.74,2836.41,2804.1,2827.18,2852.31,2956.41,2902.05,2980,2916.92,2898.46,2424.62,2911.79,2967.18,0
15_12_44,43,2823.08,2972.31,2834.36,2807.18,2828.21,2852.82,2955.9,2902.56,2982.56,2916.41,2900.51,2426.67,2911.79,2966.67,0
15_12_44,44,2830.77,2976.92,2836.92,2809.23,2830.77,2855.9,2958.46,2907.69,2981.03,2922.56,2903.08,2424.1,2910.77,2965.64,0
15_12_44,45,2836.41,2977.44,2836.92,2812.31,2833.33,2861.03,2963.08,2911.79,2981.03,2927.18,2902.05,2422.05,2913.33,2966.15,0
15_12_44,46,2833.85,2975.38,2841.54,2813.85,2834.36,2858.97,2960.51,2911.79,2986.67,2927.69,2906.15,2430.26,2915.9,2968.21,0
15_12_44,47,2832.82,2976.92,2851.28,2811.28,2835.38,2856.92,2958.46,2915.38,2990.77,2930.77,2914.87,2444.62,2918.46,2974.36,0
15_12_44,48,2834.36,2978.46,2852.31,2816.92,2836.92,2860,2960.51,2918.46,2990.26,2932.31,2915.38,2448.21,2920,2975.9,0
15_12_44,49,2834.36,2979.49,2847.18,2822.05,2838.46,2861.54,2960,2915.9,2990.77,2932.31,2911.28,2443.08,2922.05,2971.79,0
15_12_44,50,2834.36,2977.44,2845.64,2819.49,2840.51,2866.15,2960.51,2916.41,2992.31,2932.82,2912.82,2444.1,2923.08,2970.77,0
15_12_44,51,2833.85,2976.92,2851.79,2821.54,2840.51,2869.74,2962.56,2918.46,2991.28,2932.82,2915.38,2448.21,2924.62,2976.92,0
15_12_44,52,2834.87,2984.1,2853.85,2825.13,2839.49,2865.64,2964.62,2915.9,2990.77,2935.38,2913.85,2448.21,2926.15,2979.49,0
15_12_44,53,2835.38,2984.1,2850.26,2825.13,2841.03,2867.69,2965.13,2916.92,2994.87,2941.03,2914.87,2449.23,2925.64,2977.44,0
15_12_44,54,2834.87,2978.97,2858.46,2829.74,2845.64,2874.36,2968.21,2917.95,2997.44,2942.05,2916.92,2449.23,2925.13,2977.95,0
15_12_44,55,2843.08,2984.1,2864.62,2831.28,2847.18,2874.87,2973.85,2915.38,2993.85,2939.49,2916.92,2446.15,2928.21,2980,0
15_12_44,56,2851.79,2991.28,2857.95,2830.77,2848.72,2874.87,2973.85,2922.56,2994.36,2941.54,2920.51,2447.69,2931.28,2981.54,0
15_12_44,57,2850.26,2989.23,2857.44,2834.36,2852.31,2874.36,2970.77,2932.82,3004.1,2944.1,2926.15,2451.79,2931.79,2982.05,0
15_12_44,58,2849.23,2987.69,2866.15,2836.41,2850.77,2875.9,2973.85,2930.26,3005.64,2943.08,2926.67,2452.82,2934.87,2985.64,0
15_12_44,59,2854.87,2991.79,2866.67,2835.9,2853.85,2879.49,2976.92,2925.64,2995.9,2945.64,2924.62,2453.33,2937.44,2986.67,0
15_12_44,60,2855.9,2992.82,2865.64,2838.97,2860,2882.56,2975.9,2929.23,2994.36,2949.74,2925.64,2455.9,2937.44,2988.21,0
15_12_44,61,2853.33,2992.31,2867.18,2840.51,2858.46,2884.1,2976.92,2930.77,3003.08,2949.74,2928.21,2454.87,2939.49,2987.18,0
15_12_44,62,2855.9,2991.28,2869.23,2834.87,2858.46,2884.62,2977.95,2930.77,3006.67,2947.69,2929.74,2453.33,2942.05,2985.64,0
15_12_44,63,2854.36,2993.85,2876.41,2835.9,2863.59,2885.64,2977.95,2932.31,3006.15,2949.23,2929.74,2453.85,2940,2985.64,0
15_12_44,64,2851.28,2995.9,2875.9,2844.62,2862.56,2886.15,2978.97,2932.31,3006.15,2950.77,2929.74,2458.97,2938.46,2989.23,0
15_12_44,65,2861.54,2996.41,2866.15,2846.67,2863.59,2888.21,2980,2936.41,3005.64,2947.69,2930.26,2460.51,2941.03,2990.26,0
15_12_44,66,2865.13,3001.54,2866.67,2844.62,2870.26,2892.82,2981.54,2940.51,3007.18,2949.74,2929.23,2457.95,2945.64,2990.26,0
15_12_44,67,2853.85,3002.56,2879.49,2851.79,2871.28,2893.33,2983.59,2938.46,3006.67,2956.92,2929.23,2463.08,2945.13,2993.33,0
15_12_44,68,2855.9,2996.41,2886.67,2854.36,2869.74,2889.23,2984.1,2940,3005.64,2960,2936.41,2474.87,2945.13,3000,0
15_12_44,69,2869.23,2994.87,2883.59,2850.77,2871.79,2894.36,2983.08,2945.64,3011.28,2957.44,2937.95,2474.87,2950.26,2998.97,0
15_12_44,70,2869.74,3001.54,2883.59,2854.36,2875.38,2900.51,2984.62,2945.13,3014.36,2957.44,2932.31,2467.18,2952.82,2993.33,0
15_12_44,71,2866.15,3007.18,2884.1,2857.95,2875.38,2895.9,2988.21,2943.08,3011.79,2961.03,2936.41,2468.72,2951.79,2995.38,0
15_12_44,72,2869.23,3006.15,2883.59,2858.46,2874.87,2892.31,2989.74,2945.64,3015.38,2963.59,2942.56,2471.28,2953.85,3000.51,0
15_12_44,73,2872.82,3005.64,2890.77,2858.46,2876.92,2896.92,2989.74,2947.18,3022.05,2964.1,2940.51,2468.72,2956.41,2997.95,0
15_12_44,74,2881.03,3005.64,2895.9,2857.44,2877.95,2900,2991.79,2946.67,3020.51,2964.62,2940.51,2470.26,2954.87,2996.41,0
15_12_44,75,2886.67,3006.67,2889.23,2862.05,2878.97,2897.95,2993.85,2947.69,3019.49,2966.15,2945.64,2475.9,2955.38,3002.05,0
15_12_44,76,2882.05,3007.18,2883.59,2867.69,2883.08,2901.03,2995.38,2954.36,3021.03,2964.1,2946.67,2477.44,2958.97,3006.15,0
15_12_44,77,2880.51,3008.21,2889.74,2866.15,2884.62,2909.23,2995.38,2959.49,3020.51,2964.1,2946.15,2479.49,2961.03,3007.18,0
15_12_44,78,2882.56,3011.28,2896.41,2866.67,2887.18,2913.33,2996.92,2956.41,3022.05,2971.79,2945.64,2482.05,2959.49,3005.64,0
15_12_44,79,2882.56,3009.74,2898.97,2869.23,2891.79,2910.77,3000,2955.9,3024.1,2975.38,2948.21,2481.03,2960.51,3006.67,0
15_12_44,80,2882.56,3007.69,2900.51,2869.74,2891.28,2909.23,3001.03,2960.51,3022.56,2972.31,2952.82,2480,2963.08,3007.69,0
15_12_44,81,2883.08,3010.77,2900,2869.23,2891.28,2909.74,3000,2960.51,3022.05,2971.79,2953.85,2486.67,2965.13,3010.26,0
15_12_45,82,2883.08,3013.33,2901.54,2869.74,2894.36,2913.33,2998.97,2958.97,3021.54,2973.85,2952.31,2488.72,2968.21,3010.77,0
15_12_45,83,2885.13,3011.28,2901.54,2873.33,2894.87,2914.36,2996.92,2964.62,3023.08,2973.33,2953.33,2485.13,2970.26,3010.26,0
15_12_45,84,2885.64,3012.82,2900.51,2875.9,2897.44,2914.87,2997.44,2964.1,3025.13,2975.38,2954.36,2485.64,2970.26,3012.31,0
15_12_45,85,2884.62,3017.95,2902.05,2876.92,2898.46,2915.9,3001.54,2962.56,3024.1,2979.49,2954.87,2492.82,2973.85,3016.92,0
15_12_45,86,2889.23,3020,2900,2881.03,2896.92,2917.95,3005.64,2968.21,3026.15,2980,2957.95,2493.33,2974.87,3013.85,0
15_12_45,87,2898.46,3020.51,2901.03,2883.59,2902.05,2921.54,3008.72,2969.74,3031.28,2981.03,2956.41,2487.69,2971.28,3010.77,0
15_12_45,88,2900.51,3021.03,2910.26,2883.08,2906.67,2922.05,3008.21,2968.72,3032.82,2980,2955.9,2491.79,2972.31,3015.9,0
15_12_45,89,2898.46,3020.51,2917.95,2884.1,2902.56,2921.03,3003.08,2970.77,3031.28,2979.49,2962.05,2501.54,2975.9,3021.03,0
15_12_45,90,2898.46,3021.03,2916.41,2884.62,2900,2925.13,3005.64,2970.77,3032.82,2985.13,2962.56,2495.38,2977.95,3017.44,0
15_12_45,91,2900.51,3024.62,2915.38,2886.15,2904.1,2927.18,3010.77,2971.79,3037.44,2992.31,2957.95,2487.18,2980.51,3016.92,0
15_12_45,92,2902.05,3029.23,2916.92,2889.23,2910.26,2927.18,3007.69,2975.38,3038.97,2991.28,2961.03,2491.79,2980.51,3021.54,0
15_12_45,93,2902.05,3026.67,2915.9,2888.72,2912.82,2929.74,3008.21,2974.87,3037.95,2988.72,2967.18,2497.44,2979.49,3023.08,0
15_12_45,94,2901.54,3022.05,2914.87,2892.82,2911.79,2929.74,3011.79,2975.9,3036.92,2989.74,2966.15,2499.49,2981.54,3021.03,0
15_12_45,95,2900,3026.67,2916.41,2898.46,2913.33,2929.23,3012.31,2981.03,3038.46,2990.26,2966.15,2501.03,2982.56,3020,0
15_12_45,96,2903.08,3030.26,2922.05,2898.46,2913.85,2933.85,3015.38,2978.97,3039.49,2989.74,2971.28,2503.59,2984.62,3024.1,0
15_12_45,97,2909.74,3024.62,2928.21,2897.95,2916.92,2934.87,3020.51,2978.46,3040,2993.33,2973.85,2503.59,2988.21,3025.13,0
15_12_45,98,2911.28,3025.13,2928.72,2898.46,2923.08,2934.87,3019.49,2979.49,3040.51,2996.41,2972.31,2504.1,2988.21,3025.13,0
15_12_45,99,2910.77,3034.36,2929.74,2901.54,2924.1,2937.95,3018.97,2977.95,3039.49,2996.92,2970.26,2503.59,2985.64,3027.69,0
15_12_45,100,2915.38,3037.95,2932.82,2904.1,2923.08,2940.51,3020,2980,3041.03,2995.9,2973.33,2506.67,2986.15,3030.77,0
15_12_45,101,2917.95,3033.33,2931.28,2902.56,2925.13,2943.59,3020,2988.21,3039.49,2994.87,2977.44,2506.15,2987.69,3028.21,0
15_12_45,102,2915.38,3034.36,2929.74,2906.15,2925.64,2945.13,3021.54,2992.82,3039.49,2996.92,2976.41,2506.67,2988.72,3028.72,0
15_12_45,103,2916.92,3037.95,2930.77,2913.85,2926.67,2944.62,3023.59,2990.26,3044.1,3003.59,2976.41,2511.79,2989.74,3030.77,0
15_12_45,104,2918.46,3037.44,2931.28,2915.38,2928.72,2944.1,3023.08,2989.23,3048.21,3007.69,2978.46,2511.79,2992.31,3030.77,0
15_12_45,105,2917.95,3039.49,2934.87,2912.31,2929.74,2946.15,3023.59,2990.77,3050.26,3005.13,2976.92,2511.28,2995.9,3029.23,0
15_12_45,106,2922.56,3040.51,2940,2912.82,2930.26,2947.18,3026.67,2990.26,3053.33,3004.1,2977.44,2515.9,2997.44,3030.26,0
15_12_45,107,2929.74,3038.46,2941.54,2914.36,2930.26,2947.69,3028.21,2990.77,3054.87,3004.62,2977.95,2510.77,2996.41,3030.77,0
15_12_45,108,2932.31,3042.56,2943.08,2914.36,2933.85,2951.28,3030.26,2994.36,3053.85,3004.62,2977.44,2503.59,2995.38,3029.74,0
15_12_45,109,2930.26,3047.18,2945.13,2915.38,2940.51,2953.85,3029.74,2996.92,3054.36,3005.13,2981.54,2512.82,2997.95,3033.85,0
15_12_45,110,2930.77,3045.13,2944.62,2916.41,2938.97,2954.36,3029.74,2995.38,3054.36,3007.18,2986.67,2523.59,3003.59,3039.49,0
15_12_45,111,2932.82,3043.08,2944.62,2915.38,2938.97,2954.36,3029.23,2994.36,3052.82,3008.72,2986.67,2519.49,3004.62,3038.97,0
15_12_45,112,2932.82,3047.18,2945.13,2917.44,2944.62,2955.9,3029.74,2998.97,3055.9,3007.18,2984.62,2516.41,3004.62,3036.41,0
15_12_45,113,2932.82,3049.23,2947.18,2925.13,2945.64,2958.97,3032.31,3004.62,3056.92,3008.72,2986.15,2517.44,3006.67,3038.97,0
15_12_45,114,2932.82,3047.18,2950.77,2929.23,2944.62,2962.05,3033.33,3006.15,3053.85,3015.9,2989.23,2518.46,3007.18,3040.51,0
15_12_45,115,2931.79,3046.15,2951.79,2927.69,2946.67,2961.54,3033.85,3006.15,3054.36,3018.97,2991.28,2522.56,3008.21,3043.08,0
15_12_45,116,2935.38,3049.23,2955.38,2926.67,2947.69,2961.03,3033.33,3005.64,3056.41,3015.38,2992.31,2522.05,3007.69,3043.08,0
15_12_45,117,2941.54,3053.33,2960.51,2929.23,2945.64,2962.05,3035.9,3006.15,3055.38,3015.9,2992.82,2520.51,3008.21,3043.08,0
15_12_45,118,2943.08,3050.77,2959.49,2932.31,2947.18,2963.08,3038.97,3005.64,3057.95,3022.05,2993.85,2525.64,3012.82,3047.18,0
15_12_45,119,2942.56,3051.28,2957.44,2929.74,2952.31,2966.15,3037.95,3005.13,3064.1,3023.08,2995.38,2534.36,3015.9,3048.72,0
15_12_45,120,2942.56,3057.44,2960,2934.87,2954.36,2968.72,3039.49,3006.15,3065.13,3020.51,2995.9,2532.31,3011.79,3046.15,0
15_12_45,121,2944.1,3054.87,2961.03,2944.62,2953.33,2967.18,3041.03,3010.26,3064.1,3020.51,2994.87,2527.18,3012.82,3049.74,0
15_12_45,122,2946.67,3053.33,2961.03,2940,2957.95,2969.74,3042.05,3010.77,3067.18,3022.56,2996.92,2529.23,3018.97,3051.79,0
15_12_45,123,2948.21,3060.51,2964.62,2933.85,2961.54,2973.85,3042.56,3008.72,3068.21,3023.08,2998.97,2534.87,3020,3050.77,0
15_12_45,124,2948.21,3061.54,2963.59,2941.03,2958.97,2975.9,3045.64,3012.31,3066.15,3022.56,2999.49,2533.33,3018.46,3052.31,0
15_12_45,125,2950.77,3057.44,2962.05,2946.67,2959.49,2976.92,3045.13,3013.85,3068.72,3024.62,3000.51,2531.79,3021.03,3056.41,0
15_12_45,126,2950.77,3061.54,2970.26,2944.1,2963.59,2977.95,3043.08,3013.85,3072.31,3031.28,3002.56,2535.9,3023.08,3056.41,0
15_12_45,127,2949.74,3064.62,2973.85,2944.62,2962.05,2976.92,3047.18,3018.97,3071.28,3033.85,3005.13,2541.03,3022.05,3055.38,0
15_12_45,128,2954.36,3062.05,2968.72,2949.23,2961.03,2977.44,3050.77,3023.08,3070.26,3031.79,3006.15,2540,3021.03,3055.9,0
15_12_45,0,2959.49,3066.15,2969.23,2949.74,2966.67,2980.51,3051.28,3021.54,3071.79,3034.36,3006.67,2535.38,3024.1,3054.36,0
15_12_45,1,2958.97,3069.23,2974.36,2946.67,2968.21,2981.03,3051.79,3021.03,3071.79,3038.97,3006.67,2538.97,3027.18,3054.87,0
15_12_45,2,2957.44,3065.13,2976.92,2950.77,2965.64,2982.05,3051.28,3022.56,3071.79,3037.95,3008.21,2546.67,3027.18,3060,0
15_12_45,3,2961.03,3067.18,2977.95,2959.49,2967.18,2984.1,3051.79,3022.56,3071.28,3036.41,3011.79,2545.64,3026.15,3063.08,0
15_12_45,4,2964.1,3070.26,2976.41,2960.51,2971.28,2985.13,3051.79,3024.1,3072.31,3037.95,3012.31,2541.03,3029.23,3060,0
15_12_45,5,2964.1,3070.26,2980,2957.44,2973.85,2987.18,3052.82,3026.15,3072.31,3037.95,3011.28,2543.08,3031.79,3061.03,0
15_12_45,6,2964.62,3070.26,2985.64,2960.51,2975.9,2988.21,3054.87,3025.13,3070.77,3037.95,3011.79,2545.13,3030.26,3063.59,0
15_12_45,7,2965.64,3070.77,2984.62,2962.05,2976.92,2988.21,3056.41,3024.62,3077.44,3040,3015.38,2548.72,3031.79,3065.13,0
15_12_45,8,2964.1,3070.26,2982.56,2962.56,2976.41,2991.28,3058.46,3025.64,3083.59,3040,3017.44,2553.33,3035.9,3066.67,0
15_12_45,9,2967.18,3070.26,2985.64,2962.05,2977.44,2992.82,3058.97,3032.31,3081.54,3038.46,3018.97,2550.77,3035.38,3068.21,0
15_12_45,10,2974.87,3072.82,2987.18,2964.62,2978.97,2992.31,3060,3039.49,3082.05,3040,3021.54,2548.72,3034.36,3070.26,0
15_12_45,11,2975.9,3073.85,2989.23,2970.26,2981.03,2994.36,3063.59,3039.49,3088.21,3046.15,3023.59,2553.33,3037.95,3072.31,0
15_12_45,12,2972.82,3075.38,2992.31,2967.69,2983.59,2995.9,3065.13,3036.41,3087.18,3048.72,3023.59,2554.36,3041.54,3070.77,0
15_12_45,13,2973.85,3078.46,2991.28,2965.13,2984.62,2997.44,3064.1,3037.95,3084.1,3049.23,3022.05,2553.85,3042.56,3072.31,0
15_12_45,14,2977.95,3080.51,2992.31,2972.31,2988.21,3002.05,3064.1,3037.95,3086.67,3053.33,3025.13,2557.95,3040,3072.82,0
15_12_45,15,2979.49,3081.03,2995.9,2976.41,2990.77,3001.03,3066.67,3037.95,3088.21,3055.9,3029.23,2561.03,3040,3070.77,0
15_12_45,16,2978.46,3080.51,2995.38,2973.33,2991.79,3001.03,3070.26,3038.97,3087.18,3053.85,3026.15,2559.49,3044.62,3072.82,0
15_12_45,17,2978.46,3082.05,2995.38,2975.38,2992.82,3006.15,3069.74,3040,3087.18,3053.33,3022.56,2558.97,3046.15,3075.38,0
15_12_45,18,2982.05,3085.64,2997.44,2977.95,2992.31,3005.64,3069.23,3038.46,3087.69,3054.36,3026.67,2562.56,3045.13,3073.85,0
15_12_45,19,2986.67,3087.69,2995.9,2976.41,2991.79,3004.1,3069.23,3038.97,3087.69,3055.38,3030.77,2563.08,3046.67,3076.92,0
15_12_45,20,2989.23,3087.18,2995.9,2977.95,2993.85,3008.21,3071.79,3041.03,3087.18,3055.38,3030.77,2560,3049.74,3080,0
15_12_45,21,2989.74,3086.15,3004.1,2979.49,2994.87,3010.77,3071.28,3038.46,3088.72,3054.87,3028.21,2560.51,3053.33,3076.41,0
15_12_45,22,2989.23,3087.69,3009.74,2977.95,2992.82,3008.21,3069.23,3040,3093.33,3054.87,3030.77,2566.67,3056.41,3078.46,0
15_12_45,23,2989.74,3086.67,3006.15,2978.46,2994.36,3009.23,3072.31,3048.72,3096.41,3055.38,3035.9,2568.72,3053.85,3085.13,0
15_12_45,24,2991.79,3086.15,3006.15,2985.13,2997.95,3011.79,3074.87,3057.95,3096.41,3054.87,3037.95,2567.18,3049.74,3087.18,0
15_12_45,25,2994.36,3086.67,3008.21,2991.28,2998.97,3011.79,3075.38,3052.82,3097.95,3056.41,3035.9,2567.69,3052.31,3084.1,0
15_12_45,26,2993.33,3085.13,3008.21,2991.79,3001.54,3013.33,3075.38,3043.59,3102.56,3064.1,3034.87,2568.72,3057.95,3086.67,0
15_12_45,27,2993.85,3087.18,3007.69,2990.26,3005.13,3018.46,3077.44,3047.69,3103.59,3070.26,3038.97,2566.15,3057.44,3088.21,0
15_12_45,28,3000.51,3091.79,3010.77,2989.74,3005.13,3020,3080,3055.38,3101.54,3070.26,3042.05,2568.72,3059.49,3090.77,0
15_12_45,29,3005.13,3094.36,3013.33,2990.77,3005.64,3017.95,3080.51,3055.9,3101.03,3068.72,3040.51,2571.28,3064.1,3092.82,0
15_12_45,30,3005.64,3090.26,3012.82,2993.33,3007.69,3017.95,3082.05,3054.36,3102.56,3067.69,3041.54,2571.28,3063.59,3092.82,0
15_12_45,31,3006.67,3088.21,3012.82,2994.36,3007.69,3022.56,3083.59,3055.38,3103.08,3068.72,3044.62,2572.82,3060,3092.31,0
15_12_45,32,3007.18,3092.82,3016.92,2994.87,3008.72,3023.59,3086.15,3055.9,3102.56,3070.77,3044.1,2576.41,3060,3093.85,0
15_12_45,33,3006.15,3096.41,3022.05,2998.46,3011.79,3022.56,3085.64,3054.36,3103.08,3071.79,3041.54,2577.95,3062.05,3094.36,0
15_12_45,34,3005.64,3097.44,3019.49,3003.59,3013.85,3025.13,3083.59,3053.85,3105.13,3070.26,3043.59,2577.44,3064.62,3094.87,0
15_12_45,35,3005.13,3096.92,3015.38,3006.67,3015.38,3027.18,3086.15,3056.41,3104.1,3070.26,3048.72,2578.97,3066.67,3095.9,0
15_12_45,36,3004.62,3098.46,3019.49,3007.18,3016.92,3028.72,3087.18,3062.05,3102.05,3071.28,3049.23,2581.54,3066.15,3096.41,0
15_12_45,37,3006.15,3101.54,3025.64,3005.64,3018.97,3028.72,3087.18,3065.64,3107.18,3072.31,3045.64,2583.59,3070.26,3096.41,0
15_12_45,38,3010.77,3102.05,3025.13,3005.13,3018.97,3027.69,3088.21,3069.23,3112.31,3070.77,3047.69,2580.51,3075.38,3096.92,0
15_12_45,39,3017.44,3102.05,3024.1,3007.18,3018.46,3029.23,3088.72,3069.74,3110.26,3071.79,3051.28,2578.46,3073.33,3098.46,0
15_12_45,40,3020.51,3102.05,3027.69,3006.67,3023.59,3034.36,3090.77,3068.21,3107.18,3076.92,3050.77,2580.51,3071.79,3099.49,0
15_12_45,41,3021.54,3102.56,3028.21,3010.26,3028.21,3037.95,3094.87,3070.26,3109.23,3079.49,3050.26,2580,3075.38,3098.97,0
15_12_45,42,3021.54,3103.59,3026.15,3017.95,3026.67,3036.92,3098.97,3072.31,3110.77,3076.92,3052.31,2579.49,3074.87,3099.49,0
15_12_45,43,3020,3104.1,3028.72,3016.41,3024.1,3036.92,3098.97,3070.77,3112.31,3078.46,3054.87,2587.69,3073.33,3102.05,0
15_12_45,44,3020.51,3104.1,3033.33,3015.38,3025.13,3039.49,3096.41,3071.28,3116.92,3083.59,3055.9,2595.9,3076.41,3104.1,0
15_12_45,45,3024.62,3106.15,3034.87,3021.54,3026.15,3040.51,3096.92,3073.33,3121.03,3086.67,3056.92,2593.33,3079.49,3106.67,0
15_12_45,46,3022.56,3108.21,3035.9,3021.54,3028.72,3040.51,3101.03,3069.74,3119.49,3086.67,3058.46,2589.23,3078.46,3105.13,0
15_12_45,47,3023.08,3108.72,3039.49,3018.46,3032.31,3041.03,3101.54,3073.33,3118.46,3085.64,3060,2592.82,3080.51,3104.1,0
15_12_45,48,3032.31,3110.26,3040.51,3023.08,3033.85,3044.1,3101.03,3081.03,3122.05,3085.64,3060,2590.26,3086.15,3106.67,0
15_12_45,49,3031.79,3111.28,3037.95,3024.62,3033.85,3044.1,3101.54,3078.97,3124.62,3086.67,3061.03,2585.13,3088.72,3110.26,0
15_12_45,50,3023.59,3112.31,3041.03,3022.05,3035.38,3044.62,3102.05,3073.85,3124.1,3088.21,3062.56,2589.74,3085.13,3111.79,0
15_12_45,51,3027.69,3114.87,3044.1,3022.05,3036.92,3045.64,3103.59,3078.46,3122.56,3088.72,3064.62,2597.44,3084.62,3112.82,0
15_12_45,52,3031.79,3113.85,3041.54,3022.56,3038.46,3046.15,3106.15,3085.13,3123.59,3087.69,3066.67,2597.44,3088.21,3111.79,0
15_12_45,53,3024.62,3113.85,3048.72,3025.64,3040,3049.74,3103.59,3085.64,3125.64,3089.74,3067.18,2600,3089.74,3112.82,0
15_12_45,54,3025.13,3116.92,3057.44,3025.13,3039.49,3052.31,3101.54,3086.15,3125.13,3092.31,3067.69,2602.05,3089.23,3116.41,0
15_12_45,55,3036.92,3116.41,3051.28,3024.62,3039.49,3050.26,3105.64,3086.67,3124.1,3094.36,3068.72,2600,3090.26,3118.97,0
15_12_45,56,3041.03,3115.9,3044.62,3029.74,3042.56,3051.79,3107.18,3086.67,3126.15,3096.92,3067.69,2598.97,3092.31,3116.41,0
15_12_45,57,3036.92,3117.95,3052.82,3032.31,3043.59,3054.36,3107.18,3088.72,3129.74,3095.9,3069.74,2600,3091.79,3116.41,0
15_12_45,58,3037.95,3118.46,3056.92,3029.23,3043.59,3053.33,3109.23,3087.69,3129.23,3097.44,3070.77,2600,3091.79,3121.03,0
15_12_45,59,3045.64,3119.49,3052.31,3030.77,3048.21,3054.36,3112.31,3087.18,3130.26,3103.08,3068.72,2600,3094.36,3121.54,0
15_12_45,60,3045.64,3123.59,3052.82,3036.92,3051.28,3059.49,3112.82,3086.15,3131.79,3103.59,3071.79,2604.1,3097.44,3118.97,0
15_12_45,61,3036.41,3125.13,3053.33,3037.95,3048.72,3061.03,3111.79,3086.67,3133.85,3101.03,3077.44,2605.13,3098.46,3119.49,0
15_12_45,62,3038.97,3125.13,3054.87,3037.44,3050.77,3060,3116.92,3090.26,3136.41,3104.62,3074.36,2603.08,3097.44,3121.54,0
15_12_45,63,3050.26,3125.64,3059.49,3039.49,3056.92,3060,3120,3094.36,3136.41,3106.15,3072.82,2603.08,3097.95,3119.49,0
15_12_45,64,3052.31,3126.67,3060.51,3040,3054.36,3058.97,3117.44,3097.95,3135.38,3104.1,3079.49,2606.15,3101.03,3123.08,0
15_12_45,65,3050.77,3127.18,3061.54,3038.46,3051.79,3059.49,3117.44,3101.54,3137.95,3107.18,3082.56,2606.67,3101.54,3127.69,0
15_12_45,66,3053.33,3126.15,3067.18,3040.51,3057.95,3064.1,3119.49,3102.56,3141.03,3110.26,3082.56,2606.67,3101.54,3129.23,0
15_12_45,67,3054.36,3127.69,3069.23,3046.15,3062.05,3069.23,3117.44,3101.03,3140.51,3109.23,3084.62,2608.72,3104.62,3127.18,0
15_12_45,68,3053.33,3131.79,3064.1,3046.15,3061.03,3069.74,3118.46,3102.05,3140,3107.69,3085.13,2612.82,3107.18,3125.64,0
15_12_45,69,3054.36,3134.36,3065.64,3047.69,3060,3069.23,3124.62,3103.08,3141.03,3110.26,3083.08,2616.41,3107.69,3127.69,0
15_12_45,70,3054.87,3134.36,3071.28,3053.85,3059.49,3070.77,3124.1,3102.56,3141.03,3112.82,3085.13,2617.95,3109.23,3130.26,0
15_12_45,71,3052.31,3132.82,3070.77,3054.87,3061.54,3070.77,3124.1,3102.05,3141.03,3112.31,3085.64,2617.44,3107.69,3128.72,0
15_12_45,72,3051.79,3132.31,3068.72,3052.82,3065.13,3070.26,3126.15,3102.05,3140.51,3111.28,3087.69,2616.41,3105.64,3129.23,0
15_12_45,73,3056.92,3136.41,3069.74,3053.85,3067.69,3072.82,3126.15,3104.1,3140.51,3113.85,3087.69,2613.85,3109.23,3134.36,0
15_12_45,74,3060.51,3140.51,3071.28,3054.36,3070.26,3074.36,3128.72,3108.21,3142.05,3117.95,3084.62,2613.33,3111.79,3134.36,0
15_12_45,75,3056.92,3141.03,3071.79,3054.87,3070.26,3075.9,3130.77,3109.74,3144.62,3117.44,3088.21,2616.41,3112.82,3131.79,0
15_12_45,76,3059.49,3139.49,3072.82,3055.9,3066.15,3080,3129.74,3108.21,3147.69,3116.92,3094.36,2619.49,3114.87,3135.38,0
15_12_46,77,3067.69,3139.49,3075.38,3055.38,3067.69,3082.05,3129.74,3108.21,3148.72,3120,3091.28,2622.05,3112.82,3138.46,0
15_12_46,78,3071.28,3140,3073.85,3057.44,3071.28,3079.49,3132.31,3110.26,3147.18,3120.51,3088.72,2624.62,3114.87,3135.38,0
15_12_46,79,3070.77,3140.51,3072.31,3064.1,3070.26,3080.51,3133.85,3113.33,3148.72,3118.46,3093.85,2625.64,3119.49,3136.92,0
15_12_46,80,3070.26,3141.54,3076.41,3068.21,3071.28,3086.67,3135.9,3116.92,3153.85,3121.03,3093.85,2621.54,3116.41,3141.54,0
15_12_46,81,3070.77,3140,3082.05,3067.18,3074.87,3088.21,3136.41,3118.97,3155.9,3124.1,3093.85,2620.51,3115.9,3140.51,0
15_12_46,82,3072.31,3141.03,3082.56,3065.64,3075.9,3084.62,3134.87,3118.46,3154.87,3124.62,3098.46,2621.03,3122.56,3140,0
15_12_46,83,3069.74,3147.18,3083.08,3067.18,3077.95,3085.13,3135.9,3117.44,3156.41,3124.62,3097.95,2618.46,3124.62,3144.62,0
15_12_46,84,3069.23,3151.28,3086.15,3069.74,3082.05,3087.69,3135.38,3116.92,3156.92,3125.13,3098.46,2623.08,3123.08,3145.13,0
15_12_46,85,3073.33,3149.74,3086.67,3070.26,3083.08,3085.13,3134.36,3118.46,3156.41,3124.62,3101.54,2633.33,3126.67,3145.64,0
15_12_46,86,3072.82,3149.74,3085.64,3069.74,3081.54,3086.67,3139.49,3118.97,3155.9,3125.13,3100.51,2633.85,3127.69,3148.21,0
15_12_46,87,3071.79,3151.79,3088.21,3070.77,3082.56,3092.31,3141.54,3118.46,3156.41,3128.21,3101.03,2630.26,3127.18,3148.72,0
15_12_46,88,3078.97,3150.26,3087.18,3071.79,3083.59,3093.85,3140.51,3121.03,3156.41,3128.72,3103.59,2632.31,3129.23,3146.67,0
15_12_46,89,3085.64,3150.77,3084.62,3070.77,3084.1,3091.79,3141.03,3125.13,3155.38,3130.77,3102.56,2634.36,3129.74,3148.72,0
15_12_46,90,3086.67,3156.41,3089.23,3070.77,3087.69,3090.77,3142.56,3125.13,3157.44,3133.85,3103.08,2632.82,3131.79,3151.79,0
15_12_46,91,3082.05,3157.95,3093.85,3074.87,3086.67,3093.33,3143.59,3123.59,3163.59,3135.9,3107.18,2629.74,3130.77,3151.79,0
15_12_46,92,3080,3157.44,3094.36,3079.49,3086.15,3096.92,3146.67,3125.13,3165.64,3137.44,3108.72,2632.31,3129.23,3151.79,0
15_12_46,93,3084.62,3157.95,3095.9,3080,3091.28,3101.03,3148.72,3128.21,3164.1,3139.49,3109.23,2640,3134.36,3151.28,0
15_12_46,94,3088.21,3156.92,3098.97,3078.97,3093.33,3102.05,3145.13,3129.23,3163.59,3140,3111.28,2640.51,3137.95,3153.33,0
15_12_46,95,3084.62,3155.9,3100.51,3082.05,3092.31,3100,3144.62,3126.67,3162.56,3139.49,3108.21,2636.92,3134.36,3156.92,0
15_12_46,96,3085.64,3157.95,3102.05,3083.59,3094.87,3101.03,3147.69,3128.72,3165.13,3140.51,3109.74,2640.51,3136.41,3158.97,0
15_12_46,97,3091.79,3156.92,3102.05,3082.05,3097.44,3102.05,3151.28,3134.87,3170.77,3141.54,3115.38,2640.51,3142.05,3155.9,0
15_12_46,98,3094.87,3158.97,3102.05,3086.15,3098.46,3101.03,3150.77,3136.92,3171.28,3142.56,3116.41,2636.41,3140,3156.92,0
15_12_46,99,3094.87,3165.13,3103.08,3089.74,3100,3104.1,3150.77,3136.92,3169.74,3141.03,3115.9,2640.51,3138.46,3160.51,0
15_12_46,100,3092.82,3166.15,3102.56,3088.72,3100,3108.21,3155.38,3140,3171.79,3139.49,3116.41,2644.62,3143.08,3160,0
15_12_46,101,3095.38,3164.62,3104.1,3088.72,3098.46,3108.21,3156.92,3140.51,3172.82,3143.08,3117.95,2643.08,3141.03,3158.46,0
15_12_46,102,3100,3165.13,3107.18,3088.21,3100.51,3108.72,3153.85,3138.97,3170.77,3147.18,3118.46,2645.13,3140.51,3160.51,0
15_12_46,103,3095.9,3166.15,3106.67,3089.74,3101.54,3112.31,3154.36,3140,3171.79,3144.62,3117.95,2645.13,3147.18,3161.03,0
15_12_46,104,3094.87,3167.69,3105.13,3093.85,3103.59,3112.82,3155.9,3142.05,3173.33,3142.05,3118.46,2642.56,3149.74,3164.1,0
15_12_46,105,3102.56,3170.77,3108.21,3095.38,3106.67,3113.33,3155.9,3142.05,3172.82,3148.72,3122.05,2645.13,3147.18,3167.69,0
15_12_46,106,3103.59,3171.28,3112.31,3095.38,3107.18,3116.92,3156.41,3141.03,3173.33,3156.41,3125.64,2649.23,3148.21,3169.74,0
15_12_46,107,3101.03,3170.26,3111.79,3100,3108.72,3118.46,3157.44,3141.54,3174.36,3156.41,3123.08,2646.67,3148.72,3169.23,0
15_12_46,108,3104.1,3170.77,3109.74,3103.08,3110.77,3117.95,3156.41,3144.62,3172.82,3154.36,3122.56,2645.64,3149.23,3169.74,0
15_12_46,109,3105.64,3172.31,3111.79,3101.03,3111.28,3117.44,3157.95,3147.18,3176.92,3155.9,3125.64,2649.23,3153.33,3168.21,0
15_12_46,110,3103.08,3172.31,3117.44,3102.56,3111.79,3118.97,3160,3149.23,3183.08,3157.44,3126.15,2648.21,3153.85,3168.21,0
15_12_46,111,3104.1,3171.79,3118.46,3103.59,3115.9,3119.49,3161.03,3149.23,3180.51,3156.41,3124.62,2649.23,3150.26,3171.79,0
15_12_46,112,3106.15,3172.31,3116.92,3102.05,3118.97,3116.92,3164.62,3147.69,3178.46,3156.41,3124.62,2651.79,3153.33,3175.38,0
15_12_46,113,3109.74,3173.33,3118.46,3100.51,3117.44,3120.51,3168.21,3149.74,3181.03,3156.92,3128.72,2652.82,3155.9,3175.38,0
15_12_46,114,3110.77,3173.85,3122.56,3102.05,3117.44,3126.15,3168.21,3154.87,3179.49,3157.44,3131.28,2654.87,3153.85,3172.82,0
15_12_46,115,3110.77,3172.31,3121.03,3105.13,3118.97,3125.13,3168.72,3156.41,3181.03,3155.9,3130.26,2658.97,3153.85,3175.38,0
15_12_46,116,3113.33,3174.36,3121.54,3108.21,3118.97,3123.08,3170.77,3154.87,3186.15,3157.44,3132.82,2658.46,3156.41,3176.41,0
15_12_46,117,3115.38,3182.05,3125.64,3109.74,3118.46,3124.62,3171.28,3155.38,3186.67,3162.56,3135.38,2657.44,3159.49,3176.92,0
15_12_46,118,3115.9,3184.62,3124.1,3112.31,3120,3127.69,3170.26,3156.92,3186.15,3165.13,3133.33,2659.49,3160,3176.92,0
15_12_46,119,3117.44,3182.05,3124.1,3114.36,3122.56,3129.74,3170.77,3156.92,3188.21,3164.62,3133.33,2660,3162.05,3178.46,0
15_12_46,120,3117.95,3185.64,3130.26,3113.85,3126.15,3130.77,3173.33,3156.41,3189.74,3166.15,3135.38,2659.49,3165.13,3181.03,0
15_12_46,121,3118.46,3187.69,3132.82,3115.9,3126.15,3130.26,3172.31,3156.92,3189.74,3165.13,3135.38,2661.54,3167.69,3182.56,0
15_12_46,122,3122.56,3184.62,3133.33,3117.44,3122.05,3131.79,3172.82,3156.92,3190.26,3163.08,3136.92,2661.54,3166.67,3178.97,0
15_12_46,123,3125.13,3185.13,3134.36,3114.87,3125.64,3134.87,3176.41,3156.41,3189.23,3168.72,3142.05,2662.05,3167.18,3179.49,0
15_12_46,124,3123.59,3187.69,3132.82,3117.95,3132.31,3135.38,3175.9,3158.46,3187.69,3173.33,3141.54,2663.59,3169.74,3184.1,0
15_12_46,125,3124.62,3187.18,3132.82,3123.59,3132.31,3136.41,3174.36,3164.1,3193.85,3169.74,3140.51,2663.59,3169.74,3184.1,0
15_12_46,126,3125.13,3188.21,3135.9,3120,3130.77,3136.41,3175.9,3166.15,3201.03,3169.23,3144.1,2662.05,3169.74,3182.05,0
15_12_46,127,3125.13,3188.21,3136.92,3116.41,3135.38,3135.38,3178.97,3162.56,3197.95,3173.33,3143.59,2664.62,3171.28,3184.62,0
15_12_46,128,3123.59,3187.69,3137.95,3122.56,3137.95,3138.97,3182.56,3163.59,3192.82,3174.36,3143.59,2668.21,3171.28,3188.72,0
15_12_46,0,3123.59,3190.26,3139.49,3125.64,3135.9,3141.54,3185.13,3166.15,3195.9,3172.82,3149.23,2668.72,3172.31,3189.74,0
15_12_46,1,3126.15,3189.74,3141.03,3124.1,3134.87,3138.46,3184.62,3165.64,3196.92,3173.33,3152.31,2668.21,3172.31,3188.21,0
15_12_46,2,3127.69,3188.21,3145.13,3124.62,3135.38,3140,3184.1,3168.72,3194.36,3173.85,3147.18,2667.69,3172.82,3189.23,0
15_12_46,3,3129.74,3196.41,3141.54,3125.13,3136.92,3144.1,3186.15,3173.33,3198.46,3172.82,3147.69,2668.72,3175.38,3192.82,0
15_12_46,4,3133.85,3201.54,3135.38,3130.26,3140.51,3143.08,3187.69,3172.31,3203.59,3174.36,3152.82,2668.72,3175.38,3191.79,0
15_12_46,5,3136.41,3194.87,3141.03,3135.9,3142.05,3144.1,3187.69,3170.26,3203.59,3178.97,3152.82,2669.23,3176.41,3189.74,0
15_12_46,6,3136.92,3195.38,3146.15,3132.31,3141.54,3149.23,3186.67,3171.79,3202.56,3183.08,3153.85,2670.26,3177.95,3192.31,0
15_12_46,7,3140,3203.59,3143.08,3130.26,3142.56,3150.26,3187.18,3172.82,3203.08,3183.08,3155.9,2672.31,3177.95,3198.46,0
15_12_46,8,3141.54,3201.03,3146.67,3135.38,3144.62,3150.77,3187.18,3171.28,3202.05,3182.05,3155.9,2673.33,3180.51,3196.92,0
15_12_46,9,3139.49,3197.44,3155.38,3134.36,3145.13,3151.28,3185.64,3171.79,3202.05,3183.59,3156.41,2676.41,3183.59,3193.33,0
15_12_46,10,3139.49,3201.03,3150.77,3131.79,3144.62,3151.79,3188.72,3176.92,3205.13,3186.67,3155.38,2680,3185.13,3198.97,0
15_12_46,11,3143.08,3202.56,3146.67,3138.97,3146.15,3153.33,3191.28,3182.05,3204.62,3186.67,3154.36,2683.08,3184.1,3206.15,0
15_12_46,12,3141.03,3203.59,3152.31,3143.08,3151.28,3153.85,3189.74,3180,3206.15,3186.67,3152.82,2685.13,3184.1,3200,0
15_12_46,13,3138.97,3205.64,3153.33,3139.49,3154.36,3153.85,3191.79,3177.95,3215.38,3188.72,3154.87,2685.13,3185.64,3194.36,0
15_12_46,14,3145.64,3204.1,3150.26,3138.97,3150.77,3155.9,3194.36,3180,3220,3189.23,3163.08,2680,3187.18,3202.05,0
15_12_46,15,3148.21,3203.59,3155.38,3141.03,3149.74,3157.44,3193.85,3182.05,3217.44,3188.21,3169.23,2676.41,3187.69,3205.64,0
15_12_46,16,3144.1,3204.1,3161.03,3142.05,3155.38,3159.49,3192.31,3179.49,3216.41,3189.23,3168.21,2678.46,3186.67,3202.56,0
15_12_46,17,3146.15,3203.59,3160.51,3143.08,3155.9,3159.49,3195.38,3178.97,3217.95,3190.26,3162.56,2680.51,3188.21,3200.51,0
15_12_46,18,3150.77,3203.59,3158.97,3147.69,3154.36,3156.41,3201.54,3183.59,3218.46,3190.26,3161.54,2680.51,3190.26,3202.05,0
15_12_46,19,3148.21,3206.15,3157.44,3150.77,3158.97,3158.97,3204.62,3188.21,3217.44,3188.21,3164.62,2683.59,3190.26,3205.64,0
15_12_46,20,3149.23,3205.64,3158.46,3149.23,3162.56,3162.56,3202.05,3188.72,3215.38,3187.69,3167.18,2688.21,3191.79,3207.18,0
15_12_46,21,3156.92,3204.1,3161.54,3150.77,3160,3162.05,3200,3188.21,3216.92,3195.9,3167.18,2688.72,3192.82,3206.67,0
15_12_46,22,3158.97,3211.28,3162.05,3153.33,3155.9,3163.08,3201.54,3188.21,3218.46,3202.05,3166.67,2687.18,3193.85,3207.18,0
15_12_46,23,3154.36,3219.49,3164.1,3152.82,3158.46,3164.62,3203.08,3187.69,3216.41,3199.49,3169.23,2688.21,3193.33,3209.74,0
15_12_46,24,3153.85,3217.95,3169.23,3153.85,3163.59,3166.67,3204.62,3190.77,3216.92,3198.46,3172.31,2690.77,3195.9,3211.28,0
15_12_46,25,3158.97,3214.87,3171.28,3156.41,3163.59,3169.23,3205.13,3190.77,3221.03,3201.03,3172.82,2690.26,3198.97,3209.23,0
15_12_46,26,3159.49,3216.92,3171.28,3156.92,3162.05,3170.26,3203.59,3188.72,3221.03,3200.51,3170.77,2690.26,3196.92,3210.26,0
15_12_46,27,3156.41,3217.44,3172.82,3157.44,3165.64,3170.26,3206.15,3194.36,3220,3200.51,3171.28,2690.77,3196.92,3213.33,0
15_12_46,28,3157.44,3215.38,3171.79,3156.41,3168.72,3170.77,3209.23,3202.56,3221.03,3201.54,3175.38,2691.28,3203.08,3217.95,0
15_12_46,29,3158.46,3215.9,3171.28,3155.38,3167.69,3172.31,3209.23,3201.54,3221.03,3201.54,3174.36,2692.31,3205.64,3218.46,0
15_12_46,30,3160,3217.95,3174.36,3157.95,3169.74,3173.33,3205.13,3198.97,3221.54,3203.59,3172.82,2695.38,3204.1,3217.95,0
15_12_46,31,3164.1,3218.97,3173.85,3159.49,3172.31,3173.85,3204.62,3201.54,3221.54,3204.62,3176.41,2695.9,3202.05,3218.97,0
15_12_46,32,3168.21,3219.49,3173.85,3157.44,3171.28,3174.87,3210.26,3202.56,3220.51,3203.59,3180.51,2693.33,3204.62,3220,0
15_12_46,33,3170.26,3220,3179.49,3161.54,3172.31,3177.95,3211.79,3201.54,3226.67,3204.62,3176.41,2692.31,3207.69,3219.49,0
15_12_46,34,3172.82,3220,3179.49,3169.23,3171.28,3181.54,3211.28,3201.03,3235.38,3204.1,3174.87,2696.41,3208.72,3222.05,0
15_12_46,35,3173.33,3220,3177.95,3168.72,3170.77,3178.97,3215.9,3202.05,3234.87,3205.13,3182.05,2701.03,3206.67,3224.62,0
15_12_46,36,3172.82,3220,3178.46,3164.62,3173.33,3177.44,3219.49,3204.1,3231.28,3205.64,3182.56,2702.56,3207.69,3222.56,0
15_12_46,37,3172.82,3220.51,3178.97,3168.21,3174.87,3183.08,3218.46,3204.1,3232.31,3205.64,3179.49,2706.67,3211.79,3222.05,0
15_12_46,38,3172.82,3222.56,3178.97,3172.31,3178.46,3186.67,3217.44,3203.59,3232.31,3211.79,3183.59,2705.13,3207.69,3223.08,0
15_12_46,39,3172.31,3221.54,3183.59,3171.28,3183.59,3186.15,3220,3205.64,3229.74,3218.46,3187.69,2701.03,3207.69,3222.56,0
15_12_46,40,3171.79,3224.1,3186.67,3170.77,3185.13,3186.15,3220,3203.08,3230.77,3217.44,3187.69,2703.59,3214.36,3225.13,0
15_12_46,41,3172.31,3228.72,3185.64,3172.82,3184.1,3187.18,3218.97,3205.13,3233.33,3215.9,3186.67,2706.15,3216.41,3229.23,0
15_12_46,42,3172.82,3227.18,3186.67,3173.85,3183.59,3186.67,3221.03,3213.33,3235.38,3217.44,3186.67,2703.08,3215.9,3228.21,0
15_12_46,43,3171.79,3228.21,3188.21,3172.31,3184.62,3187.18,3223.08,3214.36,3235.9,3217.44,3186.67,2705.64,3218.46,3226.67,0
15_12_46,44,3175.9,3234.36,3188.72,3172.82,3187.18,3188.72,3224.1,3211.28,3235.38,3215.38,3187.69,2709.74,3220,3227.69,0
15_12_46,45,3184.1,3234.36,3187.69,3176.92,3188.72,3185.64,3222.05,3218.97,3237.44,3216.41,3189.23,2707.69,3218.46,3231.28,0
15_12_46,46,3187.18,3231.79,3187.18,3177.44,3186.67,3188.21,3222.05,3220.51,3238.97,3219.49,3189.23,2707.18,3218.46,3229.23,0
15_12_46,47,3185.13,3234.36,3190.26,3177.95,3186.15,3194.36,3227.18,3209.74,3237.44,3219.49,3192.31,2710.26,3218.97,3229.23,0
15_12_46,48,3184.62,3233.85,3191.28,3184.62,3189.23,3195.38,3227.69,3209.74,3235.9,3217.44,3192.82,2710.26,3217.44,3234.87,0
15_12_46,49,3184.62,3232.31,3189.23,3188.21,3190.26,3194.87,3227.69,3218.46,3237.44,3219.49,3191.79,2710.77,3220.51,3237.95,0
15_12_46,50,3186.15,3234.36,3191.28,3185.64,3190.77,3195.9,3227.69,3218.97,3239.49,3222.56,3193.33,2712.82,3221.03,3235.38,0
15_12_46,51,3189.23,3235.38,3200,3185.13,3190.26,3196.41,3228.21,3217.95,3236.92,3221.03,3194.87,2714.87,3218.97,3234.87,0
15_12_46,52,3187.69,3237.44,3205.13,3186.67,3189.74,3194.36,3231.79,3219.49,3238.97,3221.54,3195.9,2712.31,3222.56,3236.41,0
15_12_46,53,3185.64,3238.97,3200.51,3186.15,3192.31,3195.9,3236.41,3220.51,3248.72,3222.05,3196.41,2710.26,3226.67,3236.92,0
15_12_46,54,3187.18,3238.46,3198.46,3186.67,3194.87,3201.03,3235.9,3219.49,3252.31,3219.49,3198.46,2716.41,3228.21,3237.95,0
15_12_46,55,3190.26,3236.41,3201.54,3188.21,3198.46,3203.59,3232.31,3222.05,3248.72,3225.64,3201.03,2719.49,3227.18,3235.9,0
15_12_46,56,3188.72,3236.92,3203.59,3189.74,3198.46,3203.08,3234.87,3222.56,3248.72,3234.87,3203.08,2714.36,3228.72,3236.92,0
15_12_46,57,3187.18,3238.46,3202.56,3188.72,3196.92,3201.54,3235.38,3218.46,3251.28,3233.85,3204.1,2714.87,3229.74,3241.54,0
15_12_46,58,3195.9,3234.87,3201.54,3188.21,3200,3203.08,3235.38,3221.03,3250.77,3230.26,3202.05,2721.03,3229.74,3241.54,0
15_12_46,59,3203.59,3235.38,3202.56,3193.33,3203.59,3204.1,3236.92,3232.82,3250.77,3231.79,3202.56,2720.51,3232.31,3241.03,0
15_12_46,60,3202.05,3246.15,3204.1,3193.33,3203.59,3203.59,3237.44,3232.82,3250.77,3232.82,3204.1,2717.95,3233.85,3245.13,0
15_12_46,61,3199.49,3252.31,3204.62,3191.79,3202.56,3204.1,3237.95,3217.95,3247.69,3229.74,3203.08,2720.51,3232.82,3246.15,0
15_12_46,62,3202.05,3248.21,3206.15,3194.87,3203.59,3206.67,3236.92,3220.51,3253.33,3236.41,3205.64,2723.08,3236.41,3248.21,0
15_12_46,63,3203.08,3249.23,3204.62,3197.44,3204.1,3209.74,3237.44,3227.69,3247.18,3230.26,3201.03,2720.51,3232.82,3242.56,0
15_12_46,64,3202.56,3254.36,3207.18,3198.46,3204.62,3206.67,3244.62,3236.92,3254.36,3238.46,3210.77,2724.1,3238.46,3250.26,0
15_12_46,65,3202.05,3251.79,3212.82,3201.54,3206.67,3205.13,3251.79,3243.08,3267.69,3255.9,3217.95,2728.72,3245.64,3257.95,0
15_12_46,66,3202.05,3248.72,3211.79,3202.56,3205.13,3211.28,3249.23,3237.95,3266.15,3251.28,3212.82,2730.77,3242.05,3255.38,0
15_12_46,67,3204.1,3251.79,3210.77,3201.54,3205.13,3214.87,3246.67,3249.23,3276.92,3266.67,3221.03,2737.95,3248.72,3262.05,0
15_12_46,68,3203.59,3251.79,3213.85,3203.59,3210.26,3214.36,3249.74,3252.82,3277.44,3269.74,3222.56,2740,3252.31,3265.13,0
15_12_46,69,3204.1,3249.74,3216.41,3205.13,3217.95,3216.41,3251.28,3250.26,3281.03,3270.77,3224.1,2740,3255.38,3262.56,0
15_12_46,70,3204.62,3251.28,3217.44,3203.59,3217.44,3218.46,3249.23,3244.1,3275.9,3262.05,3222.05,2740,3251.28,3254.36,0
15_12_46,71,3208.72,3254.87,3223.59,3206.67,3214.87,3219.49,3250.77,3269.23,3303.08,3300,3243.08,2752.31,3268.72,3275.38,0
15_12_46,72,3210.26,3254.87,3221.03,3206.15,3218.97,3219.49,3252.31,3266.67,3296.92,3299.49,3236.92,2757.95,3265.13,3278.97,0
15_12_46,73,3208.72,3254.87,3221.03,3203.59,3221.03,3221.03,3252.82,3271.79,3303.59,3307.18,3243.08,2765.13,3274.36,3283.59,0
15_12_46,74,3214.87,3254.36,3226.67,3208.21,3218.46,3220,3251.79,3286.67,3318.46,3330.26,3251.79,2773.33,3286.67,3288.72,0
15_12_46,75,3221.54,3256.92,3226.15,3217.44,3218.46,3221.54,3252.31,3280,3310.77,3322.56,3243.59,2779.49,3278.97,3282.56,0
15_12_47,76,3218.46,3263.59,3223.08,3218.46,3219.49,3222.05,3253.85,3267.69,3301.03,3305.13,3237.95,2785.13,3272.31,3278.97,0
15_12_47,77,3214.87,3265.64,3226.15,3216.41,3221.54,3221.03,3254.87,3282.05,3316.41,3324.1,3253.85,2794.36,3287.18,3292.31,0
15_12_47,78,3218.97,3264.1,3229.74,3216.92,3222.05,3225.64,3253.85,3289.23,3317.95,3330.26,3254.87,2800,3287.18,3292.31,0
15_12_47,79,3219.49,3265.64,3230.26,3217.44,3218.97,3224.1,3255.38,3274.36,3298.46,3305.64,3238.46,2800,3270.77,3275.9,0
15_12_47,80,3217.44,3266.15,3232.82,3216.41,3224.1,3223.59,3255.9,3285.13,3315.38,3323.59,3253.85,2809.74,3283.59,3287.69,0
15_12_47,81,3219.49,3265.13,3234.36,3217.95,3230.26,3229.74,3257.44,3296.92,3327.69,3342.56,3265.64,2824.1,3295.38,3301.03,0
15_12_47,82,3219.49,3266.67,3230.77,3217.95,3228.72,3231.28,3262.05,3284.62,3312.82,3327.69,3252.31,2832.31,3284.1,3288.72,0
15_12_47,83,3220.51,3266.67,3228.21,3217.95,3229.74,3228.21,3263.59,3289.23,3323.08,3338.97,3254.87,2843.08,3290.77,3289.74,0
15_12_47,84,3222.56,3266.15,3230.26,3220.51,3235.38,3232.31,3261.54,3295.9,3332.31,3347.18,3260.51,2853.33,3296.92,3294.87,0
15_12_47,85,3223.59,3269.23,3230.77,3222.05,3233.33,3235.38,3265.13,3287.69,3318.46,3329.23,3254.36,2861.03,3288.21,3288.21,0
15_12_47,86,3227.69,3269.23,3231.79,3221.54,3229.74,3232.31,3268.21,3292.82,3321.03,3334.87,3259.49,2872.82,3293.33,3289.23,0
15_12_47,87,3228.21,3267.18,3235.9,3220.51,3234.87,3233.85,3265.13,3299.49,3331.79,3346.67,3265.13,2885.64,3298.46,3296.41,0
15_12_47,88,3225.64,3267.69,3238.97,3220.51,3236.92,3234.36,3264.62,3280,3310.26,3313.33,3246.15,2887.18,3280.51,3283.59,0
15_12_47,89,3225.13,3268.72,3241.03,3220,3234.87,3234.36,3266.15,3286.67,3316.92,3317.44,3252.31,2901.03,3287.18,3287.18,0
15_12_47,90,3227.69,3270.26,3238.46,3220,3235.38,3235.38,3264.1,3287.18,3314.36,3317.95,3255.38,2915.38,3290.26,3290.26,0
15_12_47,91,3231.79,3269.74,3238.97,3222.05,3236.92,3235.38,3266.67,3283.08,3310.77,3315.9,3252.82,2925.64,3289.74,3292.31,0
15_12_47,92,3233.85,3268.21,3235.9,3221.54,3236.92,3236.41,3267.69,3276.41,3297.44,3298.46,3241.54,2930.77,3282.56,3281.03,0
15_12_47,93,3233.33,3275.38,3236.41,3222.56,3235.9,3236.92,3267.69,3286.15,3302.05,3302.05,3250.26,2942.56,3288.72,3285.64,0
15_12_47,94,3231.28,3280.51,3236.92,3229.74,3235.38,3235.38,3267.69,3278.46,3298.46,3299.49,3251.28,2953.33,3285.13,3289.74,0
15_12_47,95,3232.82,3279.49,3237.44,3237.44,3238.97,3238.46,3268.72,3269.23,3298.97,3293.85,3249.74,2958.97,3284.1,3285.13,0
15_12_47,96,3233.85,3277.95,3240.51,3231.79,3238.97,3238.46,3268.72,3267.69,3298.97,3286.67,3247.69,2964.62,3283.08,3280,0
15_12_47,97,3235.38,3280,3247.69,3223.59,3238.97,3237.95,3268.72,3267.69,3294.36,3277.44,3248.21,2971.79,3281.03,3282.05,0
15_12_47,98,3235.9,3281.54,3250.77,3228.21,3240,3243.59,3269.23,3273.33,3301.03,3288.21,3253.85,2983.59,3287.18,3287.69,0
15_12_47,99,3234.87,3280.51,3247.69,3235.9,3242.05,3245.64,3269.74,3266.67,3294.87,3280.51,3249.23,2987.18,3283.08,3281.03,0
15_12_47,100,3237.95,3280.51,3248.72,3235.9,3243.08,3244.62,3268.21,3270.77,3298.97,3283.59,3252.31,2994.87,3285.64,3286.67,0
15_12_47,101,3236.92,3281.54,3249.74,3233.85,3242.56,3247.69,3270.77,3276.92,3296.92,3285.13,3250.26,3003.59,3284.62,3288.72,0
15_12_47,102,3234.36,3282.56,3248.72,3235.9,3244.62,3249.23,3276.41,3283.59,3297.44,3286.15,3251.79,3010.26,3284.62,3286.15,0
15_12_47,103,3240,3281.54,3250.26,3236.41,3250.26,3248.72,3275.38,3283.08,3299.49,3284.1,3252.31,3013.85,3283.08,3285.13,0
15_12_47,104,3248.72,3281.03,3252.31,3235.38,3252.82,3251.79,3275.38,3282.05,3297.95,3281.54,3252.31,3015.9,3283.59,3289.23,0
15_12_47,105,3252.31,3283.59,3252.31,3235.9,3249.74,3252.82,3282.05,3284.1,3298.97,3283.59,3253.33,3023.08,3287.69,3291.28,0
15_12_47,106,3244.62,3283.59,3251.79,3236.41,3249.74,3250.26,3285.13,3282.56,3300.51,3285.13,3254.36,3031.79,3287.69,3290.26,0
15_12_47,107,3237.95,3283.59,3252.31,3237.44,3251.28,3252.31,3282.05,3281.54,3300.51,3286.15,3257.44,3037.44,3288.21,3291.28,0
15_12_47,108,3245.64,3284.62,3253.85,3237.44,3249.74,3252.31,3281.03,3282.05,3298.46,3285.64,3258.97,3044.62,3289.23,3293.33,0
15_12_47,109,3251.79,3286.15,3252.31,3237.44,3250.77,3252.82,3282.56,3282.05,3300,3286.15,3260,3054.36,3289.23,3291.28,0
15_12_47,110,3248.21,3284.62,3251.28,3241.03,3250.77,3254.36,3284.1,3281.54,3302.56,3285.64,3260,3060.51,3288.21,3289.74,0
15_12_47,111,3246.67,3283.59,3253.85,3248.21,3252.31,3251.28,3284.62,3282.05,3302.56,3284.62,3263.08,3067.69,3292.31,3294.87,0
15_12_47,112,3250.26,3286.15,3253.33,3251.28,3253.33,3253.33,3283.59,3283.59,3301.54,3291.79,3262.05,3076.41,3293.33,3298.46,0
15_12_47,113,3250.77,3285.64,3256.41,3249.74,3251.79,3259.49,3284.62,3283.08,3301.03,3300,3258.97,3081.03,3289.74,3296.92,0
15_12_47,114,3252.31,3287.69,3264.62,3249.23,3252.82,3257.95,3284.62,3281.54,3303.59,3299.49,3262.56,3086.67,3293.33,3294.87,0
15_12_47,115,3253.85,3295.38,3266.15,3249.23,3252.82,3251.79,3284.1,3282.56,3305.13,3295.9,3266.15,3094.87,3298.46,3298.46,0
15_12_47,116,3253.85,3300.51,3264.62,3251.28,3252.82,3254.36,3286.15,3284.1,3304.1,3297.44,3267.18,3101.03,3297.44,3298.97,0
15_12_47,117,3252.82,3295.9,3267.18,3252.82,3260,3263.08,3284.62,3284.62,3307.69,3298.97,3267.18,3108.21,3297.95,3297.95,0
15_12_47,118,3254.36,3289.23,3267.69,3250.77,3266.67,3267.18,3286.15,3285.13,3315.38,3297.44,3268.72,3115.38,3298.97,3298.46,0
15_12_47,119,3255.9,3292.82,3266.67,3250.26,3264.62,3264.62,3289.74,3285.64,3316.41,3297.44,3267.69,3118.97,3293.85,3299.49,0
15_12_47,120,3253.33,3300,3266.67,3251.79,3264.62,3262.56,3288.72,3285.13,3314.87,3297.44,3266.67,3124.62,3293.33,3300,0
15_12_47,121,3255.9,3300,3263.59,3251.79,3268.72,3266.67,3290.77,3286.15,3316.41,3297.44,3270.77,3131.79,3299.49,3301.54,0
15_12_47,122,3265.64,3297.44,3264.1,3251.79,3266.15,3268.72,3295.38,3286.15,3317.44,3297.44,3270.77,3136.92,3298.97,3302.05,0
15_12_47,123,3267.69,3297.95,3268.72,3251.28,3264.62,3265.64,3296.92,3284.62,3316.41,3297.95,3268.21,3145.13,3296.92,3305.64,0
15_12_47,124,3263.08,3298.46,3266.67,3252.31,3268.21,3266.67,3297.95,3293.33,3316.41,3298.97,3270.26,3150.26,3298.46,3306.67,0
15_12_47,125,3263.59,3298.46,3266.15,3261.03,3268.21,3268.21,3300,3300,3316.41,3300,3276.41,3155.9,3300.51,3301.03,0
15_12_47,126,3265.13,3301.03,3268.72,3262.56,3268.21,3269.23,3299.49,3289.23,3316.41,3299.49,3277.44,3164.62,3301.54,3297.95,0
15_12_47,127,3265.13,3300.51,3267.18,3258.46,3269.74,3268.72,3297.95,3283.59,3316.41,3299.49,3272.31,3167.69,3301.54,3304.62,0
15_12_47,128,3266.15,3298.97,3270.77,3263.08,3268.21,3267.18,3299.49,3295.9,3316.41,3300,3273.85,3170.77,3306.15,3311.28,0
15_12_47,0,3266.15,3300,3276.92,3267.18,3270.26,3271.28,3298.97,3302.56,3316.41,3300,3277.44,3181.54,3308.72,3310.77,0
15_12_47,1,3265.13,3301.54,3277.95,3264.1,3274.87,3275.9,3299.49,3296.41,3316.41,3300.51,3276.92,3190.26,3306.67,3309.74,0
15_12_47,2,3265.13,3303.08,3278.46,3265.64,3275.38,3277.95,3300,3296.92,3315.9,3301.54,3279.49,3193.33,3305.13,3311.28,0
15_12_47,3,3266.15,3303.59,3282.05,3268.72,3272.31,3275.38,3300,3300,3316.92,3302.56,3283.59,3196.41,3308.72,3311.28,0
15_12_47,4,3268.21,3301.03,3281.03,3266.15,3272.31,3272.82,3300,3298.46,3315.9,3301.54,3284.1,3201.54,3308.72,3309.23,0
15_12_47,5,3271.28,3301.54,3280,3267.69,3273.33,3276.41,3300,3297.95,3315.38,3301.03,3281.54,3209.23,3309.74,3312.31,0
15_12_47,6,3269.23,3309.23,3280.51,3269.23,3275.38,3283.59,3300.51,3299.49,3320,3301.03,3283.08,3214.36,3311.28,3316.41,0
15_12_47,7,3268.72,3313.33,3280.51,3267.69,3279.49,3284.1,3301.03,3299.49,3322.56,3302.56,3284.1,3222.05,3308.21,3317.44,0
15_12_47,8,3276.41,3311.28,3282.56,3268.72,3282.05,3281.54,3301.54,3297.95,3317.95,3306.15,3281.54,3230.26,3309.23,3314.36,0
15_12_47,9,3282.05,3312.82,3284.1,3268.21,3281.03,3283.59,3299.49,3299.49,3316.92,3309.74,3283.59,3233.85,3313.33,3314.36,0
15_12_47,10,3280.51,3315.38,3284.62,3268.21,3280.51,3284.1,3300.51,3302.05,3323.59,3312.82,3287.18,3234.36,3313.33,3317.44,0
15_12_47,11,3280,3315.9,3285.64,3271.79,3282.56,3282.56,3305.13,3300.51,3327.69,3311.79,3289.23,3240.51,3312.31,3320,0
15_12_47,12,3282.56,3314.87,3285.64,3273.85,3283.59,3284.62,3305.64,3300,3328.21,3311.28,3287.18,3249.74,3312.31,3318.46,0
15_12_47,13,3282.05,3313.33,3285.13,3271.79,3282.56,3284.62,3306.67,3302.56,3330.77,3314.36,3285.64,3256.92,3313.85,3319.49,0
15_12_47,14,3280.51,3314.36,3284.62,3272.82,3284.1,3285.64,3310.26,3300.51,3331.28,3314.87,3288.21,3260.51,3314.87,3320.51,0
15_12_47,15,3281.03,3314.36,3283.59,3280.51,3285.13,3284.62,3311.79,3301.03,3329.23,3312.31,3291.28,3267.18,3318.97,3321.03,0
15_12_47,16,3282.56,3314.36,3286.67,3283.08,3284.62,3282.05,3312.82,3308.72,3329.74,3311.79,3291.79,3274.36,3317.95,3321.03,0
15_12_47,17,3283.08,3315.38,3293.33,3279.49,3284.62,3287.18,3314.36,3309.74,3332.31,3312.31,3291.28,3276.92,3314.87,3320.51,0
15_12_47,18,3282.05,3315.38,3295.38,3280,3285.13,3291.28,3312.31,3309.74,3331.28,3311.79,3295.38,3283.08,3316.92,3322.05,0
15_12_47,19,3282.56,3315.38,3290.77,3284.62,3285.13,3290.77,3311.28,3312.82,3330.26,3313.85,3297.95,3291.28,3319.49,3325.64,0
15_12_47,20,3284.1,3316.41,3289.23,3285.13,3283.08,3292.82,3316.41,3314.36,3331.28,3315.9,3295.38,3295.38,3322.56,3325.64,0
15_12_47,21,3284.62,3320.51,3294.87,3283.08,3287.69,3297.95,3315.9,3313.85,3332.82,3316.41,3297.95,3297.95,3322.56,3325.64,0
15_12_47,22,3284.62,3321.54,3298.46,3283.59,3292.82,3294.36,3312.82,3312.82,3333.33,3315.38,3300,3304.62,3322.56,3329.74,0
15_12_47,23,3283.59,3318.46,3298.46,3283.59,3291.28,3291.28,3313.85,3312.31,3331.79,3317.44,3300,3312.31,3322.05,3328.21,0
15_12_47,24,3292.31,3318.97,3297.95,3284.1,3291.79,3295.9,3315.9,3313.85,3332.31,3321.54,3298.97,3318.46,3324.62,3327.18,0
15_12_47,25,3300.51,3324.62,3299.49,3286.15,3297.95,3297.95,3316.92,3315.9,3332.31,3321.03,3300,3320,3326.67,3328.72,0
15_12_47,26,3292.82,3327.18,3301.54,3284.1,3298.97,3297.44,3315.9,3315.38,3329.74,3322.05,3301.03,3325.13,3325.64,3328.72,0
15_12_47,27,3288.21,3326.67,3301.03,3285.64,3296.92,3298.46,3317.95,3316.41,3335.9,3326.67,3299.49,3333.85,3325.64,3325.64,0
15_12_47,28,3294.87,3329.23,3300,3291.79,3297.95,3299.49,3320,3316.92,3342.56,3328.21,3301.03,3335.9,3325.64,3327.18,0
15_12_47,29,3298.97,3327.69,3301.03,3292.31,3299.49,3299.49,3318.97,3316.41,3333.85,3328.72,3299.49,3334.87,3328.72,3328.72,0
15_12_47,30,3296.92,3326.15,3302.56,3293.33,3299.49,3299.49,3318.97,3316.41,3331.28,3330.26,3301.03,3342.05,3331.28,3327.69,0
15_12_47,31,3289.74,3329.74,3301.03,3296.41,3300,3300.51,3323.59,3315.9,3344.62,3329.74,3304.62,3351.79,3329.74,3328.72,0
15_12_47,32,3282.05,3331.28,3301.03,3296.41,3298.97,3297.95,3329.23,3315.9,3348.21,3329.74,3305.13,3355.9,3329.23,3333.33,0
15_12_47,33,3288.21,3331.28,3301.54,3295.38,3299.49,3298.97,3328.21,3316.41,3341.03,3331.79,3308.21,3360,3329.23,3335.38,0
15_12_47,34,3300.51,3331.79,3303.08,3297.44,3300,3304.62,3326.15,3314.87,3344.62,3330.77,3312.31,3368.21,3330.77,3334.36,0
15_12_47,35,3300.51,3330.77,3308.21,3297.95,3300,3305.13,3328.72,3316.92,3348.21,3329.74,3311.28,3372.31,3330.77,3333.33,0
15_12_47,36,3298.97,3329.23,3306.67,3296.92,3302.56,3304.62,3331.79,3322.05,3343.59,3330.26,3312.82,3375.38,3331.79,3337.95,0
15_12_47,37,3300.51,3331.28,3306.67,3298.97,3303.08,3306.67,3330.26,3325.64,3343.08,3330.77,3316.92,3383.08,3330.77,3339.49,0
15_12_47,38,3299.49,3332.31,3310.26,3300,3304.62,3309.74,3326.67,3326.67,3343.59,3331.79,3314.36,3392.31,3330.26,3336.41,0
15_12_47,39,3300,3332.31,3310.26,3301.54,3305.13,3308.72,3329.74,3328.72,3343.08,3330.77,3312.31,3397.44,3332.31,3337.44,0
15_12_47,40,3301.54,3336.41,3309.23,3299.49,3307.69,3307.18,3332.82,3329.74,3346.67,3330.26,3316.41,3398.97,3334.36,3339.49,0
15_12_47,41,3300,3336.41,3313.85,3296.41,3310.26,3311.28,3330.26,3330.26,3349.23,3331.28,3317.95,3401.54,3335.38,3337.44,0
15_12_47,42,3301.03,3337.95,3316.92,3301.03,3307.69,3314.87,3330.26,3331.79,3348.21,3332.82,3317.44,3406.67,3332.31,3337.95,0
15_12_47,43,3306.67,3341.03,3315.38,3300.51,3309.23,3313.85,3333.85,3330.77,3346.67,3332.31,3318.46,3411.28,3334.36,3341.03,0
15_12_47,44,3308.21,3335.9,3314.87,3299.49,3316.92,3308.21,3334.36,3329.23,3347.69,3330.77,3317.95,3415.38,3338.46,3338.97,0
15_12_47,45,3307.18,3335.9,3314.36,3305.64,3318.46,3311.79,3331.79,3330.26,3348.72,3332.82,3317.95,3423.08,3337.44,3339.49,0
15_12_47,46,3311.79,3346.15,3315.38,3310.26,3314.36,3318.46,3332.31,3331.28,3348.72,3338.97,3318.46,3424.62,3337.44,3341.54,0
15_12_47,47,3316.41,3348.21,3318.46,3305.13,3315.38,3318.46,3333.33,3331.28,3351.28,3344.62,3320.51,3424.62,3341.54,3345.13,0
15_12_47,48,3314.87,3342.56,3316.92,3300.51,3316.92,3316.41,3333.33,3330.77,3354.36,3346.67,3323.59,3433.33,3343.59,3349.74,0
15_12_47,49,3313.85,3342.56,3316.41,3306.67,3314.36,3316.92,3333.85,3331.28,3355.9,3347.18,3324.1,3440,3340.51,3350.26,0
15_12_47,50,3314.87,3343.08,3317.95,3310.26,3314.87,3319.49,3334.36,3332.31,3354.36,3346.15,3325.64,3444.1,3338.46,3347.18,0
15_12_47,51,3314.36,3343.08,3321.03,3311.79,3316.41,3317.44,3336.41,3332.82,3353.33,3343.08,3326.15,3451.79,3341.03,3348.72,0
15_12_47,52,3313.85,3347.18,3318.46,3313.85,3316.92,3316.92,3336.92,3332.82,3354.36,3343.59,3324.62,3456.41,3344.62,3350.77,0
15_12_47,53,3313.85,3347.18,3313.85,3314.36,3315.9,3317.44,3338.46,3332.82,3356.92,3347.69,3324.62,3456.92,3344.1,3349.23,0
15_12_47,54,3315.38,3346.67,3320,3314.87,3314.87,3316.92,3339.49,3333.33,3358.97,3346.67,3328.72,3463.59,3343.59,3349.74,0
15_12_47,55,3316.41,3346.67,3329.23,3313.85,3317.95,3321.54,3341.03,3332.31,3357.44,3343.08,3330.26,3471.28,3347.69,3352.31,0
15_12_47,56,3315.38,3347.18,3330.26,3315.38,3318.46,3323.08,3345.64,3332.31,3358.46,3343.08,3326.67,3475.9,3349.23,3352.82,0
15_12_47,57,3317.95,3348.21,3327.18,3315.38,3321.03,3324.1,3347.18,3336.41,3362.56,3343.59,3329.74,3480,3348.21,3352.31,0
15_12_47,58,3323.59,3347.69,3328.72,3315.38,3324.62,3324.62,3347.69,3340.51,3363.59,3344.1,3333.33,3482.05,3347.69,3353.33,0
15_12_47,59,3323.59,3346.67,3331.28,3317.44,3326.15,3325.13,3346.67,3338.46,3361.54,3347.69,3329.74,3485.64,3348.72,3353.85,0
15_12_47,60,3322.56,3350.77,3328.21,3317.44,3324.62,3323.08,3347.69,3337.44,3362.05,3348.72,3329.74,3492.31,3349.74,3353.85,0
15_12_47,61,3325.64,3355.38,3328.21,3317.44,3324.1,3321.54,3346.67,3341.54,3362.56,3348.72,3336.41,3495.38,3348.72,3353.33,0
15_12_47,62,3327.69,3353.85,3331.28,3317.95,3327.18,3325.64,3345.64,3343.59,3362.05,3349.74,3336.41,3500,3351.28,3358.97,0
15_12_47,63,3328.21,3351.79,3330.77,3320,3329.74,3327.69,3347.69,3342.05,3362.56,3349.23,3332.31,3506.67,3353.33,3362.56,0
15_12_47,64,3329.23,3354.87,3330.77,3319.49,3330.26,3328.72,3347.18,3344.1,3364.1,3349.23,3335.38,3513.85,3353.33,3358.46,0
15_12_47,65,3329.23,3358.46,3331.79,3320,3330.26,3329.23,3347.69,3348.21,3363.08,3352.82,3336.92,3515.9,3354.36,3355.9,0
15_12_47,66,3329.23,3360.51,3332.82,3325.13,3331.79,3330.77,3350.26,3348.21,3363.08,3356.41,3336.41,3515.9,3354.36,3359.49,0
15_12_47,67,3330.26,3360.51,3334.36,3330.77,3331.79,3332.82,3350.77,3346.67,3366.15,3358.97,3340,3519.49,3352.31,3361.03,0
15_12_47,68,3330.26,3361.03,3336.41,3331.79,3330.26,3331.79,3350.77,3347.18,3368.21,3358.97,3339.49,3527.18,3355.9,3362.56,0
15_12_47,69,3329.74,3360.51,3334.87,3330.77,3331.79,3331.79,3350.77,3346.67,3371.79,3360,3338.46,3532.31,3360.51,3367.18,0
15_12_47,70,3331.28,3361.03,3335.38,3330.77,3333.33,3333.33,3349.74,3346.67,3374.36,3362.56,3342.05,3535.38,3357.44,3364.1,0
15_12_47,71,3332.31,3362.05,3340,3330.77,3334.36,3336.41,3351.79,3347.69,3371.28,3364.1,3345.13,3540,3358.46,3360.51,0
15_12_47,72,3331.79,3362.56,3341.54,3329.23,3334.36,3334.36,3356.92,3348.21,3367.69,3362.56,3345.13,3545.13,3360.51,3366.15,0
15_12_47,73,3331.79,3362.05,3342.05,3331.79,3335.38,3333.85,3355.9,3347.18,3369.74,3362.05,3345.13,3550.26,3358.46,3367.18,0
15_12_47,74,3332.31,3361.54,3343.08,3333.33,3339.49,3339.49,3354.87,3346.67,3370.77,3362.56,3346.67,3552.82,3361.03,3365.64,0
15_12_48,75,3333.33,3363.59,3343.59,3332.82,3341.54,3339.49,3358.97,3350.77,3369.74,3362.56,3348.72,3554.36,3366.67,3369.74,0
15_12_48,76,3332.82,3364.62,3344.1,3333.33,3342.05,3337.95,3360.51,3354.87,3373.33,3362.56,3351.28,3558.97,3365.64,3370.26,0
15_12_48,77,3331.79,3364.1,3341.54,3331.28,3341.54,3340,3361.03,3353.33,3376.92,3362.56,3350.77,3564.62,3362.56,3365.64,0
15_12_48,78,3332.82,3363.08,3342.56,3332.31,3340,3342.56,3362.56,3352.31,3377.95,3363.59,3350.26,3568.72,3364.1,3366.15,0
15_12_48,79,3337.95,3363.08,3347.69,3335.38,3342.05,3343.08,3361.03,3358.46,3378.97,3363.59,3351.28,3572.82,3365.13,3370.77,0
15_12_48,80,3344.1,3366.15,3347.69,3335.9,3344.62,3343.08,3360,3363.08,3378.97,3363.08,3351.28,3577.44,3363.59,3371.79,0
15_12_48,81,3345.13,3366.67,3346.67,3334.36,3343.08,3342.56,3360.51,3361.54,3377.95,3363.59,3353.33,3580,3367.18,3371.28,0
15_12_48,82,3343.59,3366.15,3348.72,3336.41,3342.05,3343.08,3362.05,3361.54,3380,3363.59,3355.9,3583.08,3370.77,3371.28,0
15_12_48,83,3343.08,3369.23,3348.21,3340.51,3345.64,3347.18,3364.1,3363.08,3383.59,3362.56,3356.92,3591.28,3370.26,3375.38,0
15_12_48,84,3344.62,3371.28,3348.21,3344.1,3347.69,3350.26,3366.15,3362.56,3384.62,3365.64,3358.97,3597.44,3369.23,3374.36,0
15_12_48,85,3346.15,3371.28,3351.79,3346.67,3346.15,3350.26,3368.21,3362.05,3383.59,3369.23,3361.03,3597.44,3372.31,3372.31,0
15_12_48,86,3346.67,3373.85,3350.26,3343.08,3346.67,3350.77,3367.18,3363.59,3383.08,3369.23,3360.51,3601.03,3372.82,3374.87,0
15_12_48,87,3346.15,3377.44,3352.31,3342.56,3350.26,3351.28,3365.64,3363.08,3383.08,3368.21,3360,3610.77,3370.77,3373.85,0
15_12_48,88,3346.15,3375.38,3357.95,3345.64,3351.28,3351.28,3368.72,3362.56,3383.59,3369.74,3359.49,3612.82,3371.28,3372.82,0
15_12_48,89,3347.18,3373.85,3355.9,3345.64,3350.77,3348.72,3370.26,3365.64,3384.1,3373.85,3357.95,3610.77,3372.82,3376.41,0
15_12_48,90,3346.67,3376.92,3354.36,3346.15,3351.28,3349.23,3367.69,3369.23,3383.59,3376.92,3362.05,3618.46,3373.33,3378.46,0
15_12_48,91,3347.18,3378.46,3354.87,3346.15,3351.28,3353.33,3370.26,3369.23,3384.1,3376.41,3365.64,3628.21,3373.85,3378.97,0
15_12_48,92,3348.21,3377.44,3353.85,3346.15,3350.77,3356.41,3371.79,3368.21,3385.13,3375.9,3363.08,3629.23,3375.38,3381.54,0
15_12_48,93,3348.72,3378.46,3357.44,3346.67,3353.85,3357.44,3371.79,3368.21,3385.64,3375.38,3365.13,3626.67,3377.95,3383.08,0
15_12_48,94,3348.72,3381.03,3361.03,3347.18,3353.85,3356.92,3374.87,3368.21,3387.69,3374.87,3370.26,3630.77,3380,3382.56,0
15_12_48,95,3347.18,3380,3361.03,3348.21,3352.31,3356.92,3375.38,3368.21,3389.74,3377.44,3368.21,3641.03,3380,3383.08,0
15_12_48,96,3349.74,3378.46,3362.56,3347.69,3352.31,3360.51,3371.79,3369.74,3393.85,3379.49,3369.74,3646.15,3381.54,3384.1,0
15_12_48,97,3354.36,3379.49,3365.13,3346.67,3353.85,3362.05,3372.82,3369.74,3397.95,3377.95,3374.87,3646.15,3382.05,3384.1,0
15_12_48,98,3355.38,3377.95,3361.03,3350.26,3358.46,3360.51,3374.87,3369.23,3395.9,3379.49,3374.87,3651.79,3381.03,3386.15,0
15_12_48,99,3356.41,3377.44,3360.51,3356.41,3362.56,3358.97,3374.87,3373.85,3389.74,3383.59,3372.82,3656.92,3381.54,3386.67,0
15_12_48,100,3360,3383.08,3364.1,3353.85,3360.51,3360,3378.97,3378.97,3388.72,3385.13,3373.85,3658.97,3380.51,3388.21,0
15_12_48,101,3362.05,3385.64,3364.1,3352.31,3362.05,3360,3383.08,3377.95,3392.82,3385.13,3373.85,3660.51,3380,3387.18,0
15_12_48,102,3363.08,3383.59,3361.54,3358.46,3366.67,3358.97,3381.03,3376.41,3394.87,3385.64,3374.36,3663.08,3386.15,3388.21,0
15_12_48,103,3364.62,3384.62,3363.08,3358.46,3366.15,3362.05,3379.49,3378.97,3393.85,3385.13,3374.87,3665.64,3388.72,3387.18,0
15_12_48,104,3362.56,3386.15,3369.74,3354.87,3361.54,3365.64,3380.51,3379.49,3394.36,3384.1,3375.38,3671.28,3384.1,3387.69,0
15_12_48,105,3362.56,3385.64,3370.77,3357.95,3361.54,3366.15,3381.03,3377.44,3394.36,3384.1,3375.9,3675.38,3384.1,3391.79,0
15_12_48,106,3365.13,3388.72,3368.72,3361.54,3365.64,3365.64,3380,3378.46,3393.33,3385.13,3375.38,3675.9,3386.67,3393.85,0
15_12_48,107,3363.08,3388.72,3369.74,3362.05,3367.69,3365.13,3384.1,3380,3395.38,3386.67,3377.44,3683.08,3386.15,3391.79,0
15_12_48,108,3361.54,3386.67,3369.23,3362.56,3368.72,3364.62,3386.15,3378.46,3401.03,3386.67,3383.59,3690.77,3387.18,3391.28,0
15_12_48,109,3363.08,3389.23,3366.15,3363.08,3370.26,3366.67,3383.08,3377.95,3400.51,3385.13,3385.64,3692.82,3391.79,3394.87,0
15_12_48,110,3363.59,3391.28,3366.15,3363.59,3368.21,3369.74,3382.56,3380,3396.92,3387.69,3381.54,3694.36,3392.82,3394.87,0
15_12_48,111,3365.64,3389.23,3373.33,3363.08,3365.64,3369.74,3385.13,3382.05,3397.95,3391.79,3380,3698.46,3391.28,3393.33,0
15_12_48,112,3366.15,3390.26,3377.44,3364.1,3368.72,3369.74,3384.62,3384.1,3401.54,3390.26,3384.62,3700.51,3389.23,3395.38,0
15_12_48,113,3366.15,3392.82,3375.9,3365.64,3372.82,3370.26,3383.08,3385.64,3401.54,3391.28,3387.69,3702.56,3391.28,3400,0
15_12_48,114,3365.64,3392.82,3374.36,3365.13,3372.31,3370.26,3388.21,3385.13,3400.51,3395.38,3385.13,3705.64,3393.33,3401.03,0
15_12_48,115,3367.18,3393.33,3377.44,3365.13,3371.79,3371.79,3390.77,3385.13,3400.51,3392.31,3385.64,3710.77,3393.33,3398.97,0
15_12_48,116,3369.23,3395.9,3378.46,3365.64,3373.85,3374.36,3388.72,3385.64,3400.51,3390.26,3387.18,3716.92,3393.85,3397.44,0
15_12_48,117,3370.26,3400,3371.28,3366.67,3373.85,3374.87,3391.79,3386.15,3401.03,3396.92,3386.67,3720.51,3393.85,3399.49,0
15_12_48,118,3368.21,3400.51,3373.85,3370.26,3372.82,3374.87,3396.92,3384.1,3402.05,3400,3387.69,3721.03,3393.85,3402.56,0
15_12_48,119,3366.67,3398.46,3384.62,3370.26,3375.9,3375.38,3394.36,3384.1,3401.54,3398.97,3389.23,3723.59,3395.38,3403.59,0
15_12_48,120,3372.82,3399.49,3386.67,3369.74,3378.97,3375.9,3390.77,3388.21,3403.59,3400.51,3389.23,3726.67,3395.9,3400.51,0
15_12_48,121,3374.87,3400.51,3382.56,3373.85,3380,3376.92,3395.38,3389.74,3407.69,3400,3391.28,3731.28,3395.9,3401.03,0
15_12_48,122,3372.31,3400,3384.1,3374.87,3383.59,3380.51,3393.85,3387.69,3408.21,3398.46,3392.82,3735.38,3397.95,3402.56,0
15_12_48,123,3375.38,3399.49,3386.15,3373.85,3383.08,3378.46,3392.82,3389.74,3405.64,3399.49,3392.31,3737.44,3400,3404.1,0
15_12_48,124,3379.49,3400.51,3383.08,3374.87,3381.54,3374.87,3399.49,3392.82,3409.23,3398.97,3393.33,3741.54,3398.46,3405.13,0
15_12_48,125,3378.97,3402.05,3383.59,3375.9,3384.1,3378.97,3398.97,3389.23,3415.38,3398.46,3396.92,3747.69,3398.46,3405.64,0
15_12_48,126,3380,3401.54,3384.1,3377.44,3384.1,3384.1,3393.85,3389.23,3415.38,3400,3398.97,3749.23,3400.51,3404.1,0
15_12_48,127,3383.08,3400,3384.62,3377.95,3380.51,3382.56,3394.87,3397.95,3414.36,3401.54,3398.97,3750.26,3401.54,3404.1,0
15_12_48,128,3381.03,3401.03,3388.21,3380.51,3383.08,3382.05,3401.03,3401.03,3414.87,3402.05,3397.44,3754.87,3402.05,3406.15,0
15_12_48,0,3378.46,3405.13,3388.72,3384.62,3386.15,3383.59,3401.03,3399.49,3415.38,3402.05,3400.51,3760.51,3403.59,3404.62,0
15_12_48,1,3380,3406.15,3387.69,3382.56,3386.15,3386.15,3400.51,3400,3415.38,3401.03,3403.08,3765.64,3404.62,3406.15,0
15_12_48,2,3379.49,3406.67,3388.72,3377.95,3388.21,3386.67,3401.54,3401.54,3416.41,3402.05,3400,3768.72,3404.62,3410.26,0
15_12_48,3,3377.44,3407.18,3393.33,3382.56,3389.23,3384.62,3401.03,3400.51,3416.92,3406.67,3401.03,3770.77,3405.64,3410.26,0
15_12_48,4,3381.54,3410.26,3393.33,3387.69,3388.21,3386.15,3403.59,3400,3416.92,3406.15,3403.59,3772.82,3406.15,3408.21,0
15_12_48,5,3386.15,3409.74,3391.79,3385.64,3388.21,3389.23,3404.1,3400,3416.92,3406.67,3402.56,3777.95,3407.18,3410.77,0
15_12_48,6,3384.1,3406.67,3391.79,3383.59,3389.74,3390.26,3403.59,3398.46,3417.44,3412.31,3403.59,3782.05,3410.26,3412.82,0
15_12_48,7,3383.08,3410.26,3391.79,3383.59,3390.26,3389.23,3404.1,3398.97,3417.44,3410.26,3405.13,3782.56,3411.28,3412.31,0
15_12_48,8,3384.62,3416.41,3392.82,3384.62,3389.74,3390.26,3405.64,3401.03,3417.44,3406.15,3404.62,3784.62,3410.26,3413.85,0
15_12_48,9,3388.21,3415.9,3393.33,3384.62,3389.74,3389.23,3405.13,3402.56,3416.92,3412.31,3407.18,3790.77,3411.79,3416.92,0
15_12_48,10,3391.28,3414.87,3394.87,3385.13,3389.74,3388.72,3405.13,3399.49,3417.95,3417.95,3410.26,3793.33,3412.31,3415.9,0
15_12_48,11,3390.26,3415.38,3400,3386.67,3390.26,3390.26,3405.13,3398.97,3417.95,3414.87,3409.23,3794.36,3410.77,3413.85,0
15_12_48,12,3390.26,3415.38,3402.05,3388.21,3391.28,3389.74,3404.62,3404.1,3416.92,3414.36,3408.21,3801.54,3412.31,3414.36,0
15_12_48,13,3393.33,3415.9,3398.46,3388.72,3391.28,3391.28,3409.23,3405.13,3418.97,3417.44,3408.72,3808.21,3414.36,3415.9,0
15_12_48,14,3392.31,3416.92,3396.92,3389.74,3390.77,3396.41,3411.28,3401.03,3422.56,3416.92,3410.26,3805.64,3413.33,3415.9,0
15_12_48,15,3391.79,3414.36,3401.03,3394.36,3394.36,3398.46,3407.18,3399.49,3424.62,3415.9,3411.79,3806.67,3413.85,3418.97,0
15_12_48,16,3398.46,3415.38,3400,3395.38,3394.87,3395.38,3407.18,3406.15,3423.08,3416.41,3412.31,3810.77,3416.92,3420,0
15_12_48,17,3401.54,3417.95,3397.95,3394.36,3393.33,3394.87,3408.72,3409.23,3421.03,3417.44,3416.41,3810.77,3417.95,3417.44,0
15_12_48,18,3398.97,3418.46,3402.05,3396.41,3396.41,3398.97,3408.72,3408.21,3425.13,3417.44,3418.97,3814.36,3416.92,3417.95,0
15_12_48,19,3400,3417.95,3404.1,3397.95,3399.49,3402.05,3411.28,3412.31,3431.79,3417.44,3416.92,3819.49,3414.87,3420.51,0
15_12_48,20,3400.51,3416.92,3404.1,3398.46,3399.49,3398.46,3413.85,3416.92,3433.33,3417.44,3417.44,3823.08,3414.87,3422.56,0
15_12_48,21,3400.51,3419.49,3406.15,3399.49,3400,3394.36,3412.31,3416.41,3430.77,3417.44,3418.46,3828.21,3417.95,3424.1,0
15_12_48,22,3401.03,3421.54,3406.15,3400,3400.51,3397.95,3414.36,3414.87,3431.28,3417.95,3418.46,3832.31,3422.56,3422.05,0
15_12_48,23,3400.51,3422.05,3404.1,3399.49,3400.51,3403.59,3417.95,3415.9,3431.79,3416.92,3419.49,3832.82,3421.03,3418.46,0
15_12_48,24,3401.03,3424.62,3406.67,3401.54,3401.03,3402.05,3415.38,3414.87,3431.28,3417.44,3420.51,3836.41,3422.05,3425.13,0
15_12_48,25,3401.03,3427.18,3407.18,3401.54,3400.51,3401.54,3413.85,3414.87,3432.31,3421.54,3420.51,3841.03,3424.62,3428.72,0
15_12_48,26,3402.05,3424.1,3405.64,3398.97,3401.54,3403.08,3417.44,3416.41,3432.31,3424.1,3425.13,3843.59,3423.59,3426.15,0
15_12_48,27,3403.08,3421.54,3409.74,3401.54,3403.59,3403.59,3420,3415.38,3432.31,3422.05,3426.67,3842.56,3422.56,3429.74,0
15_12_48,28,3400.51,3427.69,3412.82,3402.05,3401.03,3405.64,3421.03,3415.9,3433.33,3424.1,3425.13,3842.56,3424.62,3433.33,0
15_12_48,29,3402.56,3433.33,3411.28,3402.05,3403.08,3406.15,3421.03,3417.44,3434.36,3430.77,3426.15,3848.21,3425.64,3430.26,0
15_12_48,30,3408.21,3432.31,3410.26,3402.05,3410.77,3405.13,3420.51,3417.44,3434.36,3432.31,3427.69,3854.87,3425.13,3430.26,0
15_12_48,31,3407.18,3431.28,3411.79,3402.56,3412.31,3406.67,3420.51,3416.92,3433.85,3430.26,3427.69,3854.87,3427.18,3431.28,0
15_12_48,32,3404.62,3431.79,3413.85,3405.64,3407.69,3406.67,3420.51,3417.95,3433.85,3431.28,3426.67,3856.92,3427.69,3429.74,0
15_12_48,33,3410.26,3432.31,3414.36,3404.62,3405.13,3406.67,3420,3417.95,3433.85,3432.82,3426.67,3865.13,3427.18,3432.31,0
15_12_48,34,3412.31,3431.28,3416.92,3403.59,3410.26,3410.26,3418.97,3415.38,3434.36,3432.82,3431.28,3871.28,3428.72,3436.41,0
15_12_48,35,3408.72,3432.82,3417.95,3405.13,3413.33,3412.31,3421.54,3420.51,3433.85,3432.31,3433.85,3869.74,3429.23,3435.9,0
15_12_48,36,3412.31,3432.82,3416.41,3408.72,3410.77,3411.28,3429.23,3427.18,3432.82,3432.31,3432.31,3867.69,3429.23,3434.36,0
15_12_48,37,3417.44,3431.28,3415.9,3408.72,3411.28,3410.26,3429.23,3424.1,3436.41,3432.31,3431.28,3873.85,3430.77,3433.33,0
15_12_48,38,3415.9,3432.31,3417.44,3409.23,3417.95,3411.28,3425.13,3420.51,3439.49,3432.31,3433.85,3877.95,3434.36,3433.85,0
15_12_48,39,3414.36,3433.33,3418.46,3413.33,3420,3412.31,3427.69,3423.59,3438.97,3432.82,3434.87,3878.46,3432.31,3436.41,0
15_12_48,40,3415.9,3433.33,3418.46,3413.85,3413.85,3414.36,3428.21,3422.05,3442.05,3433.33,3434.87,3884.1,3430.77,3436.92,0
15_12_48,41,3415.38,3432.82,3418.97,3415.9,3412.82,3418.97,3427.69,3421.03,3449.23,3433.33,3435.9,3889.74,3434.36,3437.44,0
15_12_48,42,3413.85,3433.85,3420,3417.44,3418.46,3420,3433.33,3429.74,3447.69,3433.33,3436.92,3888.21,3436.92,3438.46,0
15_12_48,43,3416.41,3432.82,3422.05,3416.41,3417.44,3415.9,3432.31,3433.85,3440.51,3433.85,3437.44,3891.28,3435.38,3438.97,0
15_12_48,44,3417.44,3432.82,3420.51,3415.38,3413.33,3415.9,3425.64,3430.26,3443.59,3434.36,3436.92,3896.92,3435.38,3434.87,0
15_12_48,45,3415.9,3435.38,3419.49,3415.38,3417.44,3418.97,3429.23,3430.26,3449.23,3433.85,3440,3897.44,3435.9,3437.44,0
15_12_48,46,3418.97,3437.44,3423.59,3416.92,3422.56,3417.95,3433.85,3432.31,3448.21,3434.36,3444.1,3898.97,3436.41,3440.51,0
15_12_48,47,3421.54,3436.92,3425.64,3417.95,3418.46,3417.95,3431.79,3431.28,3446.67,3434.36,3442.05,3904.1,3439.49,3440.51,0
15_12_48,48,3420,3438.97,3425.13,3417.95,3415.38,3421.03,3432.31,3432.31,3446.67,3433.85,3440.51,3904.62,3441.54,3441.54,0
15_12_48,49,3421.54,3442.56,3426.15,3417.44,3421.54,3421.03,3433.33,3433.85,3447.18,3436.41,3443.08,3905.64,3441.54,3442.56,0
15_12_48,50,3423.08,3444.1,3428.72,3418.97,3425.13,3421.03,3432.82,3432.82,3448.72,3440,3444.62,3908.72,3441.54,3441.54,0
15_12_48,51,3421.54,3444.62,3426.67,3418.97,3422.05,3420.51,3435.38,3432.31,3449.23,3440.51,3445.13,3910.77,3442.05,3442.05,0
15_12_48,52,3424.1,3441.54,3426.67,3416.92,3418.97,3417.95,3436.92,3431.28,3447.18,3438.46,3446.67,3915.38,3444.1,3444.62,0
15_12_48,53,3426.15,3441.03,3430.77,3419.49,3422.05,3422.05,3435.38,3431.28,3448.72,3435.38,3449.74,3921.03,3444.62,3446.15,0
15_12_48,54,3425.13,3447.18,3427.69,3423.59,3426.67,3428.21,3435.38,3432.82,3450.77,3436.92,3448.21,3920,3442.56,3447.18,0
15_12_48,55,3429.74,3450.26,3428.72,3425.13,3428.21,3428.21,3435.38,3434.87,3449.74,3444.62,3447.18,3918.46,3443.59,3448.72,0
15_12_48,56,3432.82,3447.18,3433.33,3423.08,3425.64,3425.64,3435.38,3434.36,3449.74,3449.74,3451.79,3926.67,3447.69,3449.23,0
15_12_48,57,3430.26,3446.15,3433.33,3423.59,3425.13,3426.15,3439.49,3433.33,3453.33,3448.72,3454.36,3934.36,3447.18,3449.23,0
15_12_48,58,3429.74,3449.74,3432.31,3425.64,3428.21,3426.15,3443.08,3435.38,3454.87,3448.21,3452.31,3933.33,3444.1,3449.74,0
15_12_48,59,3432.31,3449.74,3436.41,3427.69,3428.21,3427.69,3444.1,3439.49,3453.85,3449.74,3451.79,3933.33,3444.62,3450.77,0
15_12_48,60,3431.28,3446.67,3435.9,3426.67,3428.72,3428.21,3442.05,3439.49,3453.33,3449.23,3453.85,3938.97,3447.18,3453.33,0
15_12_48,61,3430.26,3445.13,3432.31,3424.1,3432.82,3428.21,3442.05,3435.9,3452.31,3448.72,3451.28,3938.97,3447.69,3453.33,0
15_12_48,62,3430.77,3448.21,3434.36,3428.21,3434.87,3430.26,3444.62,3435.38,3454.36,3449.23,3451.28,3938.97,3447.18,3451.28,0
15_12_48,63,3431.28,3449.74,3435.38,3434.36,3433.33,3428.72,3445.13,3440,3461.54,3449.23,3456.41,3945.64,3448.72,3450.77,0
15_12_48,64,3432.82,3448.21,3434.36,3433.85,3432.31,3428.72,3444.62,3445.64,3464.62,3449.23,3459.49,3950.26,3449.74,3453.85,0
15_12_48,65,3432.31,3449.23,3435.38,3432.31,3433.33,3433.33,3445.64,3446.67,3462.56,3449.23,3460,3949.23,3449.23,3453.85,0
15_12_48,66,3431.79,3450.77,3435.9,3432.82,3434.36,3433.33,3446.67,3448.21,3462.56,3449.23,3460,3949.23,3450.77,3454.87,0
