TIME, ED_COUNTER, AF3, F7, F3, FC5, T7, P7, O1, O2, P8, T8, FC6, F4, F8, AF4, LABEL
12_6_34,110,4092.31,3996.41,4086.67,4036.92,4072.31,4097.44,4089.74,4091.28,4085.13,3977.44,4085.64,4042.05,4050.26,4134.36,0
12_6_34,111,4089.23,4002.05,4088.72,4045.13,4076.92,4101.54,4085.64,4098.97,4096.41,3982.05,4073.85,4042.56,4044.62,4134.36,0
12_6_34,112,4093.33,4006.67,4088.72,4044.62,4078.46,4101.03,4075.38,4099.49,4101.54,3993.33,4060.51,4046.67,4052.31,4142.05,0
12_6_34,113,4090.77,4005.13,4086.67,4038.97,4073.33,4091.79,4067.18,4096.41,4094.36,3980,4040,4042.05,4043.59,4137.95,0
12_6_34,114,4087.69,4008.72,4089.23,4043.08,4072.31,4093.33,4070.26,4097.95,4104.62,3976.41,4033.33,4042.05,4031.79,4133.85,0
12_6_34,115,4093.33,4012.82,4093.85,4046.67,4076.92,4100,4068.21,4097.44,4111.28,3992.82,4043.59,4050.26,4037.95,4139.49,0
12_6_34,116,4094.36,4005.64,4092.82,4043.59,4076.41,4096.92,4058.46,4091.79,4094.36,3986.67,4043.08,4047.69,4040,4137.44,0
12_6_34,117,4089.23,3997.95,4088.21,4042.56,4067.69,4090.77,4055.38,4088.21,4086.15,3970.77,4034.36,4038.97,4023.08,4126.15,0
12_6_34,118,4093.33,4007.18,4090.26,4044.1,4064.1,4090.77,4059.49,4092.82,4090.77,3971.79,4045.64,4045.64,4015.9,4130.26,0
12_6_34,119,4108.72,4023.59,4097.95,4053.33,4070.77,4092.31,4058.97,4095.38,4096.92,3976.41,4063.08,4060,4036.41,4150.26,0
12_6_34,120,4113.85,4023.08,4097.44,4059.49,4071.28,4093.85,4051.28,4092.82,4102.05,3977.44,4063.59,4059.49,4050.77,4157.95,0
12_6_34,121,4098.46,4006.15,4088.72,4049.23,4061.03,4091.79,4040.51,4091.79,4089.23,3965.13,4048.21,4044.1,4028.21,4140,0
12_6_34,122,4086.67,4000,4086.67,4040,4054.36,4086.67,4030.77,4094.36,4074.87,3943.59,4035.38,4030.77,3997.95,4121.03,0
12_6_34,123,4092.82,4007.18,4091.79,4042.56,4065.13,4092.31,4031.28,4093.33,4087.18,3948.21,4037.95,4032.31,3994.87,4119.49,0
12_6_34,124,4098.46,4005.13,4092.82,4044.1,4074.87,4107.18,4035.9,4092.31,4098.46,3961.03,4045.13,4035.9,3996.41,4123.59,0
12_6_34,125,4094.36,4004.62,4088.72,4044.1,4066.15,4106.67,4028.72,4094.87,4087.69,3954.36,4048.21,4031.28,3991.79,4124.62,0
12_6_34,126,4096.92,4014.87,4089.74,4046.67,4056.41,4090.77,4015.38,4095.38,4086.15,3955.38,4050.77,4034.36,3999.49,4122.56,0
12_6_34,127,4105.64,4022.05,4093.33,4047.18,4060.51,4086.67,4014.87,4096.92,4102.05,3967.69,4062.05,4045.64,4012.82,4122.05,0
12_6_34,128,4107.69,4024.1,4095.38,4054.87,4067.18,4099.49,4022.05,4095.9,4107.18,3963.08,4070.26,4046.15,4013.85,4128.72,0
12_6_34,0,4107.18,4028.72,4094.36,4061.54,4062.56,4103.08,4015.9,4091.28,4097.95,3957.95,4068.21,4041.03,4009.74,4134.87,0
12_6_34,1,4104.1,4026.15,4092.31,4054.36,4052.82,4091.28,4004.62,4090.77,4090.26,3961.03,4061.54,4037.44,4006.15,4126.15,0
12_6_34,2,4094.87,4015.38,4090.26,4046.67,4046.15,4086.67,4004.62,4094.36,4088.72,3950.26,4057.95,4026.15,3995.38,4112.31,0
12_6_34,3,4089.74,4015.9,4092.31,4046.67,4043.08,4094.87,4008.72,4092.82,4090.77,3945.64,4056.41,4021.54,3987.18,4107.69,0
12_6_34,4,4092.31,4017.95,4093.33,4044.1,4029.74,4092.31,4006.15,4090.77,4093.33,3953.85,4052.82,4027.69,3989.74,4108.72,0
12_6_34,5,4091.79,4008.72,4088.72,4042.05,4016.41,4085.13,4002.56,4093.33,4090.77,3948.21,4048.72,4026.67,3990.77,4105.64,0
12_6_34,6,4089.23,4009.23,4088.72,4046.67,4020.51,4089.74,4005.13,4094.87,4091.28,3938.97,4052.82,4023.59,3983.59,4105.13,0
12_6_34,7,4090.26,4021.54,4089.74,4047.69,4024.62,4092.82,4008.21,4096.92,4103.59,3944.1,4060,4028.72,3979.49,4106.67,0
12_6_34,8,4091.79,4023.59,4090.26,4042.56,4020.51,4090.77,4007.18,4094.87,4103.59,3947.18,4057.95,4030.77,3985.64,4106.67,0
12_6_34,9,4093.33,4020,4092.31,4043.08,4020,4093.85,4002.56,4090.77,4090.77,3941.54,4056.92,4031.28,3991.28,4104.62,0
12_6_34,10,4100.51,4022.05,4096.41,4049.23,4019.49,4090.77,4003.08,4092.82,4098.97,3943.08,4072.31,4037.44,4000.51,4108.72,0
12_6_34,11,4103.08,4020,4095.38,4046.67,4014.36,4082.56,3999.49,4095.9,4109.23,3931.28,4078.97,4038.46,4017.95,4111.79,0
12_6_34,12,4101.54,4018.46,4094.36,4042.56,4012.31,4084.1,3991.79,4094.36,4092.82,3889.23,4061.03,4033.85,4036.92,4105.13,0
12_6_34,13,4105.13,4026.67,4097.44,4047.18,4014.87,4092.82,3995.38,4092.82,4087.69,3855.38,4056.92,4036.41,4056.41,4107.18,0
12_6_34,14,4109.23,4033.33,4097.95,4048.72,4011.79,4095.38,4008.21,4094.36,4104.1,3852.82,4071.79,4042.05,4074.36,4114.36,0
12_6_34,15,4106.67,4029.23,4093.33,4044.1,4007.18,4094.36,4008.21,4093.33,4104.62,3853.85,4077.44,4044.62,4078.46,4112.82,0
12_6_34,16,4101.03,4021.54,4091.28,4042.56,4009.23,4091.28,3996.41,4091.28,4093.85,3846.15,4074.87,4045.13,4070.26,4107.18,0
12_6_34,17,4093.85,4020.51,4090.26,4044.1,4010.77,4089.23,3991.28,4091.79,4091.79,3851.79,4073.85,4043.59,4065.64,4100.51,0
12_6_34,18,4090.77,4025.64,4087.69,4043.08,4006.15,4092.31,3993.85,4095.9,4094.87,3866.67,4077.95,4042.56,4065.13,4095.9,0
12_6_34,19,4094.36,4024.62,4088.72,4038.46,4002.56,4092.82,3992.82,4097.44,4103.59,3876.92,4091.28,4051.28,4060.51,4101.03,0
12_6_34,20,4097.95,4023.08,4090.77,4033.33,4001.03,4083.08,3985.64,4096.41,4108.72,3887.69,4108.21,4064.1,4064.1,4108.72,0
12_6_34,21,4097.44,4025.13,4086.67,4030.26,3993.33,4078.46,3975.9,4097.95,4095.9,3890.77,4112.82,4060,4069.74,4105.13,0
12_6_34,22,4090.77,4016.41,4082.05,4028.21,3988.72,4083.59,3972.31,4095.38,4081.03,3880.51,4101.54,4042.05,4058.46,4090.26,0
12_6_34,23,4082.56,4008.21,4082.05,4027.18,3989.23,4082.56,3968.72,4091.79,4080.51,3869.23,4090.77,4033.85,4042.05,4076.41,0
12_6_34,24,4082.05,4016.41,4083.08,4027.18,3987.69,4080,3960,4094.36,4084.1,3865.13,4088.21,4034.87,4034.87,4073.33,0
12_6_34,25,4079.49,4016.92,4079.49,4023.08,3983.59,4085.64,3953.85,4096.41,4081.54,3860,4080.51,4028.72,4022.56,4067.18,0
12_6_34,26,4072.31,4003.08,4079.49,4015.9,3977.95,4087.18,3959.49,4091.79,4078.97,3860,4072.82,4022.56,4008.72,4057.95,0
12_6_34,27,4076.92,4001.54,4085.13,4016.41,3971.28,4078.97,3963.08,4089.74,4088.72,3880.51,4087.69,4032.31,4016.41,4065.13,0
12_6_34,28,4087.69,4010.77,4086.67,4019.49,3960,4071.28,3958.46,4093.33,4097.44,3900,4106.67,4045.13,4028.72,4078.97,0
12_6_34,29,4091.79,4014.36,4085.64,4020.51,3951.79,4069.74,3964.1,4094.87,4091.28,3898.97,4112.82,4047.18,4032.82,4081.03,0
12_6_34,30,4092.82,4017.95,4092.31,4025.64,3956.92,4075.9,3978.46,4096.41,4089.74,3893.85,4113.33,4044.1,4039.49,4082.56,0
12_6_34,31,4092.82,4022.05,4095.38,4029.23,3961.03,4077.95,3979.49,4097.95,4089.23,3886.15,4105.13,4035.9,4031.79,4077.44,0
12_6_34,32,4091.79,4021.54,4088.72,4023.08,3959.49,4075.38,3971.28,4097.95,4077.44,3867.18,4092.31,4024.62,4007.69,4066.67,0
12_6_34,33,4091.28,4022.05,4085.64,4018.97,3966.67,4075.38,3971.79,4099.49,4073.85,3860.51,4089.23,4021.54,4000.51,4066.67,0
12_6_34,34,4085.13,4021.03,4086.15,4021.03,3972.82,4073.33,3974.87,4098.46,4084.62,3870.77,4086.15,4021.03,4001.03,4065.13,0
12_6_34,35,4077.44,4014.87,4085.13,4016.92,3964.1,4063.08,3967.69,4094.87,4089.74,3876.41,4082.05,4018.97,3988.72,4054.36,0
12_6_34,35,4077.44,4014.87,4085.13,4016.92,3964.1,4063.08,3967.69,4094.87,4089.74,3876.41,4082.05,4018.97,3988.72,4054.36,0
12_6_34,36,4082.05,4013.33,4084.62,4011.79,3958.46,4056.92,3962.05,4096.92,4091.28,3883.59,4094.36,4023.59,3990.77,4055.9,0
12_6_34,37,4077.44,4018.46,4084.1,4015.38,3956.92,4057.95,3965.64,4101.54,4089.74,3896.92,4114.87,4030.77,4005.64,4067.69,0
12_6_34,38,4052.31,4020,4084.62,4019.49,3955.9,4059.49,3969.74,4097.95,4082.56,3906.67,4123.08,4032.31,4006.67,4073.33,0
12_6_34,39,4033.85,4025.13,4086.15,4020,3963.59,4058.97,3969.23,4096.41,4084.1,3911.79,4126.67,4033.85,4006.15,4076.92,0
12_6_34,40,4027.18,4033.33,4087.18,4018.97,3974.87,4060,3967.18,4100,4093.33,3912.82,4120,4032.31,4009.74,4073.85,0
12_6_34,41,4016.41,4036.92,4088.21,4021.54,3975.9,4069.23,3974.36,4098.97,4095.9,3910.26,4106.15,4026.67,4000,4063.59,0
12_6_34,42,4002.56,4041.03,4090.26,4027.18,3973.85,4074.87,3980.51,4095.38,4093.33,3908.21,4108.72,4028.21,3990.26,4061.54,0
12_6_34,43,3992.31,4041.03,4087.69,4026.15,3976.41,4064.62,3971.79,4096.92,4091.28,3911.28,4117.95,4030.26,3990.26,4063.59,0
12_6_34,44,3978.97,4034.87,4087.18,4021.03,3979.49,4060,3966.15,4098.97,4092.82,3920.51,4114.87,4030.77,3981.54,4057.95,0
12_6_34,45,3943.08,4038.97,4088.21,4022.05,3978.97,4067.18,3972.31,4096.41,4098.46,3928.21,4117.95,4038.97,3970.77,4056.41,0
12_6_34,46,3892.82,4047.18,4086.15,4023.59,3975.38,4066.67,3970.77,4092.31,4096.41,3924.62,4131.79,4045.13,3976.41,4063.08,0
12_6_34,47,3865.64,4042.56,4087.69,4018.97,3975.9,4065.64,3954.87,4092.82,4092.82,3926.67,4140.51,4043.08,3984.1,4066.67,0
12_6_34,48,3865.13,4039.49,4092.31,4018.97,3987.69,4077.95,3935.9,4095.38,4098.97,3943.08,4149.74,4046.67,3986.67,4071.79,0
12_6_34,49,3862.05,4044.1,4090.77,4023.59,3997.95,4080,3910.77,4092.82,4106.15,3954.36,4158.97,4050.77,3990.77,4071.28,0
12_6_34,50,3857.95,4046.67,4089.23,4018.97,3997.44,4067.18,3880.51,4092.31,4108.21,3956.92,4156.41,4046.67,3989.74,4060,0
12_6_34,51,3860.51,4048.21,4091.28,4009.23,3997.44,4067.18,3858.46,4096.41,4111.79,3960.51,4147.69,4044.62,3992.82,4057.95,0
12_6_34,52,3858.97,4048.21,4089.23,4009.23,3997.44,4077.44,3848.21,4096.92,4110.26,3961.03,4146.15,4044.62,4000.51,4059.49,0
12_6_34,53,3857.44,4046.15,4085.13,4002.05,3992.31,4073.33,3845.13,4095.38,4099.49,3957.44,4154.36,4044.1,3997.95,4052.31,0
12_6_34,54,3859.49,4046.67,4087.18,3991.28,3992.31,4061.54,3839.49,4096.41,4093.85,3954.87,4145.64,4041.03,4000.51,4047.69,0
12_6_34,55,3860,4047.18,4085.64,3991.28,3995.9,4061.03,3830.77,4097.95,4096.92,3949.23,4122.05,4036.92,4004.62,4047.69,0
12_6_34,56,3860.51,4043.59,4083.08,3991.28,3992.31,4064.62,3826.67,4094.36,4093.33,3935.9,4116.41,4035.9,3992.82,4044.1,0
12_6_34,57,3861.03,4041.03,4086.67,3989.23,3987.69,4062.56,3828.72,4091.28,4084.62,3926.67,4125.13,4036.41,3984.1,4044.1,0
12_6_34,58,3866.67,4046.15,4090.26,3995.9,3992.31,4061.03,3831.28,4091.28,4090.77,3931.79,4124.1,4036.92,3991.28,4047.69,0
12_6_34,59,3874.87,4055.38,4089.23,4005.13,3997.95,4061.03,3829.23,4093.85,4103.59,3942.56,4126.15,4040.51,3990.77,4047.18,0
12_6_34,60,3877.44,4059.49,4091.28,4010.26,4004.1,4064.1,3833.33,4096.41,4103.08,3952.31,4141.54,4045.64,3987.18,4050.77,0
12_6_34,61,3883.59,4064.1,4096.41,4019.49,4011.28,4067.69,3846.15,4095.38,4097.95,3943.59,4154.87,4049.23,3996.92,4059.49,0
12_6_34,62,3889.23,4068.21,4091.79,4024.62,4009.74,4064.1,3847.69,4096.92,4096.92,3904.1,4151.79,4049.23,3998.97,4057.95,0
12_6_34,63,3884.1,4063.08,4086.67,4021.03,4004.62,4057.44,3833.85,4098.46,4094.87,3860.51,4139.49,4045.13,3989.23,4044.62,0
12_6_34,64,3879.49,4057.44,4087.18,4015.38,4004.62,4058.97,3834.36,4097.95,4096.92,3841.54,4137.44,4046.67,3984.62,4041.03,0
12_6_34,65,3883.08,4058.97,4086.67,4014.87,4007.18,4063.59,3846.15,4098.46,4098.46,3829.74,4140.51,4053.33,3990.26,4043.59,0
12_6_34,66,3887.69,4060,4086.15,4021.54,4008.21,4063.08,3845.13,4095.9,4094.36,3802.05,4139.49,4053.85,3991.79,4040,0
12_6_34,67,3891.79,4057.95,4089.74,4026.15,4010.26,4063.59,3842.56,4090.77,4091.79,3774.87,4133.85,4050.77,3978.97,4036.41,0
12_6_34,68,3894.36,4059.49,4088.72,4027.18,4013.33,4066.15,3855.9,4091.28,4092.31,3770.77,4130.77,4049.74,3970.26,4041.03,0
12_6_34,69,3895.38,4061.03,4088.72,4029.23,4013.33,4062.05,3875.9,4093.85,4096.41,3786.15,4146.15,4051.79,3982.56,4044.1,0
12_6_34,70,3902.05,4059.49,4090.77,4032.31,4012.82,4057.44,3889.74,4094.36,4107.18,3799.49,4163.59,4056.92,4002.05,4046.15,0
12_6_34,71,3907.69,4057.95,4091.79,4034.36,4013.85,4060.51,3896.92,4097.44,4108.21,3803.59,4159.49,4053.85,4005.13,4047.18,0
12_6_34,72,3907.18,4062.56,4091.79,4038.46,4013.33,4061.03,3904.1,4100,4096.92,3810.26,4160,4051.28,4002.05,4046.15,0
12_6_34,73,3910.77,4065.13,4093.33,4040.51,4012.31,4053.85,3917.95,4097.95,4095.9,3816.92,4172.31,4057.44,4005.64,4044.1,0
12_6_34,74,3911.28,4054.87,4092.31,4036.41,4011.28,4054.87,3927.18,4097.44,4098.97,3815.38,4172.82,4060,4005.13,4040,0
12_6_34,75,3904.1,4047.18,4087.69,4034.87,4010.26,4062.05,3926.15,4097.95,4092.82,3810.77,4164.62,4057.95,3999.49,4036.92,0
12_6_34,76,3900,4052.82,4086.67,4040,4013.85,4059.49,3930.77,4096.92,4090.77,3811.28,4159.49,4056.41,3992.31,4029.23,0
12_6_34,77,3907.18,4059.49,4090.77,4047.69,4022.56,4053.85,3942.56,4097.44,4093.85,3817.44,4160,4054.36,3991.79,4022.05,0
12_6_34,78,3910.77,4060.51,4092.31,4053.33,4024.62,4057.95,3948.21,4098.46,4096.92,3821.03,4166.67,4054.87,3992.31,4022.56,0
12_6_34,79,3908.21,4061.03,4087.69,4051.28,4018.46,4062.05,3949.74,4096.41,4103.08,3824.1,4175.38,4058.97,3992.31,4024.1,0
12_6_34,80,3914.36,4059.49,4088.72,4045.64,4015.9,4062.05,3954.36,4093.33,4109.23,3835.38,4187.69,4066.15,3999.49,4023.59,0
12_6_34,81,3924.62,4062.05,4093.85,4050.77,4020.51,4067.18,3961.03,4090.26,4111.28,3851.79,4203.59,4074.36,4011.79,4023.08,0
12_6_34,82,3927.69,4066.67,4094.87,4060.51,4027.69,4070.26,3964.62,4093.33,4113.33,3858.46,4203.59,4075.9,4015.9,4025.64,0
12_6_34,83,3925.13,4067.18,4093.85,4062.05,4030.77,4066.67,3965.64,4100.51,4114.36,3855.9,4198.97,4071.79,4012.31,4026.15,0
12_6_34,84,3923.59,4068.21,4092.31,4060.51,4027.69,4063.08,3968.21,4102.05,4108.72,3850.26,4200.51,4069.23,4005.13,4023.08,0
12_6_34,85,3930.77,4074.36,4089.74,4067.18,4026.67,4066.67,3972.31,4096.41,4106.15,3836.41,4197.44,4067.18,3996.41,4021.03,0
12_6_34,86,3940,4076.41,4092.82,4073.33,4032.82,4073.85,3976.41,4092.82,4114.87,3825.13,4197.95,4069.23,3996.92,4025.13,0
12_6_34,87,3946.67,4075.38,4095.9,4075.9,4036.92,4075.9,3983.08,4097.44,4118.97,3824.1,4203.08,4075.38,4006.15,4032.82,0
12_6_34,88,3952.31,4082.05,4094.36,4079.49,4032.31,4072.31,3989.23,4099.49,4107.69,3823.08,4203.59,4075.9,4003.59,4034.36,0
12_6_34,89,3953.85,4090.26,4093.33,4081.03,4027.18,4073.33,3989.74,4097.44,4104.62,3823.59,4200,4074.36,3994.36,4031.79,0
12_6_34,90,3953.85,4091.28,4094.36,4080.51,4028.21,4075.9,3990.26,4096.92,4110.77,3831.28,4206.15,4075.38,3995.9,4030.26,0
12_6_34,91,3955.38,4088.72,4094.87,4085.64,4032.82,4074.36,3994.36,4097.95,4112.31,3840.51,4222.05,4074.36,4008.21,4035.38,0
12_6_34,92,3960.51,4090.77,4096.92,4094.87,4037.95,4077.95,3999.49,4098.46,4119.49,3847.18,4232.82,4077.95,4022.56,4045.13,0
12_6_34,93,3966.15,4097.95,4099.49,4097.44,4039.49,4083.08,4005.64,4097.44,4128.21,3852.82,4234.36,4088.72,4025.64,4050.26,0
12_6_34,94,3967.18,4096.41,4096.92,4091.79,4038.46,4078.46,4005.64,4098.46,4119.49,3849.23,4234.36,4090.26,4015.38,4046.67,0
12_6_34,95,3957.95,4084.1,4090.26,4083.08,4035.38,4071.28,4000.51,4098.97,4106.67,3841.54,4225.13,4079.49,4000,4037.44,0
12_6_34,96,3953.85,4078.46,4088.21,4078.97,4029.23,4074.36,4001.03,4092.82,4105.64,3843.59,4214.36,4071.28,3990.26,4030.77,0
12_6_34,97,3963.08,4081.54,4091.28,4087.18,4025.64,4074.87,4005.13,4091.28,4106.15,3856.92,4221.54,4074.36,3994.36,4033.85,0
12_6_34,98,3969.23,4085.13,4093.85,4090.26,4029.74,4067.69,4004.62,4096.41,4109.23,3871.79,4234.36,4082.05,4004.62,4045.13,0
12_6_34,99,3974.36,4096.41,4097.44,4088.72,4037.44,4068.72,4005.13,4097.44,4116.92,3888.21,4240,4091.28,4016.92,4056.92,0
12_6_34,100,3984.62,4106.67,4101.03,4099.49,4041.03,4077.44,4011.28,4095.9,4122.05,3907.69,4250.26,4100,4029.74,4064.1,0
12_6_34,101,3985.13,4095.9,4099.49,4103.08,4035.9,4077.44,4016.41,4098.46,4124.62,3916.92,4257.44,4099.49,4031.28,4062.56,0
12_6_34,102,3975.9,4081.54,4095.9,4091.28,4028.21,4067.18,4013.33,4099.49,4115.9,3913.85,4252.31,4092.31,4022.56,4058.97,0
12_6_34,103,3974.36,4080,4094.36,4089.74,4026.67,4061.03,4006.67,4097.44,4098.46,3909.74,4246.15,4088.21,4018.97,4057.95,0
12_6_34,104,3979.49,4080.51,4090.26,4095.9,4027.18,4059.49,4003.59,4098.46,4091.28,3909.23,4247.69,4090.77,4022.05,4054.87,0
12_6_34,105,3975.38,4074.36,4087.69,4090.77,4020,4052.31,4004.1,4098.46,4098.97,3913.33,4247.69,4091.79,4019.49,4049.23,0
12_6_34,106,3972.82,4077.95,4091.79,4092.82,4017.44,4049.23,4006.15,4097.95,4105.64,3925.13,4245.13,4089.74,4019.49,4046.67,0
12_6_34,107,3984.1,4088.21,4096.41,4104.62,4024.62,4055.9,4010.77,4098.97,4098.46,3935.38,4251.79,4093.85,4025.13,4053.33,0
12_6_35,108,3990.26,4086.67,4095.38,4106.15,4029.23,4059.49,4016.92,4098.46,4092.31,3938.97,4261.54,4098.97,4028.72,4058.46,0
12_6_35,109,3989.74,4085.64,4098.97,4104.1,4029.74,4055.9,4023.08,4096.92,4096.41,3948.21,4262.56,4103.59,4033.85,4061.03,0
12_6_35,110,3990.77,4089.23,4100,4108.21,4031.79,4061.54,4029.23,4097.44,4107.18,3967.69,4262.56,4105.64,4039.49,4064.62,0
12_6_35,111,3987.18,4078.46,4091.79,4106.15,4027.69,4066.67,4030.26,4096.92,4111.79,3976.41,4263.08,4098.97,4037.44,4059.49,0
12_6_35,112,3987.69,4072.31,4089.74,4100.51,4025.64,4061.03,4029.74,4095.9,4100,3971.28,4264.1,4097.44,4032.82,4055.38,0
12_6_35,113,4002.05,4087.69,4098.97,4112.31,4031.79,4058.46,4033.85,4096.92,4093.33,3980.51,4274.36,4107.69,4040,4069.23,0
12_6_35,114,4011.28,4096.41,4098.46,4120.51,4034.36,4060,4037.44,4098.97,4101.54,3996.92,4284.1,4112.82,4050.26,4078.46,0
12_6_35,115,4005.64,4089.74,4089.74,4109.23,4028.72,4058.46,4035.9,4099.49,4104.1,4000.51,4278.46,4104.62,4047.18,4066.15,0
12_6_35,116,4003.08,4092.31,4090.77,4108.72,4025.64,4055.38,4038.46,4098.46,4096.41,4002.05,4274.36,4101.03,4040.51,4060.51,0
12_6_35,117,4008.72,4102.56,4094.36,4124.1,4032.31,4055.38,4044.62,4096.92,4096.41,4011.28,4281.03,4108.21,4041.54,4066.67,0
12_6_35,118,4008.21,4098.97,4095.38,4124.1,4035.9,4056.41,4043.08,4097.95,4092.82,4013.33,4281.54,4108.72,4040.51,4067.69,0
12_6_35,119,4008.72,4091.79,4096.92,4118.46,4035.38,4058.97,4044.1,4098.97,4087.69,4015.38,4280.51,4107.18,4043.59,4071.79,0
12_6_35,120,4017.44,4097.44,4098.46,4125.64,4040.51,4062.05,4052.82,4095.9,4099.49,4030.26,4288.21,4117.44,4059.49,4081.03,0
12_6_35,121,4024.1,4104.1,4094.87,4126.15,4042.56,4062.56,4054.36,4096.41,4102.56,4037.44,4293.33,4125.13,4063.59,4080,0
12_6_35,122,4020,4097.44,4092.31,4121.54,4036.41,4058.46,4054.36,4098.97,4096.92,4034.87,4290.26,4117.95,4053.33,4073.85,0
12_6_35,123,4014.87,4091.28,4091.28,4122.05,4035.9,4056.41,4058.97,4098.97,4104.1,4046.15,4290.77,4111.28,4052.82,4073.33,0
12_6_35,124,4020,4098.97,4091.28,4123.59,4043.59,4063.08,4063.59,4098.97,4106.67,4061.54,4303.08,4114.36,4066.15,4076.92,0
12_6_35,125,4027.18,4106.15,4092.82,4126.15,4045.13,4069.23,4070.26,4099.49,4094.87,4057.95,4304.62,4112.82,4071.28,4078.97,0
12_6_35,126,4031.79,4111.28,4095.9,4130.77,4044.62,4066.15,4076.92,4097.95,4093.33,4056.41,4296.92,4113.33,4072.82,4080.51,0
12_6_35,127,4038.97,4121.03,4098.97,4139.49,4050.26,4067.18,4075.9,4096.92,4106.67,4078.46,4301.54,4123.59,4085.13,4082.05,0
12_6_35,128,4038.46,4120.51,4094.87,4144.1,4052.82,4075.9,4073.85,4098.97,4108.21,4094.36,4308.21,4124.62,4102.56,4079.49,0
12_6_35,0,4027.18,4106.67,4088.72,4134.87,4045.64,4075.9,4076.92,4098.97,4095.9,4088.21,4304.1,4111.79,4112.82,4070.77,0
12_6_35,1,4024.62,4104.1,4090.26,4125.13,4041.03,4065.64,4074.87,4093.85,4090.77,4088.72,4298.97,4105.13,4124.1,4065.64,0
12_6_35,2,4039.49,4120.51,4096.41,4134.87,4053.33,4066.15,4078.97,4090.77,4107.18,4113.33,4309.74,4121.54,4149.23,4078.46,0
12_6_35,3,4049.23,4128.21,4098.46,4148.21,4061.54,4072.82,4090.77,4093.85,4113.85,4131.28,4327.69,4140.51,4172.31,4091.28,0
12_6_35,4,4041.54,4116.92,4092.31,4141.03,4048.72,4067.69,4092.82,4097.95,4096.92,4124.1,4327.69,4134.36,4171.28,4082.05,0
12_6_35,5,4029.74,4104.1,4084.1,4124.62,4036.92,4060,4088.72,4097.95,4092.82,4121.03,4313.33,4120,4157.95,4063.59,0
12_6_35,6,4027.69,4104.1,4084.1,4123.08,4043.59,4061.54,4090.26,4097.95,4104.1,4133.33,4315.38,4119.49,4155.38,4058.97,0
12_6_35,7,4033.33,4111.28,4088.72,4133.85,4054.36,4064.62,4092.31,4097.95,4106.15,4143.59,4329.74,4125.64,4163.08,4065.13,0
12_6_35,8,4031.79,4103.08,4085.64,4135.9,4049.74,4062.05,4089.74,4098.46,4089.74,4138.97,4326.15,4122.05,4157.95,4060.51,0
12_6_35,9,4028.21,4091.28,4080.51,4128.72,4040,4059.49,4089.74,4098.97,4080,4137.44,4321.03,4121.03,4142.05,4049.23,0
12_6_35,10,4035.38,4098.46,4083.59,4132.82,4046.67,4059.49,4094.36,4097.95,4097.95,4156.92,4335.9,4133.33,4140.51,4053.33,0
12_6_35,11,4046.67,4110.77,4088.72,4142.05,4061.54,4061.03,4098.97,4098.46,4113.33,4172.82,4345.64,4142.56,4151.28,4066.67,0
12_6_35,12,4044.62,4107.18,4090.77,4136.41,4058.97,4062.56,4102.56,4099.49,4097.95,4165.13,4341.03,4139.49,4152.31,4065.13,0
12_6_35,13,4038.97,4099.49,4090.26,4124.1,4048.21,4064.1,4105.64,4095.9,4085.64,4161.54,4343.59,4137.95,4147.18,4062.05,0
12_6_35,14,4037.95,4094.87,4086.67,4119.49,4049.74,4066.15,4108.21,4093.85,4093.33,4167.69,4344.1,4133.85,4140.51,4062.05,0
12_6_35,15,4036.41,4090.26,4081.54,4121.03,4051.79,4064.62,4107.18,4097.44,4096.92,4165.13,4332.31,4125.64,4125.64,4049.74,0
12_6_35,16,4038.46,4094.36,4085.64,4126.67,4051.28,4060,4107.69,4097.44,4100,4168.21,4342.56,4131.79,4121.54,4045.64,0
12_6_35,17,4047.18,4106.67,4094.87,4134.36,4058.46,4064.62,4114.36,4095.9,4108.21,4186.15,4363.59,4143.59,4136.92,4060,0
12_6_35,18,4056.92,4116.41,4096.41,4144.62,4065.13,4075.38,4123.08,4094.36,4108.72,4197.95,4360,4145.64,4149.74,4070.26,0
12_6_35,19,4061.03,4119.49,4092.31,4150.77,4064.1,4076.92,4124.62,4093.33,4106.67,4200.51,4356.92,4151.28,4152.31,4071.28,0
12_6_35,20,4061.54,4110.77,4091.28,4146.15,4062.05,4064.62,4120.51,4094.87,4108.72,4203.08,4368.72,4156.92,4151.28,4075.9,0
12_6_35,21,4057.95,4095.38,4090.26,4138.97,4058.46,4056.41,4120.51,4099.49,4110.26,4203.08,4369.74,4153.85,4144.62,4073.85,0
12_6_35,22,4056.92,4088.72,4090.26,4137.44,4057.95,4064.1,4125.13,4100,4106.67,4202.56,4365.64,4153.33,4137.44,4065.64,0
12_6_35,23,4057.44,4089.74,4092.31,4143.59,4063.08,4074.36,4130.26,4097.95,4103.08,4211.28,4373.33,4153.33,4142.05,4068.21,0
12_6_35,24,4059.49,4096.92,4089.74,4153.33,4069.23,4074.87,4136.92,4097.95,4113.85,4229.74,4377.95,4150.26,4152.31,4074.36,0
12_6_35,25,4066.15,4104.62,4090.26,4155.9,4068.72,4070.26,4140,4098.46,4122.56,4241.03,4382.56,4154.36,4161.54,4077.95,0
12_6_35,26,4073.85,4106.15,4095.9,4150.26,4066.15,4072.82,4140.51,4096.92,4124.62,4249.74,4396.92,4165.64,4166.67,4085.64,0
12_6_35,27,4083.59,4111.79,4098.97,4153.33,4070.77,4077.44,4142.56,4093.33,4129.23,4260.51,4408.72,4176.41,4166.15,4095.9,0
12_6_35,28,4089.74,4117.95,4096.92,4160,4075.38,4071.79,4141.54,4094.36,4125.64,4255.9,4402.05,4177.44,4155.9,4091.79,0
12_6_35,29,4087.18,4113.85,4094.87,4158.97,4074.87,4064.1,4137.44,4102.05,4118.97,4246.15,4388.21,4167.18,4138.97,4077.95,0
12_6_35,30,4078.46,4114.36,4091.79,4161.54,4073.85,4068.21,4143.08,4096.92,4118.46,4249.23,4381.54,4155.9,4118.46,4074.36,0
12_6_35,31,4074.87,4121.54,4091.79,4168.21,4074.87,4078.46,4153.33,4088.72,4116.92,4254.36,4376.92,4155.38,4100,4073.85,0
12_6_35,32,4082.56,4121.03,4091.28,4166.67,4075.38,4074.87,4153.85,4095.38,4116.41,4261.03,4377.95,4163.59,4103.59,4072.82,0
12_6_35,33,4093.85,4125.64,4092.31,4166.15,4074.87,4070.77,4152.31,4103.08,4121.54,4273.85,4386.67,4171.79,4126.15,4082.05,0
12_6_35,34,4094.36,4135.38,4092.82,4170.26,4074.36,4073.85,4155.9,4098.46,4127.18,4280.51,4388.21,4171.28,4138.97,4087.18,0
12_6_35,35,4083.59,4130.77,4091.28,4164.62,4074.36,4066.67,4154.36,4094.87,4122.56,4277.44,4379.49,4160,4135.9,4077.44,0
12_6_35,36,4078.97,4122.05,4089.23,4160.51,4073.33,4056.92,4143.08,4098.97,4111.79,4274.87,4379.49,4152.31,4137.44,4071.79,0
12_6_35,37,4079.49,4122.56,4090.26,4165.13,4074.87,4055.38,4137.95,4100,4101.54,4273.33,4382.05,4154.36,4141.03,4073.85,0
12_6_35,38,4074.36,4121.54,4091.28,4158.46,4073.85,4051.28,4143.59,4096.41,4105.13,4277.95,4380,4153.33,4138.97,4070.26,0
12_6_35,39,4074.36,4117.95,4091.28,4152.31,4067.18,4045.64,4150.26,4097.44,4114.36,4286.67,4379.49,4153.33,4144.62,4069.74,0
12_6_35,40,4085.13,4127.18,4092.31,4163.08,4067.69,4051.28,4152.31,4098.97,4120,4291.28,4379.49,4164.62,4155.38,4078.46,0
12_6_35,41,4091.79,4136.41,4090.77,4170.77,4075.38,4057.95,4150.77,4094.87,4124.62,4296.41,4385.13,4172.31,4157.44,4084.62,0
12_6_35,42,4091.79,4134.87,4093.33,4167.69,4075.38,4058.46,4151.79,4091.79,4126.15,4303.08,4392.82,4169.74,4148.72,4082.56,0
12_6_35,43,4091.28,4131.79,4095.38,4168.72,4072.31,4058.97,4161.03,4095.9,4119.49,4304.1,4392.82,4167.18,4144.1,4078.46,0
12_6_35,44,4092.31,4136.92,4095.38,4173.33,4075.9,4059.49,4167.69,4096.92,4114.36,4308.72,4393.33,4169.74,4156.41,4083.59,0
12_6_35,45,4098.46,4149.74,4095.9,4176.92,4078.97,4062.05,4168.21,4095.38,4129.74,4327.69,4407.69,4173.85,4174.87,4095.9,0
12_6_35,46,4102.56,4152.82,4094.36,4176.92,4081.03,4060.51,4169.23,4098.97,4140.51,4337.95,4415.9,4173.85,4175.38,4091.79,0
12_6_35,47,4095.38,4147.18,4090.77,4171.28,4082.56,4051.79,4165.13,4100,4126.15,4329.23,4405.13,4168.21,4166.15,4076.92,0
12_6_35,48,4091.79,4149.23,4091.79,4172.31,4078.97,4052.31,4159.49,4097.95,4121.03,4328.72,4405.13,4165.64,4167.18,4077.44,0
12_6_35,49,4097.44,4157.44,4094.36,4177.44,4078.97,4062.56,4164.62,4097.95,4134.87,4337.95,4414.36,4169.23,4172.31,4087.18,0
12_6_35,50,4098.46,4153.85,4093.33,4174.36,4080,4060,4169.23,4097.44,4141.03,4341.03,4407.18,4168.21,4168.72,4080,0
12_6_35,51,4099.49,4151.28,4093.85,4175.38,4078.97,4051.79,4165.64,4096.41,4131.79,4340,4397.44,4165.64,4160,4073.33,0
12_6_35,52,4108.21,4157.44,4099.49,4184.62,4082.05,4056.41,4169.23,4097.95,4128.21,4338.97,4408.21,4172.82,4162.05,4086.67,0
12_6_35,53,4110.26,4157.95,4100,4185.64,4084.1,4062.05,4174.87,4098.46,4137.95,4344.1,4416.41,4180.51,4172.82,4094.36,0
12_6_35,54,4106.67,4158.46,4094.36,4179.49,4083.59,4059.49,4170.26,4099.49,4137.95,4350.77,4411.28,4174.36,4170.26,4084.1,0
12_6_35,55,4107.18,4168.21,4094.87,4185.64,4088.21,4059.49,4165.64,4098.97,4131.79,4355.9,4410.77,4167.18,4166.15,4079.49,0
12_6_35,56,4110.26,4176.92,4096.92,4191.79,4093.85,4059.49,4164.62,4095.38,4140,4362.56,4413.85,4169.74,4172.31,4080,0
12_6_35,57,4105.64,4172.82,4090.77,4187.18,4092.82,4057.44,4166.67,4094.87,4144.1,4365.64,4410.77,4169.23,4171.79,4075.9,0
12_6_35,58,4108.72,4170.26,4090.26,4191.79,4092.31,4060.51,4172.31,4097.95,4133.85,4364.62,4412.82,4173.33,4172.31,4082.56,0
12_6_35,59,4119.49,4175.9,4096.41,4198.46,4091.28,4067.18,4176.92,4098.97,4135.9,4364.62,4418.46,4183.08,4180.51,4091.79,0
12_6_35,60,4118.46,4174.36,4095.9,4194.87,4087.69,4068.21,4175.9,4097.95,4141.54,4368.21,4416.92,4180.51,4176.92,4086.15,0
12_6_35,61,4110.77,4171.79,4094.87,4195.9,4089.23,4063.08,4171.79,4098.97,4138.97,4373.33,4412.31,4171.79,4169.74,4081.03,0
12_6_35,62,4108.21,4174.36,4094.36,4200,4093.33,4059.49,4168.21,4098.97,4140.51,4375.9,4407.18,4166.67,4169.74,4081.54,0
12_6_35,63,4105.13,4170.77,4089.74,4187.69,4091.79,4058.97,4168.21,4096.41,4139.49,4373.85,4402.56,4161.03,4168.21,4073.33,0
12_6_35,64,4107.69,4168.72,4089.74,4184.1,4088.72,4061.03,4171.28,4098.97,4136.41,4376.92,4405.13,4162.05,4174.36,4074.36,0
12_6_35,65,4120,4176.92,4097.44,4197.95,4092.31,4066.67,4173.85,4100.51,4145.64,4389.23,4413.85,4177.95,4186.67,4091.28,0
12_6_35,66,4125.13,4179.49,4097.95,4194.87,4093.85,4065.13,4172.82,4098.97,4157.95,4397.44,4415.9,4184.62,4184.62,4092.31,0
12_6_35,67,4115.9,4171.28,4092.82,4186.15,4088.72,4053.85,4170.26,4098.46,4157.95,4395.9,4408.72,4175.38,4173.85,4076.92,0
12_6_35,68,4106.67,4171.79,4089.74,4194.87,4090.26,4052.82,4169.23,4098.97,4149.74,4390.26,4403.59,4168.21,4167.69,4072.31,0
12_6_35,69,4112.31,4183.08,4092.31,4202.56,4097.95,4062.05,4172.82,4098.97,4141.03,4389.23,4403.59,4167.69,4170.77,4075.9,0
12_6_35,70,4121.54,4187.18,4094.36,4198.46,4097.44,4057.95,4171.28,4098.46,4136.41,4392.82,4407.18,4168.21,4186.15,4082.05,0
12_6_35,71,4122.56,4182.56,4095.9,4198.46,4090.77,4044.1,4166.67,4098.46,4144.62,4401.03,4418.97,4174.87,4203.59,4090.77,0
12_6_35,72,4124.62,4183.59,4099.49,4202.56,4090.26,4046.15,4173.85,4098.97,4155.38,4408.21,4428.72,4188.72,4210.77,4096.92,0
12_6_35,73,4126.15,4183.59,4097.95,4201.03,4093.85,4060,4182.56,4098.46,4151.79,4406.15,4423.08,4191.28,4208.21,4096.92,0
12_6_35,74,4113.85,4171.79,4091.79,4195.9,4091.79,4059.49,4177.44,4097.95,4148.72,4399.49,4406.15,4177.95,4200.51,4088.21,0
12_6_35,75,4110.77,4171.28,4091.79,4196.92,4089.23,4050.77,4170.77,4097.44,4153.85,4402.56,4401.03,4170.77,4202.56,4080,0
12_6_35,76,4124.1,4187.18,4094.87,4203.08,4092.82,4056.92,4173.85,4097.95,4156.92,4411.79,4410.26,4177.44,4211.28,4083.08,0
12_6_35,77,4124.62,4186.67,4093.85,4198.97,4100.51,4065.64,4178.97,4098.46,4154.87,4411.28,4411.28,4182.05,4207.69,4083.59,0
12_6_35,78,4122.56,4178.46,4094.87,4195.9,4105.64,4064.1,4182.05,4096.41,4154.87,4409.74,4403.59,4181.03,4202.05,4074.87,0
12_6_35,79,4135.38,4191.28,4101.03,4211.28,4109.23,4061.54,4184.62,4095.9,4156.92,4419.49,4407.18,4189.74,4213.85,4080,0
12_6_35,80,4144.1,4209.23,4105.64,4221.03,4111.79,4064.62,4186.67,4097.44,4163.59,4430.26,4422.05,4203.59,4229.23,4093.85,0
12_6_35,81,4140.51,4201.54,4100.51,4209.23,4108.21,4064.62,4188.72,4097.95,4165.13,4431.28,4421.54,4202.56,4227.18,4087.69,0
12_6_35,82,4132.82,4183.08,4095.38,4200.51,4097.44,4062.56,4183.59,4099.49,4158.97,4424.62,4404.62,4188.72,4215.9,4072.31,0
12_6_35,83,4127.69,4181.54,4097.44,4201.03,4089.23,4060,4171.79,4097.44,4161.54,4422.05,4402.56,4183.59,4214.36,4072.31,0
12_6_35,84,4126.15,4185.13,4097.44,4202.05,4091.79,4057.95,4167.69,4092.31,4162.05,4417.95,4408.21,4186.15,4218.97,4075.9,0
12_6_35,85,4124.1,4175.9,4089.74,4197.44,4093.85,4058.46,4170.26,4094.36,4148.72,4408.72,4393.33,4175.38,4212.82,4058.97,0
12_6_35,86,4118.46,4164.1,4089.23,4186.15,4089.23,4058.97,4168.21,4100.51,4141.03,4403.59,4376.92,4166.15,4201.54,4045.64,0
12_6_35,87,4119.49,4165.13,4096.92,4183.59,4090.26,4060.51,4166.67,4098.97,4150.77,4410.77,4388.72,4178.97,4206.15,4063.08,0
12_6_35,88,4131.28,4176.41,4101.03,4196.41,4100.51,4062.05,4171.79,4098.46,4162.56,4421.54,4402.05,4186.67,4217.95,4076.41,0
12_6_35,89,4132.82,4181.03,4096.41,4202.56,4107.18,4062.56,4171.28,4100,4152.82,4418.97,4389.74,4172.82,4215.38,4063.59,0
12_6_35,90,4124.62,4178.46,4092.31,4199.49,4107.18,4062.05,4169.23,4095.9,4143.59,4415.9,4385.13,4167.18,4205.64,4057.95,0
12_6_35,91,4122.56,4181.03,4092.82,4198.97,4101.54,4058.46,4169.23,4093.85,4146.67,4415.9,4388.72,4172.82,4197.95,4065.13,0
12_6_35,92,4123.59,4184.1,4093.85,4196.92,4097.95,4057.95,4168.72,4099.49,4144.1,4408.21,4376.92,4168.21,4188.21,4059.49,0
12_6_35,93,4121.03,4183.59,4094.87,4196.92,4103.59,4062.56,4168.21,4099.49,4147.69,4407.69,4375.38,4165.13,4188.21,4057.44,0
12_6_35,94,4127.69,4187.18,4097.44,4205.64,4104.62,4067.18,4170.77,4096.92,4156.92,4415.9,4394.36,4177.44,4200.51,4072.82,0
12_6_35,95,4138.97,4186.67,4098.46,4201.54,4097.44,4063.08,4170.77,4098.97,4147.69,4421.03,4400,4181.03,4212.31,4075.9,0
12_6_35,96,4133.85,4174.36,4096.41,4188.72,4093.33,4053.33,4167.69,4100.51,4140,4423.08,4394.36,4172.31,4211.28,4068.21,0
12_6_35,97,4123.08,4169.23,4093.33,4189.74,4094.36,4050.26,4168.72,4098.46,4155.38,4428.21,4396.41,4170.77,4204.1,4064.62,0
12_6_35,98,4121.03,4176.41,4089.74,4197.44,4097.44,4052.31,4170.26,4098.46,4158.97,4426.15,4387.69,4167.18,4200.51,4056.41,0
12_6_35,99,4123.59,4181.54,4090.77,4197.44,4105.13,4050.26,4167.69,4098.97,4149.23,4423.59,4380,4162.05,4200.51,4051.28,0
12_6_35,100,4126.67,4183.59,4094.87,4198.97,4107.69,4048.72,4165.64,4098.46,4153.33,4427.69,4389.74,4168.72,4201.54,4059.49,0
12_6_35,101,4126.67,4184.1,4096.92,4201.54,4105.13,4046.67,4165.13,4098.46,4156.41,4426.67,4387.69,4169.74,4199.49,4061.54,0
12_6_35,102,4130.77,4186.15,4097.95,4199.49,4104.62,4046.15,4166.15,4098.46,4150.26,4422.56,4383.08,4160.51,4200.51,4056.41,0
12_6_35,103,4136.92,4188.21,4097.95,4199.49,4105.13,4050.26,4167.69,4098.46,4156.41,4423.59,4394.36,4164.62,4205.13,4065.64,0
12_6_35,104,4136.41,4186.15,4093.33,4200.51,4106.15,4052.82,4168.72,4098.46,4168.72,4428.72,4401.03,4173.33,4213.85,4073.85,0
12_6_35,105,4135.38,4184.1,4094.36,4198.46,4104.62,4050.26,4169.23,4098.46,4169.23,4437.95,4404.62,4173.33,4227.69,4073.85,0
12_6_35,106,4133.85,4184.1,4096.41,4197.95,4103.59,4048.72,4171.28,4098.46,4166.15,4440.51,4409.23,4172.31,4231.79,4072.31,0
12_6_36,107,4128.21,4183.08,4093.33,4199.49,4113.85,4045.13,4170.77,4098.46,4165.13,4431.28,4404.62,4171.28,4222.56,4067.69,0
12_6_36,108,4132.31,4185.13,4093.85,4200.51,4121.54,4044.62,4168.72,4098.46,4166.15,4427.18,4402.05,4173.33,4218.46,4066.67,0
12_6_36,109,4134.87,4189.23,4098.97,4203.59,4113.33,4045.64,4166.15,4098.46,4164.62,4432.82,4401.03,4173.85,4217.44,4065.64,0
12_6_36,110,4124.1,4186.15,4093.85,4200,4104.62,4038.46,4164.1,4098.46,4153.85,4423.59,4385.13,4162.05,4204.1,4055.38,0
12_6_36,111,4121.54,4183.59,4090.26,4195.38,4106.67,4033.33,4169.74,4098.46,4148.21,4409.74,4376.92,4155.9,4195.38,4050.26,0
12_6_36,112,4126.67,4183.59,4092.82,4197.44,4107.18,4034.87,4168.21,4098.46,4156.92,4419.49,4386.67,4166.67,4207.18,4058.46,0
12_6_36,113,4124.1,4184.62,4092.31,4201.03,4104.62,4030.77,4153.85,4098.46,4156.92,4429.74,4387.69,4171.28,4211.79,4063.59,0
12_6_36,114,4128.72,4193.33,4093.33,4198.97,4106.15,4030.26,4156.41,4098.46,4153.33,4426.15,4389.74,4173.33,4214.36,4068.21,0
12_6_36,115,4140.51,4206.15,4098.97,4200,4107.69,4035.9,4170.26,4098.46,4169.74,4436.41,4401.54,4183.59,4223.59,4076.92,0
12_6_36,116,4142.05,4203.08,4100.51,4208.21,4108.72,4029.74,4161.54,4098.46,4173.85,4446.15,4397.44,4181.54,4222.05,4077.44,0
12_6_36,117,4136.92,4190.26,4097.95,4204.1,4108.21,4027.69,4149.23,4098.46,4152.31,4427.69,4381.54,4170.26,4216.41,4073.85,0
12_6_36,118,4130.77,4183.59,4098.97,4187.18,4107.18,4034.87,4156.41,4098.46,4147.69,4412.31,4387.18,4168.21,4227.18,4075.38,0
12_6_36,119,4127.69,4176.41,4098.46,4183.08,4107.18,4029.74,4157.44,4098.46,4156.41,4420.51,4396.92,4171.28,4246.67,4077.44,0
12_6_36,120,4127.18,4170.77,4093.33,4191.79,4110.77,4029.23,4150.77,4098.97,4153.33,4426.15,4386.67,4171.79,4256.92,4075.9,0
12_6_36,121,4122.05,4173.33,4088.72,4189.74,4113.33,4042.05,4157.95,4097.95,4150.77,4416.41,4375.9,4171.28,4267.69,4069.23,0
12_6_36,122,4117.44,4175.9,4090.77,4182.56,4109.23,4038.97,4167.69,4098.46,4161.54,4412.31,4374.36,4167.69,4280.51,4059.49,0
12_6_36,123,4121.03,4180.51,4091.79,4185.64,4105.64,4033.85,4167.69,4100.51,4168.21,4422.56,4369.23,4165.13,4291.79,4054.87,0
12_6_36,124,4126.67,4188.21,4091.79,4188.21,4107.18,4045.13,4168.21,4101.54,4162.56,4430.26,4367.18,4169.74,4307.18,4065.13,0
12_6_36,125,4124.62,4183.59,4090.26,4185.64,4106.67,4045.13,4165.13,4101.03,4159.49,4425.64,4372.82,4171.79,4310.26,4068.72,0
12_6_36,126,4121.54,4174.36,4088.72,4184.62,4104.62,4034.36,4157.44,4100,4158.97,4421.54,4366.67,4169.23,4307.69,4060,0
12_6_36,127,4124.1,4179.49,4088.21,4184.1,4107.69,4038.97,4156.41,4098.46,4154.36,4423.08,4354.36,4169.23,4311.79,4062.05,0
12_6_36,128,4126.15,4186.67,4089.74,4183.59,4115.38,4049.23,4163.59,4098.46,4156.92,4423.08,4355.9,4173.33,4317.95,4072.82,0
12_6_36,0,4122.56,4181.03,4089.74,4182.05,4119.49,4052.31,4169.23,4099.49,4164.62,4420.51,4363.59,4174.36,4315.38,4066.15,0
12_6_36,1,4118.46,4171.28,4087.69,4176.92,4116.92,4049.23,4165.13,4097.44,4160.51,4421.03,4371.28,4172.82,4313.33,4056.41,0
12_6_36,2,4119.49,4170.26,4089.23,4169.74,4110.26,4045.64,4154.87,4098.46,4156.92,4422.56,4376.92,4176.92,4316.92,4066.15,0
12_6_36,3,4123.59,4172.82,4092.31,4168.21,4105.64,4047.18,4149.74,4102.05,4171.28,4430.26,4378.46,4185.64,4317.44,4076.92,0
12_6_36,4,4126.15,4173.85,4092.82,4169.74,4105.64,4048.72,4153.85,4100,4171.28,4429.23,4374.36,4190.77,4311.79,4074.87,0
12_6_36,5,4120.51,4170.26,4088.21,4167.69,4107.18,4045.64,4156.92,4097.95,4146.15,4406.15,4368.21,4183.08,4300,4067.69,0
12_6_36,6,4113.33,4166.67,4083.08,4165.64,4108.72,4041.54,4148.72,4097.95,4136.41,4389.74,4359.49,4171.79,4289.23,4061.03,0
12_6_36,7,4116.41,4172.31,4085.13,4168.72,4110.26,4043.08,4144.62,4097.44,4150.26,4389.74,4355.9,4174.36,4280.51,4058.97,0
12_6_36,8,4124.1,4185.13,4090.26,4174.87,4118.97,4050.26,4152.82,4096.41,4162.05,4396.41,4360.51,4185.13,4278.46,4066.67,0
12_6_36,9,4126.15,4192.31,4090.77,4175.9,4126.15,4053.33,4158.46,4097.95,4168.21,4408.21,4361.03,4187.69,4287.18,4074.87,0
12_6_36,10,4122.05,4184.1,4086.67,4170.77,4115.9,4048.72,4153.33,4099.49,4167.69,4418.46,4361.03,4184.62,4291.28,4072.31,0
12_6_36,11,4120,4172.82,4085.64,4167.18,4103.59,4046.67,4150.26,4097.44,4162.05,4420.51,4370.77,4189.74,4290.77,4071.28,0
12_6_36,12,4129.74,4175.9,4091.28,4167.18,4106.67,4049.23,4153.85,4097.44,4164.62,4425.13,4380,4201.03,4302.05,4081.54,0
12_6_36,13,4141.03,4187.18,4096.41,4169.74,4110.77,4051.28,4156.92,4098.97,4173.33,4433.85,4384.1,4207.69,4318.46,4094.87,0
12_6_36,14,4137.44,4183.08,4095.38,4168.21,4106.15,4056.41,4159.49,4097.95,4172.82,4427.18,4383.08,4203.08,4318.46,4094.36,0
12_6_36,15,4120.51,4169.23,4087.69,4164.62,4104.1,4056.92,4154.87,4096.41,4163.59,4407.18,4372.31,4189.23,4298.97,4075.38,0
12_6_36,16,4111.79,4166.67,4083.08,4166.15,4107.18,4052.82,4150.26,4097.95,4158.46,4394.36,4353.85,4177.44,4280,4059.49,0
12_6_36,17,4117.95,4170.77,4084.62,4166.15,4109.23,4050.26,4151.28,4098.97,4166.15,4397.95,4347.69,4172.82,4277.44,4060.51,0
12_6_36,18,4117.44,4169.23,4084.62,4155.9,4105.13,4044.62,4147.69,4098.46,4171.28,4400.51,4350.77,4173.85,4275.38,4062.05,0
12_6_36,19,4110.77,4165.64,4083.08,4152.82,4105.13,4043.59,4143.08,4098.46,4163.59,4392.31,4347.69,4178.46,4261.54,4058.46,0
12_6_36,20,4116.41,4172.31,4085.64,4166.15,4108.72,4054.36,4149.74,4098.97,4170.26,4396.41,4341.54,4183.08,4255.38,4064.1,0
12_6_36,21,4126.15,4182.56,4089.23,4171.28,4107.18,4061.54,4156.41,4098.46,4181.03,4410.77,4343.59,4184.62,4268.72,4074.87,0
12_6_36,22,4125.64,4186.67,4089.74,4166.67,4112.82,4058.97,4154.87,4098.46,4170.26,4411.79,4357.95,4188.21,4288.21,4082.56,0
12_6_36,23,4123.08,4188.21,4090.26,4164.62,4120.51,4063.59,4154.87,4098.97,4159.49,4399.49,4366.15,4190.26,4301.03,4082.56,0
12_6_36,24,4123.08,4183.08,4088.72,4158.46,4112.31,4068.72,4156.92,4097.44,4167.69,4396.41,4361.03,4186.67,4297.95,4078.46,0
12_6_36,25,4120,4172.31,4085.64,4151.79,4105.13,4060,4152.82,4099.49,4183.08,4410.26,4353.85,4184.1,4285.64,4074.36,0
12_6_36,26,4119.49,4167.18,4084.62,4152.31,4107.69,4050.26,4147.18,4101.03,4178.46,4414.87,4340.51,4177.44,4278.46,4069.74,0
12_6_36,27,4122.05,4170.77,4088.21,4156.92,4106.15,4053.33,4146.15,4100.51,4161.03,4401.03,4325.64,4169.74,4275.38,4069.23,0
12_6_36,28,4125.64,4176.41,4091.28,4158.97,4111.79,4060.51,4149.74,4101.54,4160,4391.28,4323.08,4170.26,4275.38,4074.87,0
12_6_36,29,4128.21,4182.56,4092.82,4162.56,4120.51,4062.56,4153.85,4101.03,4170.26,4391.28,4326.15,4174.87,4277.44,4076.41,0
12_6_36,30,4127.69,4186.15,4092.82,4168.72,4115.38,4057.44,4150.77,4097.44,4164.1,4382.05,4323.59,4173.33,4270.77,4071.79,0
12_6_36,31,4126.67,4184.62,4089.74,4167.69,4109.74,4050.77,4143.59,4097.95,4150.77,4367.69,4325.13,4170.77,4261.54,4072.82,0
12_6_36,32,4123.59,4182.05,4084.62,4158.97,4109.74,4053.85,4140,4099.49,4152.82,4370.77,4328.21,4172.31,4268.21,4076.41,0
12_6_36,33,4120.51,4182.05,4086.15,4155.9,4112.82,4063.59,4145.64,4097.44,4158.97,4383.08,4328.21,4171.28,4282.05,4073.85,0
12_6_36,34,4123.08,4187.18,4089.74,4163.08,4118.97,4066.15,4152.31,4098.46,4167.69,4395.38,4338.97,4171.28,4293.33,4075.9,0
12_6_36,35,4127.18,4190.26,4088.21,4162.56,4117.44,4062.56,4150.26,4103.59,4176.92,4409.74,4353.85,4177.44,4298.46,4087.69,0
12_6_36,36,4125.64,4183.08,4088.72,4151.79,4110.77,4063.59,4146.67,4105.64,4174.36,4412.31,4350.77,4183.08,4294.36,4090.77,0
12_6_36,37,4127.69,4184.62,4092.31,4154.87,4111.28,4065.64,4149.23,4101.54,4172.82,4407.69,4342.56,4184.62,4297.95,4087.69,0
12_6_36,38,4134.87,4194.36,4093.85,4167.18,4115.38,4067.18,4152.82,4099.49,4178.97,4409.23,4347.18,4183.59,4307.69,4090.77,0
12_6_36,39,4133.33,4192.31,4094.36,4165.13,4119.49,4069.23,4151.79,4101.03,4172.31,4400.51,4344.1,4178.97,4293.33,4088.72,0
12_6_36,40,4122.05,4182.56,4094.87,4154.87,4119.49,4068.21,4146.15,4100,4154.87,4371.28,4322.56,4170.26,4264.1,4076.41,0
12_6_36,41,4120.51,4181.54,4090.77,4154.87,4111.79,4063.08,4138.97,4097.44,4149.74,4350.77,4308.72,4167.69,4254.87,4071.28,0
12_6_36,42,4125.13,4184.62,4089.23,4154.87,4111.79,4061.03,4136.92,4097.44,4153.33,4351.28,4311.79,4169.74,4261.03,4077.44,0
12_6_36,43,4123.59,4185.64,4092.82,4152.31,4114.87,4063.08,4138.97,4098.46,4157.95,4360,4315.9,4173.85,4260,4085.64,0
12_6_36,44,4126.67,4185.13,4097.44,4155.9,4111.28,4064.62,4140,4098.46,4167.69,4373.33,4320,4180.51,4260,4092.31,0
12_6_36,45,4136.41,4183.59,4096.92,4156.41,4114.36,4066.15,4142.56,4098.46,4170.26,4381.03,4323.59,4182.05,4264.1,4090.26,0
12_6_36,46,4138.46,4191.28,4096.41,4157.44,4121.54,4071.79,4145.64,4096.92,4168.21,4382.56,4326.15,4183.08,4262.56,4094.87,0
12_6_36,47,4137.44,4199.49,4099.49,4164.62,4122.56,4074.36,4143.59,4097.44,4169.23,4383.59,4328.72,4186.15,4263.59,4105.13,0
12_6_36,48,4138.46,4191.79,4099.49,4162.05,4122.05,4075.38,4141.54,4099.49,4163.59,4378.46,4327.18,4183.59,4271.28,4101.03,0
12_6_36,49,4137.44,4185.64,4092.31,4154.36,4121.03,4079.49,4146.67,4099.49,4164.1,4375.38,4326.15,4181.03,4276.41,4097.44,0
12_6_36,50,4137.44,4186.67,4090.77,4157.95,4119.49,4077.44,4149.23,4099.49,4172.31,4377.95,4329.23,4182.56,4276.92,4104.62,0
12_6_36,51,4140,4188.21,4095.9,4167.18,4119.49,4072.82,4143.08,4100,4173.85,4375.9,4330.77,4184.62,4278.46,4108.72,0
12_6_36,52,4140,4194.87,4097.44,4169.74,4118.97,4081.54,4140,4098.97,4170.77,4367.69,4325.64,4187.18,4273.85,4107.18,0
12_6_36,53,4139.49,4197.95,4095.9,4166.15,4120,4089.74,4142.05,4098.46,4164.62,4360.51,4324.62,4184.1,4261.03,4107.18,0
12_6_36,54,4134.36,4187.69,4094.36,4157.95,4122.56,4081.03,4141.03,4098.46,4158.97,4359.49,4324.62,4174.87,4251.79,4101.03,0
12_6_36,55,4128.21,4179.49,4093.85,4151.79,4121.54,4074.36,4140,4097.95,4163.59,4365.64,4318.46,4169.74,4248.21,4091.79,0
12_6_36,56,4132.82,4182.56,4093.33,4153.33,4120.51,4080.51,4140.51,4097.44,4172.31,4372.31,4316.92,4172.82,4249.23,4090.77,0
12_6_36,57,4139.49,4186.67,4093.85,4154.87,4121.03,4084.1,4138.97,4097.95,4169.74,4373.33,4318.46,4173.33,4248.72,4091.79,0
12_6_36,58,4138.46,4189.23,4093.85,4154.36,4121.54,4080,4139.49,4098.46,4167.69,4373.85,4316.92,4177.44,4247.69,4096.41,0
12_6_36,59,4132.31,4184.1,4094.36,4155.9,4119.49,4078.46,4137.44,4098.97,4172.82,4376.41,4318.97,4183.59,4252.31,4100.51,0
12_6_36,60,4124.62,4171.79,4091.79,4152.82,4111.28,4078.46,4134.36,4098.46,4166.15,4365.13,4315.9,4172.31,4248.21,4092.82,0
12_6_36,61,4117.95,4167.18,4089.23,4142.56,4107.69,4078.46,4135.9,4098.97,4152.31,4344.1,4299.49,4153.85,4234.36,4083.59,0
12_6_36,62,4120,4177.44,4094.36,4143.08,4117.95,4083.08,4140.51,4098.46,4152.82,4338.97,4291.28,4158.46,4231.28,4087.69,0
12_6_36,63,4125.64,4184.1,4099.49,4154.36,4126.67,4085.13,4141.54,4097.44,4158.46,4343.08,4297.44,4172.82,4231.28,4092.82,0
12_6_36,64,4125.64,4177.44,4094.87,4155.9,4120.51,4078.97,4137.44,4097.95,4154.36,4334.36,4299.49,4168.21,4222.05,4090.26,0
12_6_36,65,4122.05,4168.72,4090.26,4149.23,4113.33,4075.38,4135.9,4100,4154.87,4330.77,4294.36,4162.05,4221.54,4089.74,0
12_6_36,66,4122.56,4168.21,4094.36,4148.21,4111.28,4080,4138.46,4099.49,4167.18,4347.18,4295.38,4164.62,4233.33,4091.79,0
12_6_36,67,4126.67,4170.77,4097.44,4148.21,4111.79,4082.56,4141.54,4097.95,4170.77,4356.41,4302.05,4161.03,4232.31,4091.79,0
12_6_36,68,4117.44,4162.05,4091.28,4138.97,4108.72,4075.38,4138.97,4099.49,4157.95,4345.13,4295.38,4151.28,4217.95,4082.56,0
12_6_36,69,4110.77,4156.41,4090.26,4133.33,4107.18,4076.41,4135.38,4097.95,4149.23,4335.9,4284.1,4148.21,4211.28,4076.92,0
12_6_36,70,4127.69,4166.67,4099.49,4143.08,4116.92,4087.69,4137.95,4096.92,4159.49,4338.97,4292.82,4155.38,4222.56,4090.77,0
12_6_36,71,4137.44,4173.85,4104.1,4155.9,4121.54,4092.82,4142.05,4102.56,4168.72,4338.97,4302.05,4159.49,4231.79,4098.97,0
12_6_36,72,4125.64,4169.23,4097.95,4152.82,4112.82,4089.23,4143.59,4105.13,4168.72,4333.85,4292.31,4155.38,4223.59,4090.77,0
12_6_36,73,4120.51,4169.23,4094.87,4150.26,4114.36,4089.23,4142.05,4100.51,4167.69,4333.33,4286.67,4153.33,4214.36,4088.21,0
12_6_36,74,4125.13,4171.79,4096.92,4152.31,4123.59,4094.87,4141.54,4099.49,4168.72,4332.31,4293.33,4157.95,4213.85,4091.79,0
12_6_36,75,4123.08,4169.74,4096.92,4143.59,4117.95,4097.95,4142.56,4100.51,4173.33,4336.92,4297.95,4160.51,4216.41,4092.31,0
12_6_36,76,4123.08,4169.74,4095.9,4142.05,4109.74,4097.44,4141.54,4097.95,4170.77,4342.05,4294.87,4158.97,4218.97,4092.31,0
12_6_36,77,4123.08,4163.08,4094.87,4148.72,4116.41,4093.33,4137.44,4096.92,4158.46,4330.26,4284.1,4152.82,4214.87,4086.15,0
12_6_36,78,4119.49,4151.79,4096.41,4144.1,4115.9,4085.64,4135.38,4098.46,4152.31,4318.97,4275.9,4147.69,4203.08,4080,0
12_6_36,79,4122.56,4156.92,4099.49,4137.44,4106.15,4082.56,4136.41,4097.95,4157.44,4324.62,4279.49,4151.28,4201.03,4088.21,0
12_6_36,80,4125.13,4166.15,4098.97,4141.54,4109.23,4087.18,4137.95,4096.92,4156.41,4326.15,4281.54,4154.87,4209.74,4093.33,0
12_6_36,81,4120,4157.44,4094.87,4145.13,4120.51,4094.87,4139.49,4098.46,4155.38,4318.46,4277.95,4153.33,4213.33,4087.18,0
12_6_36,82,4124.62,4152.31,4095.9,4149.74,4123.59,4094.36,4140.51,4098.97,4163.08,4317.95,4277.95,4151.79,4214.36,4091.79,0
12_6_36,83,4137.95,4169.23,4100.51,4156.41,4119.49,4091.28,4139.49,4099.49,4167.69,4318.46,4279.49,4155.38,4221.03,4102.05,0
12_6_36,84,4133.33,4169.74,4097.44,4151.79,4117.95,4092.82,4138.46,4100,4161.03,4311.79,4274.87,4154.36,4220.51,4098.46,0
12_6_36,85,4125.64,4153.85,4094.87,4146.67,4120,4093.85,4137.95,4098.97,4151.79,4310.26,4271.79,4152.82,4217.95,4095.38,0
12_6_36,86,4136.92,4169.74,4104.62,4160.51,4127.18,4094.36,4138.46,4098.97,4163.08,4325.13,4278.97,4163.08,4228.72,4105.64,0
12_6_36,87,4142.05,4188.21,4109.23,4171.28,4129.23,4095.9,4137.44,4099.49,4173.33,4332.31,4282.05,4165.13,4236.41,4109.74,0
12_6_36,88,4134.36,4174.36,4100.51,4157.44,4123.08,4097.44,4135.9,4099.49,4158.46,4315.9,4278.46,4153.85,4230.77,4103.59,0
12_6_36,89,4134.87,4168.72,4097.95,4151.79,4122.56,4098.97,4138.97,4099.49,4150.26,4308.21,4283.08,4154.87,4229.74,4106.67,0
12_6_36,90,4133.85,4175.38,4101.03,4158.46,4121.54,4094.36,4135.38,4099.49,4157.95,4314.36,4280.51,4157.95,4229.74,4108.21,0
12_6_36,91,4118.97,4157.44,4094.36,4143.59,4109.74,4083.59,4123.59,4099.49,4154.87,4302.56,4261.54,4140.51,4211.28,4092.31,0
12_6_36,92,4116.41,4143.08,4090.77,4134.87,4106.67,4082.05,4121.03,4099.49,4148.72,4292.82,4256.92,4132.31,4202.56,4084.62,0
12_6_36,93,4127.18,4162.56,4098.46,4154.87,4119.49,4092.82,4130.77,4101.03,4155.9,4305.64,4265.13,4147.18,4214.36,4097.95,0
12_6_36,94,4128.21,4173.33,4101.54,4161.03,4126.15,4098.97,4135.9,4101.03,4160.51,4313.33,4265.64,4153.33,4221.03,4105.64,0
12_6_36,95,4127.18,4169.74,4098.46,4150.77,4124.62,4101.03,4135.9,4098.97,4158.97,4309.23,4270.26,4153.33,4222.56,4106.15,0
12_6_36,96,4130.26,4171.79,4098.46,4154.87,4126.67,4106.67,4137.95,4096.92,4157.44,4305.13,4272.82,4155.38,4223.59,4106.67,0
12_6_36,97,4124.62,4167.69,4098.97,4158.46,4127.18,4111.79,4138.46,4097.44,4158.97,4300.51,4261.54,4145.64,4217.95,4098.97,0
12_6_36,98,4120,4163.59,4096.92,4150.77,4123.59,4111.28,4136.92,4097.95,4169.23,4303.08,4256.92,4141.54,4215.9,4097.44,0
12_6_36,107,4139.49,4171.79,4106.67,4157.95,4128.72,4108.72,4138.46,4100.51,4172.82,4314.36,4262.05,4155.38,4233.85,4115.9,0
12_6_36,108,4142.05,4175.9,4107.18,4157.95,4135.38,4112.31,4139.49,4097.44,4168.21,4304.62,4260.51,4153.85,4233.85,4116.41,0
12_6_36,109,4139.49,4169.23,4104.62,4157.44,4132.31,4105.64,4127.69,4096.92,4172.31,4297.44,4249.23,4140,4224.1,4108.21,0
12_6_37,110,4133.33,4170.77,4102.56,4158.97,4131.79,4104.1,4123.08,4098.46,4173.85,4292.31,4242.56,4136.41,4214.87,4103.59,0
12_6_37,111,4128.72,4173.33,4099.49,4157.44,4130.26,4108.21,4130.77,4098.97,4163.08,4283.59,4244.1,4136.92,4211.79,4098.46,0
12_6_37,112,4122.56,4163.08,4098.46,4151.79,4121.54,4106.67,4136.41,4098.46,4156.92,4277.95,4245.64,4133.33,4210.26,4091.79,0
12_6_37,113,4124.62,4159.49,4102.56,4150.77,4122.05,4104.1,4136.41,4097.44,4165.13,4284.1,4248.72,4135.9,4217.44,4095.38,0
12_6_37,114,4133.33,4169.74,4106.67,4156.41,4129.74,4111.28,4135.9,4100,4171.28,4295.38,4257.44,4141.03,4237.95,4105.64,0
12_6_37,115,4133.33,4174.87,4104.1,4158.46,4132.31,4121.03,4139.49,4102.56,4168.72,4300,4259.49,4142.05,4263.08,4110.77,0
12_6_37,116,4124.62,4168.72,4100,4152.82,4132.31,4118.46,4143.08,4099.49,4172.31,4296.92,4251.79,4139.49,4276.41,4107.18,0
12_6_37,117,4124.1,4166.15,4099.49,4149.74,4129.23,4108.21,4136.41,4096.92,4167.69,4287.18,4242.56,4135.9,4276.92,4100,0
12_6_37,118,4132.82,4169.23,4100.51,4151.79,4127.69,4105.13,4129.23,4098.97,4154.87,4277.95,4235.9,4136.41,4278.97,4101.54,0
12_6_37,119,4140,4169.23,4100,4153.85,4126.15,4110.77,4134.87,4100.51,4161.54,4280,4245.13,4140.51,4293.85,4109.23,0
12_6_37,120,4136.41,4166.67,4100,4152.82,4122.56,4113.33,4137.44,4099.49,4169.23,4286.15,4263.08,4142.05,4305.13,4108.21,0
12_6_37,121,4126.15,4167.69,4098.97,4151.79,4122.56,4108.72,4126.67,4098.46,4162.05,4289.23,4264.62,4140.51,4303.59,4103.08,0
12_6_37,122,4123.59,4170.77,4096.41,4149.74,4123.59,4104.62,4120.51,4097.44,4163.59,4296.92,4267.18,4149.23,4305.13,4107.18,0
12_6_37,123,4125.64,4163.08,4094.87,4141.03,4121.03,4106.15,4124.62,4098.46,4171.28,4300,4274.36,4151.28,4307.18,4107.18,0
12_6_37,124,4122.56,4153.33,4095.9,4133.33,4119.49,4108.72,4126.67,4098.97,4169.23,4287.69,4272.82,4141.54,4295.38,4102.05,0
12_6_37,125,4122.56,4161.54,4097.44,4135.38,4120.51,4109.23,4127.18,4098.46,4164.62,4280,4275.38,4146.15,4282.56,4103.59,0
12_6_37,126,4124.1,4169.74,4098.97,4138.97,4121.54,4105.64,4124.62,4097.95,4158.97,4280.51,4273.33,4155.9,4281.03,4101.54,0
12_6_37,127,4117.95,4156.41,4097.44,4136.41,4122.56,4104.62,4121.03,4099.49,4150.77,4271.28,4251.79,4143.59,4275.38,4089.74,0
12_6_37,128,4114.87,4144.62,4094.87,4135.9,4122.05,4108.72,4127.69,4100.51,4152.82,4258.97,4238.97,4132.31,4262.56,4085.64,0
12_6_37,0,4122.56,4157.44,4097.44,4140,4122.05,4109.74,4134.36,4098.46,4166.15,4269.74,4246.67,4147.18,4261.54,4097.44,0
12_6_37,1,4127.18,4171.28,4100.51,4139.49,4124.62,4111.79,4130.77,4097.44,4173.33,4283.59,4250.26,4156.92,4268.72,4105.13,0
12_6_37,2,4125.64,4171.79,4101.54,4138.97,4127.18,4117.44,4131.28,4101.03,4168.21,4280.51,4254.36,4151.28,4267.69,4104.1,0
12_6_37,3,4124.62,4169.23,4101.03,4140,4127.18,4122.56,4138.46,4101.03,4168.21,4279.49,4263.08,4152.82,4264.62,4103.08,0
12_6_37,4,4121.03,4158.97,4098.97,4131.79,4123.08,4122.56,4137.95,4098.46,4172.31,4280,4257.44,4154.36,4268.21,4101.54,0
12_6_37,5,4118.46,4150.77,4098.97,4126.67,4120.51,4117.44,4128.72,4101.54,4163.08,4273.85,4248.72,4147.18,4266.15,4097.95,0
12_6_37,6,4120,4157.95,4101.03,4134.36,4123.59,4111.79,4122.56,4105.64,4152.31,4260,4244.1,4142.05,4251.79,4093.85,0
12_6_37,7,4118.46,4162.56,4099.49,4136.92,4125.13,4108.72,4120.51,4102.56,4157.95,4251.79,4236.92,4141.54,4241.03,4091.28,0
12_6_37,8,4117.95,4152.31,4098.46,4126.15,4121.03,4108.72,4122.56,4097.95,4160.51,4252.31,4229.74,4140.51,4239.49,4089.23,0
12_6_37,9,4118.97,4147.18,4098.97,4121.03,4117.44,4108.21,4124.1,4098.46,4154.36,4250.77,4230.26,4140.51,4235.9,4091.28,0
12_6_37,10,4116.41,4153.33,4099.49,4131.28,4118.97,4105.64,4121.54,4101.03,4152.31,4245.13,4224.1,4141.54,4226.15,4093.85,0
12_6_37,11,4111.79,4155.9,4098.46,4135.38,4121.54,4104.62,4117.95,4102.05,4147.69,4243.08,4205.13,4138.97,4217.44,4087.69,0
12_6_37,12,4110.77,4152.82,4096.92,4128.21,4121.03,4105.64,4120,4102.05,4143.08,4242.05,4195.38,4136.92,4207.69,4080.51,0
12_6_37,13,4114.87,4151.28,4097.44,4128.21,4119.49,4106.15,4122.56,4101.03,4148.21,4239.49,4204.1,4137.44,4198.97,4083.59,0
12_6_37,14,4123.08,4157.95,4101.03,4136.41,4120.51,4106.15,4122.05,4102.05,4154.36,4244.62,4218.97,4141.54,4208.21,4091.79,0
12_6_37,15,4122.05,4161.03,4100,4136.41,4123.59,4108.21,4121.54,4103.08,4151.79,4249.23,4221.54,4144.62,4216.92,4092.31,0
12_6_37,16,4110.26,4154.36,4098.46,4133.85,4124.1,4108.21,4125.13,4101.03,4154.36,4249.74,4213.85,4140.51,4207.69,4090.26,0
12_6_37,17,4112.82,4153.85,4100,4134.87,4125.13,4108.72,4124.62,4100.51,4156.92,4253.33,4213.33,4137.95,4202.56,4088.21,0
12_6_37,18,4118.97,4155.9,4098.46,4127.18,4124.62,4107.18,4115.38,4101.54,4145.13,4247.18,4213.85,4135.38,4205.13,4085.13,0
12_6_37,19,4111.28,4151.79,4096.41,4126.15,4122.05,4106.15,4112.31,4098.97,4133.85,4229.23,4206.15,4128.72,4198.46,4086.15,0
12_6_37,20,4110.26,4159.49,4102.05,4135.9,4124.1,4112.82,4120,4097.44,4139.49,4229.23,4203.08,4131.79,4197.44,4090.26,0
12_6_37,21,4119.49,4168.21,4103.08,4137.95,4126.67,4115.38,4123.59,4100,4144.62,4241.54,4203.08,4136.41,4203.59,4091.28,0
12_6_37,22,4120.51,4162.56,4097.44,4132.82,4123.08,4109.23,4114.36,4098.97,4141.03,4236.41,4200,4130.77,4193.85,4090.77,0
12_6_37,23,4118.97,4157.44,4100,4133.33,4121.03,4107.18,4108.72,4097.44,4141.54,4228.21,4204.1,4131.79,4185.64,4093.85,0
12_6_37,24,4120.51,4157.95,4103.08,4136.92,4123.59,4108.72,4113.85,4102.05,4146.67,4232.82,4209.23,4141.03,4191.28,4095.38,0
12_6_37,25,4113.85,4154.36,4100,4134.87,4122.05,4105.13,4115.38,4105.13,4150.26,4234.87,4206.67,4138.97,4189.74,4092.31,0
12_6_37,26,4106.67,4153.33,4097.44,4126.15,4118.97,4104.1,4109.74,4103.08,4147.69,4232.82,4203.59,4128.72,4183.08,4091.28,0
12_6_37,27,4110.77,4153.33,4098.97,4120.51,4121.03,4105.13,4108.72,4098.97,4145.13,4229.74,4201.54,4120.51,4182.56,4087.69,0
12_6_37,28,4120,4148.21,4102.05,4128.72,4122.05,4101.54,4116.41,4096.92,4152.31,4230.26,4210.26,4126.15,4184.1,4091.79,0
12_6_37,29,4126.67,4154.87,4107.69,4139.49,4120.51,4102.56,4118.97,4098.46,4156.41,4237.95,4227.18,4147.69,4191.79,4109.23,0
12_6_37,30,4126.67,4165.13,4109.23,4137.95,4119.49,4106.67,4117.44,4102.05,4154.87,4241.03,4226.67,4152.31,4197.44,4114.87,0
12_6_37,31,4125.13,4157.95,4104.62,4131.28,4119.49,4105.64,4119.49,4101.54,4152.82,4231.79,4214.87,4141.03,4188.72,4106.15,0
12_6_37,32,4124.1,4146.15,4100,4127.69,4120.51,4104.62,4119.49,4098.46,4151.79,4225.13,4209.74,4138.97,4177.44,4102.05,0
12_6_37,33,4115.38,4138.97,4099.49,4122.56,4121.03,4104.62,4116.92,4097.95,4148.72,4218.97,4203.59,4134.36,4172.31,4097.44,0
12_6_37,34,4111.28,4138.97,4099.49,4120,4118.97,4106.15,4120,4100,4147.69,4213.33,4201.54,4129.23,4170.77,4092.31,0
12_6_37,35,4120,4149.23,4100.51,4126.15,4120,4110.26,4124.62,4100,4148.21,4225.13,4206.67,4136.92,4173.85,4096.41,0
12_6_37,36,4122.56,4150.26,4102.56,4128.72,4122.05,4110.77,4121.54,4096.92,4148.21,4231.79,4204.1,4142.05,4170.26,4097.95,0
12_6_37,37,4112.31,4140,4101.03,4123.59,4117.44,4107.18,4119.49,4097.44,4153.33,4222.56,4197.95,4138.46,4157.95,4092.82,0
12_6_37,38,4105.13,4131.79,4097.95,4119.49,4108.72,4106.15,4118.46,4101.03,4161.03,4223.08,4191.79,4137.44,4153.33,4090.77,0
12_6_37,39,4106.15,4127.18,4098.46,4116.92,4106.67,4100.51,4115.9,4100.51,4149.74,4223.59,4185.64,4138.97,4150.77,4089.74,0
12_6_37,40,4107.18,4126.15,4102.56,4116.92,4108.72,4093.33,4116.41,4100,4129.74,4207.18,4184.62,4136.41,4144.1,4092.31,0
12_6_37,41,4106.67,4128.21,4102.56,4121.54,4106.67,4097.44,4120.51,4101.54,4125.64,4196.41,4183.08,4130.26,4137.95,4093.85,0
12_6_37,42,4104.1,4130.26,4101.03,4124.1,4105.13,4107.18,4120.51,4100,4138.97,4204.62,4182.56,4127.18,4139.49,4089.74,0
12_6_37,43,4109.74,4134.87,4103.08,4123.08,4114.36,4108.72,4120,4096.92,4152.82,4217.95,4188.72,4135.38,4150.26,4090.77,0
12_6_37,44,4122.05,4142.56,4107.18,4124.62,4123.59,4107.69,4123.59,4099.49,4156.41,4226.67,4192.82,4143.08,4159.49,4100.51,0
12_6_37,45,4120.51,4142.56,4104.62,4125.64,4116.92,4106.15,4120.51,4101.03,4146.15,4217.44,4185.64,4135.38,4152.31,4102.56,0
12_6_37,46,4106.15,4129.23,4097.95,4116.41,4104.1,4099.49,4110.26,4100,4135.38,4199.49,4174.87,4123.59,4132.31,4089.23,0
12_6_37,47,4101.54,4119.49,4096.92,4107.69,4104.62,4092.31,4106.67,4102.56,4137.95,4197.95,4170.26,4121.03,4123.08,4082.56,0
12_6_37,48,4105.64,4127.18,4100,4113.85,4110.77,4097.44,4110.26,4102.05,4137.95,4202.56,4169.23,4122.56,4124.1,4086.67,0
12_6_37,49,4106.67,4136.92,4099.49,4124.1,4111.79,4108.72,4117.95,4097.95,4141.03,4202.05,4173.33,4120.51,4127.18,4089.74,0
12_6_37,50,4107.69,4137.44,4101.03,4124.62,4115.38,4110.77,4122.05,4096.92,4155.9,4209.23,4183.59,4122.56,4134.87,4093.33,0
12_6_37,51,4112.31,4141.54,4103.08,4124.1,4124.62,4107.69,4116.41,4098.97,4157.95,4220,4187.18,4130.26,4141.03,4097.95,0
12_6_37,52,4109.74,4138.46,4101.03,4123.08,4120,4107.18,4109.23,4097.95,4146.15,4213.33,4178.97,4126.67,4132.82,4092.82,0
12_6_37,53,4103.59,4128.72,4097.95,4122.05,4105.64,4106.15,4110.77,4096.41,4138.46,4200,4173.33,4117.44,4119.49,4085.13,0
12_6_37,54,4106.15,4134.87,4098.97,4123.08,4110.26,4106.15,4111.28,4098.46,4137.44,4198.46,4173.33,4120,4121.54,4087.69,0
12_6_37,55,4110.26,4138.97,4100.51,4123.08,4119.49,4106.67,4108.72,4100,4137.44,4198.97,4169.74,4121.03,4125.13,4091.28,0
12_6_37,56,4101.03,4124.62,4096.92,4120.51,4111.79,4101.03,4106.67,4098.46,4135.9,4189.23,4160,4110.26,4112.31,4082.05,0
12_6_37,57,4091.79,4116.41,4092.31,4118.46,4106.67,4090.77,4101.03,4097.95,4135.38,4180,4151.28,4101.03,4097.44,4070.26,0
12_6_37,58,4100,4126.67,4095.9,4117.95,4112.82,4096.41,4102.05,4098.97,4136.41,4183.08,4156.92,4104.62,4112.82,4074.87,0
12_6_37,59,4108.21,4134.36,4101.54,4119.49,4111.28,4106.67,4108.72,4098.46,4137.44,4185.64,4168.72,4108.21,4136.41,4087.69,0
12_6_37,60,4102.05,4131.79,4098.97,4121.03,4105.64,4098.97,4103.08,4101.03,4136.92,4183.08,4171.79,4106.15,4128.72,4087.18,0
12_6_37,61,4092.82,4127.18,4096.41,4122.05,4107.18,4093.85,4093.85,4105.13,4135.9,4184.1,4165.13,4098.46,4108.72,4074.87,0
12_6_37,62,4094.36,4124.62,4097.44,4121.03,4109.23,4106.15,4101.03,4102.56,4130.77,4185.13,4158.97,4091.79,4105.13,4071.28,0
12_6_37,63,4102.05,4123.59,4097.95,4120.51,4108.72,4110.77,4109.74,4097.44,4127.69,4182.56,4158.97,4098.97,4107.69,4075.9,0
12_6_37,64,4104.1,4124.62,4097.95,4122.56,4109.74,4105.13,4106.15,4097.44,4135.9,4185.13,4167.18,4109.23,4109.74,4078.97,0
12_6_37,65,4095.38,4121.54,4095.9,4115.9,4108.72,4105.13,4103.59,4100.51,4138.46,4185.64,4167.69,4102.05,4109.23,4076.41,0
12_6_37,66,4092.31,4118.46,4094.36,4106.15,4104.62,4106.67,4105.64,4101.03,4131.28,4181.03,4153.33,4092.31,4104.62,4072.82,0
12_6_37,67,4102.05,4125.13,4097.44,4114.36,4108.21,4108.72,4107.18,4098.46,4132.82,4182.56,4156.41,4101.03,4106.67,4077.95,0
12_6_37,68,4101.54,4127.18,4099.49,4121.03,4118.97,4113.33,4107.18,4097.44,4138.46,4183.08,4166.67,4104.62,4108.72,4080.51,0
12_6_37,69,4093.85,4125.64,4098.46,4114.36,4122.56,4110.77,4107.69,4100.51,4135.9,4176.92,4156.92,4092.82,4100.51,4070.77,0
12_6_37,70,4101.54,4133.85,4097.95,4116.92,4118.97,4109.74,4107.69,4102.56,4136.41,4181.03,4156.41,4094.36,4100.51,4074.36,0
12_6_37,71,4108.72,4131.79,4102.05,4124.1,4117.44,4116.41,4106.67,4101.54,4139.49,4187.69,4170.26,4107.18,4115.9,4090.77,0
12_6_37,72,4104.1,4119.49,4105.13,4122.05,4120.51,4122.05,4108.21,4101.54,4135.9,4180.51,4164.1,4107.18,4119.49,4090.77,0
12_6_37,73,4104.62,4128.72,4102.05,4122.56,4118.97,4122.56,4112.82,4102.05,4134.87,4176.92,4153.33,4103.59,4106.15,4085.13,0
12_6_37,74,4111.28,4137.44,4100,4125.64,4117.95,4118.97,4111.28,4101.54,4141.54,4184.62,4166.15,4108.21,4104.62,4092.31,0
12_6_37,75,4111.28,4126.67,4104.1,4122.56,4121.03,4116.92,4104.62,4102.05,4142.05,4189.23,4175.9,4109.74,4110.77,4096.41,0
12_6_37,76,4105.64,4123.59,4103.08,4119.49,4121.54,4120.51,4105.13,4102.05,4134.36,4180,4166.15,4105.64,4097.44,4091.28,0
12_6_37,77,4098.97,4127.18,4098.46,4119.49,4117.95,4124.62,4111.28,4101.03,4133.85,4169.74,4156.41,4101.54,4080.51,4088.21,0
12_6_37,78,4099.49,4125.64,4100,4122.56,4120.51,4122.05,4110.26,4102.56,4138.97,4175.9,4159.49,4101.03,4085.13,4089.23,0
12_6_37,79,4104.1,4125.13,4101.54,4124.1,4125.13,4117.44,4106.67,4104.62,4143.08,4188.21,4168.72,4105.64,4094.87,4091.28,0
12_6_37,80,4104.1,4126.67,4102.05,4120.51,4121.03,4118.46,4108.21,4102.05,4141.54,4188.21,4170.26,4108.21,4093.85,4092.31,0
12_6_37,81,4104.1,4126.15,4101.54,4117.95,4117.95,4121.03,4110.77,4097.44,4135.38,4180,4166.15,4106.15,4092.31,4095.38,0
12_6_37,81,4104.1,4126.15,4101.54,4117.95,4117.95,4121.03,4110.77,4097.44,4135.38,4180,4166.15,4106.15,4092.31,4095.38,0
12_6_37,82,4107.18,4127.69,4103.08,4120,4121.03,4120.51,4107.18,4097.44,4144.62,4184.1,4168.21,4107.18,4096.92,4105.64,0
12_6_37,83,4109.23,4130.77,4102.56,4122.56,4122.56,4118.46,4105.64,4097.95,4157.44,4193.33,4175.9,4109.23,4106.67,4110.26,0
12_6_37,84,4106.67,4126.15,4097.95,4120,4121.54,4116.92,4105.64,4096.92,4138.46,4185.64,4170.26,4103.59,4112.31,4101.03,0
12_6_37,85,4094.87,4113.33,4094.36,4113.85,4116.41,4111.79,4103.59,4099.49,4116.92,4166.15,4145.64,4091.28,4100,4085.64,0
12_6_37,86,4088.72,4113.85,4095.38,4111.28,4113.33,4110.77,4103.59,4105.13,4133.85,4162.05,4133.85,4086.67,4087.69,4078.97,0
12_6_37,87,4094.87,4121.54,4096.41,4109.74,4120,4118.97,4108.72,4103.59,4142.56,4169.74,4143.59,4092.31,4094.87,4084.62,0
12_6_37,88,4094.87,4110.77,4096.41,4105.64,4121.54,4126.67,4111.28,4100,4122.05,4162.05,4142.56,4092.31,4101.54,4083.08,0
12_6_37,89,4089.74,4107.69,4096.92,4110.26,4111.28,4125.64,4110.77,4101.54,4122.05,4155.9,4140.51,4087.69,4100,4077.44,0
12_6_37,90,4094.36,4121.54,4097.95,4118.97,4109.74,4116.92,4109.23,4102.05,4140,4166.15,4148.21,4093.85,4104.62,4083.59,0
12_6_37,91,4104.62,4126.67,4101.03,4120.51,4120,4113.33,4107.18,4097.95,4140.51,4175.9,4152.82,4107.18,4119.49,4091.79,0
12_6_37,92,4109.23,4125.13,4102.05,4123.08,4122.05,4120,4107.69,4096.41,4135.9,4175.38,4152.31,4110.77,4135.9,4093.85,0
12_6_37,93,4102.05,4125.64,4098.46,4122.05,4117.44,4122.56,4110.26,4100,4138.46,4171.28,4149.23,4104.62,4139.49,4090.26,0
12_6_37,94,4098.97,4121.03,4097.95,4114.36,4125.13,4120.51,4110.77,4101.54,4136.41,4169.23,4145.64,4104.62,4131.28,4089.74,0
12_6_37,95,4110.26,4124.1,4101.03,4121.03,4136.41,4126.15,4112.82,4098.97,4138.97,4175.38,4150.77,4111.28,4133.33,4099.49,0
12_6_37,96,4117.95,4138.97,4103.59,4138.97,4133.85,4130.77,4115.9,4097.95,4146.67,4181.54,4160,4112.31,4140,4109.23,0
12_6_37,97,4109.74,4139.49,4102.56,4135.9,4124.62,4124.62,4114.36,4099.49,4142.05,4175.38,4157.95,4109.23,4129.74,4101.54,0
12_6_37,98,4104.1,4129.23,4097.95,4123.59,4122.05,4121.03,4109.23,4097.95,4134.87,4169.23,4148.72,4103.08,4121.54,4091.28,0
12_6_37,99,4107.18,4130.26,4097.95,4122.56,4126.15,4130.26,4108.72,4098.46,4136.92,4170.77,4141.54,4097.95,4125.13,4091.28,0
12_6_37,100,4108.72,4135.9,4098.97,4124.62,4129.23,4139.49,4112.82,4101.54,4138.97,4170.77,4141.54,4097.44,4118.46,4092.82,0
12_6_37,101,4107.18,4127.69,4095.38,4118.46,4124.62,4133.33,4112.82,4100.51,4135.9,4167.69,4138.46,4096.92,4102.56,4090.77,0
12_6_37,102,4104.1,4115.38,4090.77,4109.74,4119.49,4124.1,4107.18,4101.54,4131.79,4166.67,4137.44,4092.82,4103.08,4089.23,0
12_6_37,103,4104.1,4125.13,4095.38,4113.33,4123.59,4126.15,4107.18,4102.05,4137.44,4170.77,4147.69,4093.33,4124.1,4092.82,0
12_6_37,104,4109.23,4143.08,4098.46,4125.13,4128.21,4129.23,4113.33,4098.97,4145.13,4174.36,4147.69,4097.44,4138.97,4095.38,0
12_6_37,105,4110.26,4140.51,4095.9,4125.64,4123.08,4122.56,4112.82,4097.44,4138.46,4170.26,4134.36,4094.36,4137.44,4092.31,0
12_6_37,106,4106.15,4131.79,4095.9,4116.92,4120.51,4119.49,4108.72,4098.97,4131.79,4165.13,4135.9,4095.38,4143.08,4097.44,0
12_6_37,107,4112.31,4134.36,4096.92,4118.97,4127.18,4130.26,4110.77,4099.49,4133.85,4166.15,4146.67,4102.56,4165.13,4107.69,0
12_6_38,108,4123.59,4141.03,4097.44,4125.64,4131.79,4138.97,4113.85,4098.46,4135.38,4171.79,4152.82,4107.69,4189.23,4110.77,0
12_6_38,109,4117.95,4137.44,4097.44,4115.9,4125.13,4129.74,4109.74,4097.95,4133.33,4171.28,4155.38,4104.1,4203.08,4108.21,0
12_6_38,110,4104.1,4132.31,4093.85,4105.13,4121.54,4122.05,4105.13,4096.92,4137.44,4168.21,4148.21,4093.85,4209.74,4102.05,0
12_6_38,111,4103.08,4136.41,4088.72,4112.82,4126.67,4133.85,4106.15,4098.46,4136.92,4170.26,4141.54,4089.74,4217.95,4094.36,0
12_6_38,112,4108.72,4137.95,4089.23,4123.59,4126.15,4136.92,4107.69,4098.97,4127.69,4169.74,4146.15,4094.87,4220,4092.31,0
12_6_38,113,4105.64,4130.77,4090.26,4115.38,4121.54,4123.08,4106.15,4098.46,4126.15,4168.21,4152.31,4100,4210.77,4092.31,0
12_6_38,114,4098.46,4123.08,4086.67,4104.62,4116.41,4117.44,4105.13,4098.46,4125.13,4164.1,4146.67,4095.9,4205.64,4086.67,0
12_6_38,115,4093.85,4121.54,4083.59,4106.67,4114.87,4122.05,4104.1,4098.46,4121.03,4154.36,4138.97,4093.33,4212.31,4078.97,0
12_6_38,116,4094.36,4122.05,4083.08,4109.23,4119.49,4123.59,4104.62,4098.46,4120,4149.74,4143.59,4099.49,4214.87,4076.41,0
12_6_38,117,4094.36,4122.05,4085.13,4106.15,4122.05,4123.08,4105.64,4098.46,4125.64,4156.41,4147.18,4099.49,4203.59,4077.95,0
12_6_38,118,4092.31,4126.15,4086.15,4104.1,4116.41,4120.51,4098.46,4098.97,4124.62,4160.51,4144.62,4093.85,4187.69,4077.44,0
12_6_38,119,4094.87,4126.67,4084.62,4108.21,4116.92,4121.54,4093.33,4097.95,4115.9,4158.46,4148.21,4098.97,4186.67,4080.51,0
12_6_38,120,4102.56,4123.08,4088.21,4113.85,4124.1,4127.18,4100.51,4097.95,4124.62,4166.15,4155.9,4109.74,4198.97,4093.85,0
12_6_38,121,4106.15,4128.21,4090.26,4112.31,4125.64,4125.13,4104.62,4101.03,4137.95,4177.95,4159.49,4109.74,4204.62,4100.51,0
12_6_38,122,4108.21,4139.49,4091.79,4114.36,4127.18,4124.1,4105.64,4100.51,4130.26,4176.41,4165.13,4109.23,4202.05,4100,0
12_6_38,123,4114.87,4143.08,4092.82,4122.56,4127.18,4126.67,4106.67,4095.9,4116.41,4167.18,4165.64,4112.31,4201.03,4103.59,0
12_6_38,124,4121.03,4144.62,4092.82,4126.15,4125.64,4123.08,4105.64,4095.9,4128.21,4171.79,4160,4115.9,4196.92,4106.15,0
12_6_38,125,4124.1,4152.82,4095.38,4124.1,4134.36,4125.64,4108.72,4098.97,4144.1,4187.18,4166.15,4124.62,4198.97,4110.77,0
12_6_38,126,4125.13,4155.9,4100.51,4126.15,4136.92,4131.79,4112.82,4098.97,4138.97,4190.77,4173.85,4130.77,4208.21,4121.03,0
12_6_38,127,4123.59,4147.69,4097.95,4127.69,4126.67,4126.15,4109.74,4098.46,4131.28,4181.03,4170.26,4124.62,4202.56,4120,0
12_6_38,128,4121.03,4137.95,4091.28,4121.03,4124.1,4120,4104.62,4098.46,4128.72,4170.77,4165.64,4118.46,4179.49,4111.79,0
12_6_38,0,4120,4137.44,4090.77,4115.38,4126.15,4121.03,4101.54,4098.46,4127.69,4168.21,4168.72,4116.92,4168.72,4111.79,0
12_6_38,1,4121.54,4143.08,4092.82,4113.33,4119.49,4116.92,4095.38,4098.97,4127.69,4171.79,4171.79,4116.92,4172.31,4115.38,0
12_6_38,2,4121.54,4141.54,4095.38,4113.33,4116.41,4106.15,4090.77,4098.46,4124.1,4166.67,4168.72,4115.38,4170.77,4116.41,0
12_6_38,3,4121.54,4137.44,4096.92,4116.41,4122.56,4109.23,4095.9,4097.44,4127.69,4164.1,4167.18,4115.38,4167.18,4118.97,0
12_6_38,4,4125.64,4141.54,4097.44,4119.49,4124.1,4121.03,4108.72,4098.46,4141.54,4174.87,4172.31,4121.54,4171.28,4121.03,0
12_6_38,5,4125.13,4144.62,4098.97,4115.9,4120.51,4121.03,4109.23,4099.49,4137.95,4171.79,4168.72,4121.54,4170.26,4122.05,0
12_6_38,6,4118.97,4134.36,4099.49,4109.74,4119.49,4110.26,4098.97,4098.97,4121.03,4153.33,4153.85,4110.77,4158.97,4119.49,0
12_6_38,7,4118.46,4122.05,4098.97,4110.77,4120.51,4108.72,4100,4098.97,4121.03,4152.82,4149.74,4105.64,4154.36,4116.92,0
12_6_38,8,4122.56,4127.69,4102.56,4118.97,4120,4114.87,4104.1,4098.97,4127.18,4164.62,4154.36,4114.36,4161.54,4118.97,0
12_6_38,9,4123.08,4138.97,4104.62,4119.49,4120.51,4113.33,4098.97,4098.46,4131.28,4169.23,4157.44,4122.56,4167.18,4123.08,0
12_6_38,10,4124.1,4140.51,4101.54,4117.95,4123.59,4108.21,4095.38,4099.49,4137.44,4173.33,4157.44,4125.13,4168.72,4124.1,0
12_6_38,11,4118.46,4135.38,4097.95,4120,4123.08,4110.26,4099.49,4100,4129.74,4170.26,4155.38,4122.56,4166.67,4120,0
12_6_38,12,4106.67,4130.77,4095.38,4118.46,4118.46,4116.41,4104.62,4098.46,4112.31,4151.28,4149.23,4115.9,4159.49,4110.77,0
12_6_38,13,4110.26,4131.28,4095.38,4116.92,4118.97,4120.51,4105.64,4097.95,4123.08,4148.21,4150.26,4117.44,4153.85,4107.69,0
12_6_38,14,4122.05,4135.9,4101.03,4122.05,4125.13,4121.03,4104.1,4098.46,4141.03,4161.54,4152.82,4124.62,4154.87,4111.79,0
12_6_38,15,4123.08,4136.41,4102.56,4123.59,4126.67,4121.03,4105.13,4100,4127.18,4161.03,4142.56,4125.64,4155.9,4110.77,0
12_6_38,16,4121.54,4134.87,4101.03,4120,4124.1,4120,4106.67,4099.49,4117.44,4150.77,4133.85,4122.56,4153.33,4108.21,0
12_6_38,17,4124.62,4138.97,4105.13,4122.56,4126.15,4122.56,4105.64,4098.46,4134.36,4152.31,4140.51,4124.62,4155.38,4111.28,0
12_6_38,18,4124.1,4138.46,4105.13,4124.1,4128.21,4122.05,4108.72,4097.95,4143.08,4162.56,4147.18,4125.64,4157.95,4111.79,0
12_6_38,19,4123.59,4133.85,4100.51,4121.54,4123.59,4119.49,4110.77,4099.49,4131.79,4163.08,4144.1,4123.59,4155.9,4108.72,0
12_6_38,20,4125.64,4135.9,4103.08,4123.59,4121.54,4121.03,4107.69,4100,4123.08,4156.41,4143.08,4125.13,4155.9,4112.31,0
12_6_38,21,4124.62,4137.44,4105.64,4125.13,4125.13,4115.38,4104.62,4097.44,4118.46,4151.79,4142.05,4124.62,4156.41,4116.92,0
12_6_38,22,4121.03,4132.82,4102.56,4121.03,4125.13,4106.15,4106.15,4097.44,4126.67,4152.82,4137.44,4123.08,4147.18,4110.77,0
12_6_38,23,4117.44,4124.62,4103.59,4113.33,4122.56,4114.36,4111.28,4100,4139.49,4156.92,4136.41,4117.95,4137.95,4104.62,0
12_6_38,24,4121.03,4124.62,4105.13,4110.77,4123.08,4121.54,4110.26,4100,4127.18,4152.31,4132.31,4113.85,4139.49,4107.18,0
12_6_38,25,4122.56,4128.21,4103.08,4110.77,4122.05,4108.21,4105.13,4098.46,4112.82,4142.05,4125.64,4113.33,4141.54,4109.74,0
12_6_38,26,4115.38,4122.56,4101.54,4105.13,4119.49,4100,4103.08,4098.46,4121.54,4136.92,4123.59,4110.26,4136.41,4106.67,0
12_6_38,27,4114.87,4116.41,4105.64,4103.59,4120,4113.33,4106.15,4098.46,4127.18,4141.03,4123.59,4106.15,4134.36,4104.1,0
12_6_38,28,4125.64,4126.15,4108.21,4115.9,4123.59,4124.1,4108.21,4098.46,4118.46,4143.08,4128.72,4109.23,4138.97,4108.21,0
12_6_38,29,4126.67,4134.87,4105.13,4120.51,4126.15,4121.03,4109.23,4097.95,4127.69,4140,4138.97,4112.31,4140.51,4112.82,0
12_6_38,30,4115.9,4126.67,4100,4111.28,4125.13,4118.46,4110.26,4098.46,4139.49,4140,4136.92,4109.23,4137.95,4108.72,0
12_6_38,31,4110.26,4117.95,4100.51,4106.67,4121.03,4118.46,4108.72,4099.49,4123.08,4133.85,4124.1,4107.18,4133.33,4101.54,0
12_6_38,32,4107.69,4111.79,4099.49,4107.18,4118.97,4113.33,4105.64,4099.49,4109.23,4122.05,4120.51,4100.51,4122.05,4096.41,0
12_6_38,33,4104.62,4108.21,4097.44,4104.62,4118.97,4106.15,4103.08,4099.49,4116.41,4116.41,4120,4089.74,4111.79,4091.28,0
12_6_38,34,4106.67,4115.38,4100,4105.13,4119.49,4103.59,4103.08,4099.49,4122.56,4121.03,4118.46,4090.26,4112.31,4090.26,0
12_6_38,35,4103.59,4112.82,4100.51,4106.67,4120.51,4109.74,4105.64,4099.49,4122.05,4125.64,4121.54,4093.33,4111.79,4093.33,0
12_6_38,36,4097.95,4104.62,4100,4104.1,4120,4118.97,4106.67,4099.49,4116.92,4121.54,4118.97,4089.23,4102.05,4088.72,0
12_6_38,37,4103.08,4117.44,4105.13,4108.21,4120.51,4118.46,4107.18,4099.49,4109.23,4119.49,4116.92,4089.74,4105.13,4088.72,0
12_6_38,38,4111.28,4130.26,4108.21,4110.77,4123.08,4110.26,4104.62,4099.49,4114.36,4127.18,4124.62,4095.9,4123.08,4101.03,0
12_6_38,39,4108.21,4119.49,4104.62,4107.18,4122.56,4111.79,4105.13,4099.49,4124.1,4129.23,4127.69,4095.9,4122.56,4103.59,0
12_6_38,40,4104.62,4115.38,4105.13,4109.23,4119.49,4113.85,4107.69,4099.49,4117.95,4119.49,4120.51,4091.79,4105.13,4090.26,0
12_6_38,41,4105.64,4121.54,4106.67,4110.26,4120.51,4108.72,4103.08,4099.49,4120,4119.49,4121.03,4092.31,4102.56,4091.79,0
12_6_38,42,4106.15,4113.33,4104.1,4106.15,4124.1,4107.69,4098.46,4098.46,4125.13,4127.18,4126.67,4092.31,4108.72,4105.13,0
12_6_38,43,4106.67,4105.13,4103.08,4107.69,4121.03,4109.23,4103.08,4097.95,4109.74,4122.05,4122.05,4091.28,4104.62,4100,0
12_6_38,44,4107.18,4106.67,4105.64,4110.77,4114.87,4108.21,4104.62,4098.46,4106.15,4117.95,4116.92,4091.28,4102.56,4092.31,0
12_6_38,45,4107.18,4114.36,4106.15,4108.72,4115.9,4106.67,4097.95,4098.46,4126.15,4126.67,4122.56,4092.82,4107.18,4101.03,0
12_6_38,46,4110.77,4121.03,4108.21,4113.85,4120.51,4105.64,4096.41,4098.46,4128.21,4130.26,4131.28,4098.97,4111.28,4110.26,0
12_6_38,47,4116.41,4121.03,4110.77,4122.56,4120,4106.67,4103.59,4099.49,4109.23,4123.59,4132.82,4105.64,4112.31,4108.72,0
12_6_38,48,4122.56,4120,4111.28,4121.54,4122.56,4114.36,4106.67,4099.49,4110.26,4120.51,4131.79,4106.15,4108.72,4106.15,0
12_6_38,49,4123.59,4128.21,4111.28,4119.49,4127.18,4122.56,4107.69,4098.46,4125.13,4128.21,4133.85,4106.67,4111.28,4110.77,0
12_6_38,50,4123.08,4131.79,4113.85,4123.08,4128.72,4122.05,4109.23,4098.46,4126.67,4131.28,4130.77,4109.23,4115.38,4113.33,0
12_6_38,51,4122.56,4124.62,4114.87,4123.59,4128.72,4121.03,4107.18,4098.97,4122.56,4126.67,4124.1,4107.18,4108.21,4109.74,0
12_6_38,52,4124.62,4124.62,4111.28,4121.54,4127.18,4119.49,4104.62,4098.46,4124.1,4125.64,4130.77,4107.69,4107.69,4109.23,0
12_6_38,53,4120,4127.18,4107.69,4118.97,4123.08,4112.82,4104.62,4097.95,4121.03,4126.15,4136.92,4106.67,4112.31,4110.77,0
12_6_38,54,4108.21,4117.44,4105.64,4112.31,4122.56,4108.72,4103.59,4098.46,4118.46,4122.05,4126.67,4095.38,4103.08,4099.49,0
12_6_38,55,4108.72,4114.36,4107.69,4113.33,4123.59,4107.69,4100.51,4101.54,4124.62,4122.05,4121.54,4088.72,4094.36,4093.33,0
12_6_38,56,4117.95,4122.56,4109.23,4121.03,4124.62,4112.82,4104.62,4101.54,4119.49,4122.05,4126.67,4092.82,4098.46,4104.62,0
12_6_38,57,4113.85,4118.97,4106.67,4116.41,4125.13,4120.51,4109.74,4099.49,4111.28,4112.82,4120.51,4091.28,4093.85,4103.08,0
12_6_38,58,4104.62,4111.79,4103.08,4107.18,4123.59,4119.49,4107.18,4098.46,4118.46,4108.72,4113.33,4084.1,4086.15,4090.77,0
12_6_38,59,4107.18,4114.87,4103.08,4110.77,4121.03,4111.79,4106.67,4098.46,4126.67,4116.41,4117.95,4081.54,4087.69,4091.28,0
12_6_38,60,4109.23,4113.33,4103.08,4112.82,4120.51,4108.21,4107.69,4102.05,4118.46,4114.36,4114.87,4081.54,4087.18,4094.87,0
12_6_38,61,4105.64,4107.18,4100.51,4106.67,4122.56,4108.72,4105.64,4105.64,4113.85,4107.18,4110.26,4084.62,4085.64,4091.28,0
12_6_38,62,4106.67,4107.69,4102.05,4107.18,4123.59,4112.31,4106.67,4102.05,4126.15,4115.9,4121.54,4090.77,4087.18,4093.85,0
12_6_38,63,4108.72,4109.74,4107.18,4110.26,4122.56,4115.38,4108.72,4097.95,4125.64,4121.54,4124.62,4093.85,4083.59,4097.95,0
12_6_38,64,4106.67,4107.69,4105.13,4108.72,4123.08,4121.03,4107.69,4100,4110.77,4110.77,4110.26,4089.23,4085.64,4093.85,0
12_6_38,65,4108.21,4108.21,4101.03,4106.15,4123.59,4120,4106.15,4099.49,4107.18,4105.64,4104.1,4083.59,4091.79,4089.74,0
12_6_38,66,4111.79,4110.26,4100.51,4107.18,4123.59,4109.74,4107.18,4096.92,4112.31,4108.72,4106.67,4082.56,4086.67,4092.82,0
12_6_38,67,4109.23,4107.18,4100.51,4107.18,4123.08,4107.69,4107.69,4097.44,4113.85,4106.67,4100.51,4080,4074.87,4092.82,0
12_6_38,68,4104.1,4102.05,4099.49,4106.15,4120.51,4118.97,4107.69,4098.46,4120,4104.1,4094.36,4074.87,4074.87,4083.59,0
12_6_38,69,4105.64,4106.15,4101.54,4110.26,4121.54,4122.56,4107.69,4098.97,4125.13,4109.23,4095.9,4077.44,4080.51,4083.59,0
12_6_38,70,4109.74,4109.23,4102.05,4112.31,4125.13,4114.87,4108.72,4098.46,4113.85,4107.18,4097.44,4084.62,4079.49,4090.77,0
12_6_38,71,4109.74,4101.54,4102.05,4108.72,4123.08,4108.72,4107.18,4098.46,4107.18,4097.95,4092.31,4081.03,4074.87,4089.23,0
12_6_38,72,4110.26,4095.9,4102.56,4108.72,4116.92,4108.21,4106.67,4098.97,4121.54,4102.56,4090.26,4078.46,4073.33,4087.18,0
12_6_38,73,4110.26,4095.38,4099.49,4108.21,4114.87,4109.74,4107.18,4099.49,4126.67,4108.21,4092.82,4080.51,4068.21,4086.67,0
12_6_38,74,4104.62,4089.23,4098.46,4099.49,4115.9,4106.15,4105.13,4097.95,4106.67,4089.74,4087.69,4076.41,4052.31,4082.05,0
12_6_38,75,4104.62,4090.26,4102.56,4098.97,4121.54,4103.08,4104.62,4097.44,4097.44,4080,4077.95,4073.33,4048.72,4086.67,0
12_6_38,76,4105.13,4096.92,4102.56,4109.74,4125.13,4113.85,4108.21,4098.46,4109.74,4087.69,4073.33,4076.41,4053.85,4092.31,0
12_6_38,77,4097.44,4084.62,4096.92,4106.15,4123.59,4124.62,4110.77,4099.49,4109.74,4080.51,4076.92,4075.9,4040.51,4083.59,0
12_6_38,78,4097.44,4075.9,4097.95,4100,4125.13,4121.54,4110.26,4098.97,4106.15,4074.87,4085.64,4072.82,4037.95,4082.05,0
12_6_38,79,4108.21,4090.77,4104.1,4107.18,4124.62,4113.33,4111.28,4100,4119.49,4089.74,4086.15,4075.38,4060,4093.33,0
12_6_38,80,4106.67,4092.82,4102.05,4105.64,4117.44,4106.67,4107.69,4100,4125.64,4094.36,4081.03,4074.87,4064.62,4093.33,0
12_6_38,81,4096.41,4078.46,4100.51,4093.85,4116.41,4104.62,4102.05,4097.95,4121.03,4089.23,4085.13,4073.33,4050.26,4089.74,0
12_6_38,82,4102.05,4083.08,4106.15,4098.97,4123.08,4114.36,4105.13,4097.44,4119.49,4094.87,4088.72,4083.08,4057.95,4100.51,0
12_6_38,83,4112.31,4095.38,4106.67,4110.77,4123.59,4120,4109.23,4098.97,4112.31,4090.77,4082.05,4092.31,4065.13,4107.18,0
12_6_38,84,4109.74,4090.26,4104.62,4108.21,4120.51,4111.79,4107.18,4099.49,4102.56,4076.41,4079.49,4087.69,4049.74,4100,0
12_6_38,85,4106.15,4088.21,4107.69,4105.13,4123.08,4112.31,4106.67,4098.46,4110.77,4076.92,4082.56,4084.1,4047.69,4098.46,0
12_6_38,86,4110.26,4094.36,4110.26,4112.31,4127.18,4125.13,4109.23,4097.95,4124.1,4085.13,4080,4087.18,4055.38,4100,0
12_6_38,87,4106.15,4092.31,4103.59,4108.72,4125.64,4120.51,4106.67,4098.97,4117.44,4080.51,4074.87,4080.51,4044.1,4091.79,0
12_6_38,88,4092.31,4080.51,4098.97,4094.36,4122.05,4106.15,4103.59,4100,4104.62,4071.28,4066.67,4072.31,4035.38,4087.69,0
12_6_38,89,4092.82,4076.41,4099.49,4094.36,4120.51,4111.79,4104.62,4098.46,4104.1,4074.87,4065.64,4075.38,4046.67,4094.36,0
12_6_38,90,4105.64,4085.64,4100.51,4106.15,4123.59,4124.1,4106.15,4097.44,4112.31,4077.95,4075.38,4081.03,4054.87,4099.49,0
12_6_38,91,4108.72,4092.31,4102.05,4107.18,4126.15,4121.03,4108.21,4101.54,4120,4073.33,4075.38,4084.1,4049.74,4105.13,0
12_6_38,92,4103.08,4088.21,4101.03,4101.03,4125.13,4108.72,4104.1,4102.56,4117.95,4074.87,4068.72,4083.59,4048.72,4107.69,0
12_6_38,93,4105.13,4088.21,4103.08,4106.67,4122.05,4109.74,4098.46,4098.46,4105.64,4073.85,4069.23,4078.46,4048.21,4100.51,0
12_6_38,94,4109.74,4094.36,4107.18,4113.85,4123.59,4121.03,4103.59,4097.95,4107.18,4065.13,4064.62,4075.9,4051.79,4096.92,0
12_6_38,95,4107.18,4092.31,4107.18,4109.74,4127.69,4126.15,4113.33,4098.97,4119.49,4060,4053.85,4075.38,4070.77,4102.05,0
12_6_38,96,4104.62,4089.23,4103.08,4104.1,4129.74,4124.1,4107.69,4098.97,4117.44,4063.08,4056.41,4074.87,4093.33,4101.03,0
12_6_38,97,4105.64,4090.77,4099.49,4104.62,4129.74,4118.97,4092.82,4098.97,4105.13,4061.54,4063.08,4074.36,4108.21,4092.31,0
12_6_38,98,4106.15,4089.23,4101.03,4106.15,4126.67,4114.36,4094.87,4100,4102.05,4053.85,4060,4073.85,4118.97,4093.33,0
12_6_38,99,4108.72,4090.77,4106.67,4105.13,4124.62,4117.44,4105.64,4098.46,4106.15,4054.36,4065.13,4080,4133.85,4104.1,0
12_6_38,100,4119.49,4099.49,4109.74,4108.72,4131.79,4127.18,4109.23,4098.46,4111.28,4063.08,4083.59,4093.33,4149.23,4112.82,0
12_6_38,101,4120,4098.97,4106.67,4109.74,4133.33,4130.77,4109.23,4098.97,4123.08,4068.72,4084.1,4096.41,4148.72,4112.82,0
12_6_38,102,4100,4083.08,4098.46,4097.95,4124.62,4124.1,4104.62,4098.46,4124.1,4061.03,4066.15,4082.05,4133.33,4101.03,0
12_6_39,103,4093.85,4078.97,4096.41,4089.74,4120,4113.33,4095.38,4098.46,4107.69,4049.74,4061.03,4076.41,4130.26,4094.36,0
12_6_39,104,4106.15,4085.13,4101.03,4093.33,4123.59,4107.18,4091.79,4098.46,4098.97,4042.56,4067.18,4087.18,4134.87,4099.49,0
12_6_39,105,4105.64,4085.13,4101.54,4095.38,4122.56,4113.33,4093.33,4098.97,4107.69,4042.05,4064.1,4090.77,4129.23,4101.54,0
12_6_39,106,4100,4081.03,4097.95,4090.77,4119.49,4118.97,4096.92,4098.46,4114.87,4046.15,4069.23,4090.77,4126.15,4103.08,0
12_6_39,107,4100.51,4076.92,4099.49,4090.26,4120.51,4114.87,4104.1,4098.46,4108.72,4041.54,4072.31,4093.85,4122.56,4105.64,0
12_6_39,108,4093.33,4073.33,4101.03,4092.82,4119.49,4109.74,4101.54,4098.97,4103.08,4032.31,4047.69,4086.15,4105.13,4094.87,0
12_6_39,109,4090.77,4071.79,4098.97,4090.26,4113.85,4108.72,4092.82,4097.95,4103.59,4028.21,4032.82,4079.49,4092.31,4085.13,0
12_6_39,110,4101.54,4072.31,4101.03,4088.21,4107.18,4108.72,4093.33,4096.92,4102.56,4027.18,4046.15,4088.72,4092.82,4097.95,0
12_6_39,111,4107.18,4071.79,4103.08,4091.79,4112.82,4106.67,4095.38,4098.46,4098.46,4023.08,4044.62,4093.33,4085.64,4106.67,0
12_6_39,112,4103.08,4071.28,4100,4091.28,4118.97,4107.18,4093.33,4100,4094.87,4015.38,4025.13,4083.59,4074.87,4095.9,0
12_6_39,113,4104.1,4074.36,4101.03,4088.21,4112.31,4110.77,4096.41,4097.95,4108.21,4022.05,4028.72,4083.08,4073.85,4093.33,0
12_6_39,114,4107.69,4077.95,4105.13,4089.23,4110.77,4111.28,4101.54,4096.92,4123.59,4038.97,4038.97,4092.82,4075.38,4104.62,0
12_6_39,115,4107.69,4078.97,4104.1,4091.79,4120.51,4110.77,4106.15,4098.46,4114.36,4036.41,4032.31,4094.87,4074.36,4108.72,0
12_6_39,116,4107.69,4076.41,4101.54,4092.31,4123.59,4116.41,4108.21,4098.97,4097.95,4021.54,4028.72,4090.77,4072.31,4104.1,0
12_6_39,117,4110.26,4077.44,4100.51,4092.31,4121.03,4122.56,4105.64,4098.46,4100.51,4022.56,4030.77,4089.23,4066.15,4106.15,0
12_6_39,118,4108.72,4078.46,4100.51,4094.36,4122.05,4124.62,4107.69,4097.95,4117.95,4030.77,4028.72,4090.26,4060,4107.69,0
12_6_39,119,4106.15,4076.92,4102.56,4094.87,4122.56,4124.1,4113.33,4097.95,4124.62,4030.77,4027.18,4090.26,4059.49,4107.18,0
12_6_39,120,4109.23,4078.46,4105.13,4091.79,4123.59,4120.51,4110.26,4098.46,4109.74,4025.13,4026.67,4090.26,4059.49,4108.72,0
12_6_39,121,4108.72,4079.49,4104.1,4089.74,4123.59,4115.9,4102.05,4099.49,4094.36,4017.95,4014.36,4091.79,4055.38,4109.23,0
12_6_39,122,4105.13,4078.46,4103.08,4093.33,4118.46,4115.38,4101.03,4099.49,4098.97,4014.87,4003.08,4089.23,4050.26,4107.18,0
12_6_39,123,4106.15,4074.36,4101.54,4095.38,4118.97,4118.46,4104.62,4098.46,4109.74,4018.97,4005.64,4085.13,4042.56,4106.15,0
12_6_39,124,4106.67,4070.26,4103.08,4091.79,4121.54,4120,4104.1,4098.46,4108.72,4019.49,4008.72,4087.18,4034.87,4105.13,0
12_6_39,125,4105.64,4073.85,4106.15,4091.28,4121.54,4121.54,4104.1,4099.49,4107.69,4013.33,4003.08,4090.26,4027.69,4104.62,0
12_6_39,126,4107.18,4074.36,4103.08,4091.28,4120,4120.51,4106.67,4098.46,4103.59,4005.64,3993.33,4087.69,4022.05,4105.13,0
12_6_39,127,4108.21,4068.72,4103.08,4089.23,4118.97,4115.38,4106.67,4098.46,4105.13,4009.74,3992.31,4089.74,4023.59,4106.15,0
12_6_39,128,4108.21,4066.67,4109.23,4089.74,4121.03,4113.33,4107.69,4099.49,4114.87,4018.46,3994.87,4097.95,4028.72,4111.28,0
12_6_39,0,4107.69,4069.74,4111.28,4092.82,4122.05,4112.82,4107.69,4099.49,4109.74,4009.23,3990.26,4095.9,4028.72,4111.28,0
12_6_39,1,4108.21,4073.33,4108.21,4095.38,4120,4113.33,4107.69,4097.95,4103.59,4004.1,3990.77,4092.31,4031.79,4109.74,0
12_6_39,2,4116.92,4074.87,4108.21,4094.87,4122.05,4120,4115.9,4097.95,4111.79,4016.41,4000.51,4102.05,4041.03,4119.49,0
12_6_39,3,4118.97,4074.36,4107.18,4091.79,4124.62,4126.67,4120,4098.46,4116.41,4019.49,3997.44,4103.59,4039.49,4122.56,0
12_6_39,4,4109.23,4073.85,4107.18,4093.33,4123.59,4120,4110.77,4096.92,4112.31,4010.77,3984.1,4092.82,4031.79,4109.74,0
12_6_39,5,4105.64,4072.31,4108.21,4094.87,4121.54,4114.87,4103.08,4097.44,4106.15,4007.18,3986.15,4091.28,4033.33,4107.18,0
12_6_39,6,4107.18,4064.62,4107.18,4088.72,4121.03,4118.97,4110.77,4097.95,4102.56,4003.08,3990.26,4098.46,4035.38,4111.28,0
12_6_39,7,4108.72,4067.69,4106.67,4093.85,4120.51,4117.95,4119.49,4098.97,4105.64,4000.51,3982.56,4102.56,4035.38,4110.77,0
12_6_39,8,4115.9,4079.49,4110.77,4108.72,4123.08,4118.97,4114.87,4098.46,4109.74,4004.1,3983.08,4106.15,4037.44,4116.92,0
12_6_39,9,4118.97,4081.54,4113.33,4104.62,4124.1,4121.54,4106.67,4098.46,4114.87,4006.67,3990.77,4109.23,4035.9,4120.51,0
12_6_39,10,4113.33,4074.87,4111.79,4091.28,4123.59,4115.9,4103.59,4098.97,4115.38,4006.15,3981.03,4105.13,4031.79,4113.85,0
12_6_39,11,4110.77,4068.72,4108.21,4093.33,4120.51,4110.77,4108.21,4098.97,4104.62,4000.51,3971.79,4102.05,4035.9,4112.31,0
12_6_39,12,4110.26,4066.67,4105.64,4094.87,4111.28,4113.85,4107.18,4097.95,4095.9,3991.28,3973.85,4094.87,4040.51,4113.85,0
12_6_39,13,4106.67,4065.64,4104.62,4087.18,4111.79,4113.33,4102.05,4098.46,4103.08,3987.69,3966.15,4083.08,4036.41,4107.69,0
12_6_39,14,4104.62,4066.15,4105.13,4087.69,4120,4107.69,4102.56,4099.49,4107.18,3989.74,3958.46,4081.54,4033.33,4102.56,0
12_6_39,15,4105.13,4067.69,4107.18,4093.33,4121.54,4108.21,4107.69,4097.95,4103.59,3991.28,3967.18,4088.72,4037.44,4105.13,0
12_6_39,16,4105.64,4065.13,4108.21,4092.82,4117.95,4116.41,4107.69,4096.92,4106.67,3996.41,3975.38,4092.31,4041.03,4110.26,0
12_6_39,17,4108.72,4064.62,4107.18,4090.26,4121.03,4122.05,4107.18,4100.51,4111.28,4002.05,3970.26,4090.77,4041.03,4112.82,0
12_6_39,18,4108.72,4071.79,4106.15,4090.77,4123.59,4119.49,4108.21,4102.05,4109.23,3994.87,3962.56,4088.72,4032.82,4109.74,0
12_6_39,19,4108.21,4073.85,4107.69,4092.31,4121.54,4114.36,4103.59,4098.97,4102.56,3990.77,3956.41,4091.28,4022.05,4106.15,0
12_6_39,20,4108.21,4068.72,4105.13,4089.74,4121.03,4110.77,4103.59,4097.44,4101.03,3996.41,3957.95,4091.28,4023.59,4106.15,0
12_6_39,21,4106.15,4063.59,4101.54,4088.21,4118.46,4109.23,4107.18,4098.46,4097.44,3994.36,3955.38,4084.62,4021.54,4103.59,0
12_6_39,22,4103.08,4057.44,4101.54,4089.74,4116.41,4113.85,4106.15,4097.95,4093.85,3984.1,3945.13,4082.05,4007.18,4099.49,0
12_6_39,23,4105.64,4055.9,4105.13,4091.79,4120.51,4120.51,4104.62,4097.44,4107.18,3988.72,3950.26,4090.26,4004.1,4104.1,0
12_6_39,24,4108.72,4065.64,4110.26,4091.28,4125.13,4120.51,4108.72,4098.46,4110.77,3994.87,3961.03,4093.85,4009.74,4108.72,0
12_6_39,25,4105.64,4068.72,4109.23,4090.77,4125.13,4114.87,4107.69,4098.46,4091.28,3978.46,3955.38,4089.23,3995.38,4105.64,0
12_6_39,26,4104.62,4062.56,4103.08,4090.77,4121.03,4110.77,4100,4098.97,4085.13,3973.33,3945.64,4084.1,3982.56,4105.13,0
12_6_39,27,4101.03,4062.05,4104.62,4090.26,4116.41,4109.23,4098.97,4098.46,4096.92,3985.64,3945.13,4078.97,3986.15,4102.56,0
12_6_39,28,4093.85,4061.54,4107.18,4089.23,4113.85,4110.77,4105.64,4097.95,4097.95,3985.64,3942.05,4075.38,3982.56,4093.85,0
12_6_39,29,4096.41,4059.49,4104.62,4089.74,4113.85,4109.74,4106.15,4099.49,4091.28,3971.79,3930.26,4076.41,3972.31,4091.79,0
12_6_39,30,4098.46,4059.49,4098.97,4088.72,4108.72,4106.15,4094.87,4098.46,4093.85,3971.28,3925.13,4075.9,3969.23,4092.31,0
12_6_39,31,4096.92,4059.49,4100,4088.72,4108.72,4104.62,4089.23,4096.41,4096.92,3982.56,3929.23,4079.49,3968.72,4092.31,0
12_6_39,32,4104.1,4069.23,4105.13,4094.36,4121.03,4107.18,4097.44,4100,4095.38,3984.1,3940.51,4090.77,3971.28,4101.03,0
12_6_39,33,4111.28,4080,4106.67,4097.95,4127.69,4111.79,4101.54,4102.56,4091.28,3978.46,3943.08,4092.31,3976.92,4105.64,0
12_6_39,34,4105.13,4066.67,4101.03,4089.74,4119.49,4109.74,4097.44,4097.95,4087.18,3971.28,3929.23,4078.97,3970.26,4093.33,0
12_6_39,35,4102.05,4058.46,4101.03,4086.15,4116.41,4103.59,4097.95,4096.41,4094.36,3971.79,3922.56,4078.97,3964.62,4093.33,0
12_6_39,36,4111.28,4074.87,4108.72,4096.41,4123.59,4112.82,4105.13,4098.97,4104.62,3984.1,3940.51,4095.9,3978.46,4109.74,0
12_6_39,37,4112.31,4074.36,4106.15,4099.49,4127.18,4124.62,4108.72,4098.97,4098.46,3991.28,3948.72,4098.97,3983.59,4113.33,0
12_6_39,38,4105.13,4056.92,4100.51,4091.28,4126.15,4115.38,4105.13,4098.46,4087.69,3984.1,3938.46,4088.72,3972.82,4105.13,0
12_6_39,39,4105.13,4060,4103.59,4089.74,4125.64,4108.72,4103.59,4098.97,4091.79,3982.05,3943.08,4089.23,3972.31,4106.15,0
12_6_39,40,4110.77,4066.67,4105.13,4093.85,4123.59,4118.97,4105.13,4098.46,4098.46,3991.28,3946.15,4093.33,3975.9,4107.69,0
12_6_39,41,4107.69,4061.03,4103.08,4091.79,4121.54,4120,4104.1,4098.97,4095.38,3991.79,3929.74,4089.23,3971.79,4104.1,0
12_6_39,42,4106.15,4068.72,4106.67,4092.31,4126.15,4111.28,4105.13,4098.97,4094.36,3990.26,3929.74,4090.26,3978.97,4108.72,0
12_6_39,43,4110.26,4080,4106.67,4095.38,4129.74,4110.26,4106.15,4098.46,4095.38,3990.26,3940,4092.82,3984.1,4108.21,0
12_6_39,44,4103.59,4070.26,4098.46,4086.15,4124.1,4110.26,4100.51,4098.46,4091.28,3982.56,3925.64,4081.03,3967.69,4091.79,0
12_6_39,45,4097.44,4060.51,4097.95,4082.05,4121.03,4110.77,4097.95,4098.46,4089.23,3980,3926.15,4077.95,3962.05,4089.23,0
12_6_39,46,4106.67,4065.64,4103.59,4090.77,4124.62,4112.82,4107.18,4097.95,4094.36,3990.77,3952.31,4092.31,3975.9,4105.64,0
12_6_39,47,4110.26,4066.15,4102.56,4091.79,4123.59,4109.74,4107.18,4097.95,4091.79,3991.28,3950.26,4089.74,3976.92,4104.62,0
12_6_39,48,4097.44,4058.97,4096.92,4082.56,4120,4105.64,4097.95,4098.97,4078.97,3977.44,3929.74,4071.28,3966.15,4089.23,0
12_6_39,49,4091.28,4060,4094.87,4082.56,4122.56,4109.23,4098.97,4098.46,4082.56,3972.31,3935.9,4072.31,3967.18,4090.26,0
12_6_39,50,4092.31,4061.54,4096.41,4082.05,4123.08,4111.79,4106.15,4097.95,4092.82,3975.38,3944.62,4080,3970.77,4092.82,0
12_6_39,51,4089.74,4055.9,4095.9,4073.85,4121.54,4110.26,4105.64,4097.44,4089.74,3975.9,3938.46,4073.85,3965.13,4086.15,0
12_6_39,52,4095.38,4059.49,4096.41,4082.56,4121.54,4107.69,4101.54,4095.9,4088.72,3983.59,3947.69,4072.82,3967.18,4097.95,0
12_6_39,53,4101.54,4066.15,4097.95,4093.33,4117.95,4105.13,4102.05,4096.41,4089.23,3990.26,3956.92,4077.44,3977.44,4108.21,0
12_6_39,54,4095.38,4058.46,4097.44,4085.13,4114.36,4105.13,4105.13,4095.9,4083.59,3984.62,3945.13,4076.41,3975.9,4094.87,0
12_6_39,55,4087.69,4053.33,4096.92,4074.87,4113.33,4109.23,4106.67,4095.38,4085.13,3982.05,3944.1,4074.36,3972.82,4091.79,0
12_6_39,56,4090.26,4058.97,4095.9,4077.44,4111.79,4109.74,4106.67,4098.46,4093.85,3990.77,3956.41,4076.92,3982.56,4107.69,0
12_6_39,57,4096.92,4063.08,4096.41,4086.15,4114.36,4107.69,4104.1,4099.49,4097.95,4000,3960.51,4084.1,3992.82,4109.74,0
12_6_39,58,4097.44,4062.56,4098.46,4089.23,4118.46,4109.74,4101.54,4097.95,4092.82,3998.46,3955.9,4084.62,3989.23,4098.46,0
12_6_39,59,4091.79,4057.44,4100,4081.54,4118.97,4103.59,4096.92,4098.97,4080.51,3985.13,3947.69,4074.36,3980.51,4092.82,0
12_6_39,60,4093.33,4050.77,4097.95,4074.87,4120.51,4095.38,4089.74,4098.97,4082.56,3982.56,3941.03,4071.79,3983.59,4095.9,0
12_6_39,61,4104.1,4056.41,4097.44,4083.59,4122.05,4101.03,4087.69,4096.92,4091.79,3990.26,3942.56,4077.44,3989.23,4104.1,0
12_6_39,62,4106.67,4067.69,4098.46,4091.28,4121.03,4107.18,4089.23,4097.44,4082.05,3987.18,3944.62,4075.38,3984.1,4106.15,0
12_6_39,63,4104.62,4068.21,4102.05,4089.74,4123.08,4105.64,4093.85,4098.46,4072.82,3984.1,3947.69,4077.44,3974.87,4102.56,0
12_6_39,64,4106.67,4066.67,4102.56,4091.28,4122.56,4108.21,4100.51,4097.95,4084.1,3991.28,3955.38,4088.21,3972.82,4103.08,0
12_6_39,65,4106.67,4068.21,4098.97,4091.79,4118.46,4111.79,4099.49,4097.95,4098.46,4001.03,3960,4091.28,3978.46,4105.64,0
12_6_39,66,4108.21,4068.72,4098.46,4089.23,4117.95,4105.64,4093.33,4096.41,4096.41,4009.23,3967.69,4092.31,3988.72,4108.72,0
12_6_39,67,4109.74,4067.69,4102.05,4089.74,4111.28,4094.87,4092.31,4096.41,4080,4008.72,3975.9,4095.38,3989.74,4109.23,0
12_6_39,68,4106.67,4065.13,4101.03,4090.26,4107.18,4090.77,4092.82,4099.49,4076.92,4002.05,3973.33,4091.79,3983.08,4108.72,0
12_6_39,69,4111.28,4068.21,4097.95,4090.77,4115.38,4096.92,4096.92,4098.97,4091.28,4006.15,3974.87,4093.85,3989.74,4116.92,0
12_6_39,70,4122.05,4078.46,4104.1,4093.85,4124.62,4108.72,4104.1,4097.44,4098.97,4021.03,3986.15,4106.67,4002.56,4126.67,0
12_6_39,71,4126.67,4082.56,4109.23,4095.38,4120.51,4108.72,4101.54,4098.97,4092.31,4025.64,3986.15,4111.28,4003.59,4126.15,0
12_6_39,72,4121.03,4073.85,4105.64,4091.79,4112.31,4096.41,4092.82,4100,4082.56,4013.33,3978.97,4102.56,4004.62,4123.08,0
12_6_39,73,4112.82,4067.69,4103.08,4083.59,4109.74,4092.31,4092.31,4098.97,4074.36,4002.56,3971.79,4094.36,4005.13,4123.59,0
12_6_39,74,4107.69,4071.28,4102.05,4076.41,4109.23,4095.9,4094.36,4097.95,4075.9,4008.72,3962.05,4092.31,3998.46,4115.38,0
12_6_39,75,4106.15,4069.23,4099.49,4078.46,4107.18,4095.38,4090.26,4097.44,4084.62,4015.9,3962.05,4089.74,3990.77,4107.18,0
12_6_39,76,4104.62,4059.49,4098.97,4082.56,4103.08,4091.28,4086.67,4097.44,4083.59,4008.21,3969.23,4084.62,3986.15,4105.64,0
12_6_39,77,4101.54,4055.9,4098.97,4081.54,4103.59,4089.74,4088.72,4098.97,4078.46,4001.54,3962.05,4078.46,3984.1,4099.49,0
12_6_39,78,4104.62,4063.08,4098.46,4082.05,4107.18,4091.28,4091.79,4098.46,4084.1,4006.67,3951.79,4080,3983.59,4095.9,0
12_6_39,79,4111.28,4072.82,4103.08,4091.28,4111.79,4092.31,4091.28,4098.46,4085.13,4013.33,3956.41,4088.21,3990.26,4105.64,0
12_6_39,80,4112.82,4076.92,4106.67,4094.87,4113.33,4091.79,4090.77,4098.97,4076.41,4014.87,3958.46,4093.33,3997.95,4111.28,0
12_6_39,81,4107.18,4070.77,4103.59,4087.69,4108.72,4092.82,4090.77,4098.46,4078.46,4015.9,3952.82,4090.77,4004.1,4105.13,0
12_6_39,82,4105.64,4070.26,4105.13,4083.08,4108.72,4102.56,4092.31,4098.46,4090.77,4027.18,3962.56,4089.23,4022.56,4105.13,0
12_6_39,83,4109.23,4073.85,4105.64,4083.59,4112.82,4110.77,4094.87,4100,4090.77,4035.9,3975.9,4091.28,4051.79,4107.18,0
12_6_39,84,4104.62,4069.23,4098.97,4082.05,4110.26,4102.56,4093.33,4099.49,4086.67,4031.28,3972.31,4089.74,4069.23,4103.59,0
12_6_39,85,4100,4065.64,4096.92,4078.46,4104.62,4092.31,4092.31,4098.46,4095.9,4033.85,3970.77,4089.74,4075.9,4105.13,0
12_6_39,86,4106.15,4070.77,4103.59,4080.51,4106.67,4096.92,4095.9,4098.46,4097.95,4044.1,3984.1,4096.92,4088.21,4108.21,0
12_6_39,87,4112.31,4073.33,4104.62,4087.18,4108.72,4105.13,4097.44,4098.97,4085.64,4039.49,3989.23,4106.15,4095.9,4108.21,0
12_6_39,88,4108.21,4065.64,4100,4084.62,4106.67,4108.21,4097.95,4098.46,4080,4028.21,3985.13,4109.23,4092.82,4107.18,0
12_6_39,89,4103.59,4062.05,4100,4080,4107.18,4107.18,4100,4098.46,4088.21,4033.85,3988.21,4106.67,4093.85,4107.18,0
12_6_39,90,4104.1,4064.1,4100,4078.97,4110.26,4106.67,4098.46,4098.46,4093.85,4051.79,3993.85,4107.18,4103.08,4107.69,0
12_6_39,91,4106.67,4066.15,4099.49,4078.46,4110.77,4106.67,4094.87,4098.46,4090.77,4060,3993.33,4108.21,4106.15,4108.72,0
12_6_39,92,4106.15,4071.28,4100,4075.38,4109.74,4107.18,4094.36,4098.46,4090.26,4056.41,3995.9,4108.72,4099.49,4107.69,0
12_6_39,93,4097.44,4069.23,4097.95,4074.87,4103.59,4106.67,4093.85,4098.46,4086.15,4049.74,3990.77,4105.64,4088.72,4097.44,0
12_6_39,94,4093.33,4065.13,4097.44,4074.87,4100,4104.1,4090.26,4098.46,4075.38,4044.1,3977.44,4101.54,4077.44,4088.72,0
12_6_39,95,4102.05,4068.72,4100.51,4076.41,4104.1,4101.03,4083.08,4098.46,4073.85,4042.05,3978.46,4105.13,4072.82,4091.79,0
12_6_39,96,4107.69,4072.82,4101.54,4080,4109.23,4103.59,4086.15,4098.46,4088.72,4052.82,3987.69,4108.21,4075.9,4095.9,0
12_6_39,97,4098.97,4071.28,4098.97,4076.92,4111.79,4115.38,4100.51,4098.46,4097.95,4064.1,3986.67,4106.15,4075.38,4090.77,0
12_6_39,98,4091.79,4069.74,4097.44,4073.85,4110.77,4118.97,4105.13,4098.46,4090.77,4065.64,3989.23,4105.13,4075.9,4089.23,0
12_6_39,99,4095.38,4072.31,4098.46,4075.9,4108.21,4112.82,4100.51,4098.97,4088.21,4070.26,4007.69,4107.69,4086.67,4095.9,0
12_6_39,100,4098.46,4070.77,4098.97,4076.41,4108.21,4106.67,4098.46,4098.46,4098.46,4086.15,4022.56,4109.23,4091.79,4097.95,0
12_6_39,101,4096.41,4066.67,4097.95,4074.87,4102.56,4099.49,4094.87,4097.95,4101.03,4093.33,4018.97,4108.72,4083.08,4095.9,0
12_6_40,102,4092.31,4066.67,4097.44,4075.38,4091.79,4094.87,4091.28,4097.95,4087.69,4080.51,4012.31,4106.15,4073.33,4094.87,0
12_6_40,103,4093.33,4075.9,4100,4079.49,4097.44,4096.41,4092.82,4097.44,4077.44,4066.15,4009.23,4104.62,4071.79,4093.85,0
12_6_40,104,4093.33,4077.44,4098.97,4075.9,4106.67,4095.9,4090.77,4097.95,4079.49,4062.56,3998.97,4099.49,4064.1,4091.28,0
12_6_40,105,4090.26,4066.67,4095.9,4066.67,4103.08,4097.95,4087.18,4097.95,4081.03,4059.49,3987.69,4092.82,4050.77,4089.74,0
12_6_40,106,4089.74,4067.69,4096.41,4068.72,4106.15,4107.18,4091.28,4098.46,4077.95,4060,3990.77,4088.72,4051.28,4088.21,0
12_6_40,107,4092.82,4076.41,4098.46,4076.92,4112.82,4107.18,4092.31,4098.46,4082.56,4073.33,3997.95,4091.28,4058.46,4089.23,0
12_6_40,108,4098.46,4079.49,4099.49,4078.46,4109.74,4102.56,4091.28,4096.92,4092.82,4090.26,4007.18,4102.56,4066.67,4098.97,0
12_6_40,109,4097.95,4077.95,4098.46,4074.87,4107.18,4103.08,4093.85,4094.36,4094.87,4095.9,4019.49,4108.21,4070.77,4103.08,0
12_6_40,110,4091.79,4075.38,4096.41,4074.36,4106.67,4097.44,4093.85,4095.9,4094.36,4095.9,4022.56,4098.46,4069.23,4098.97,0
12_6_40,111,4094.36,4075.9,4098.46,4082.56,4104.1,4094.36,4091.79,4098.97,4091.28,4094.87,4021.54,4096.41,4070.77,4102.56,0
12_6_40,112,4099.49,4077.44,4102.05,4088.21,4108.72,4105.13,4092.82,4098.46,4082.05,4091.28,4021.03,4104.1,4072.82,4107.18,0
12_6_40,113,4096.92,4080,4099.49,4083.59,4111.79,4108.72,4092.82,4098.46,4071.79,4079.49,4012.31,4098.97,4063.08,4102.05,0
12_6_40,114,4096.41,4085.13,4097.44,4081.54,4108.21,4097.95,4092.31,4098.97,4079.49,4075.9,4007.69,4089.23,4056.92,4097.95,0
12_6_40,115,4097.95,4087.18,4098.46,4084.62,4107.69,4094.36,4092.82,4097.95,4092.31,4083.59,4013.85,4091.28,4059.49,4097.44,0
12_6_40,116,4091.28,4080,4095.9,4078.97,4107.69,4103.08,4089.23,4097.95,4081.54,4079.49,4006.67,4090.26,4054.36,4090.26,0
12_6_40,117,4088.21,4076.41,4090.26,4073.85,4104.62,4103.59,4086.15,4097.95,4070.26,4075.38,3994.36,4080,4051.79,4083.59,0
12_6_40,118,4089.23,4077.44,4091.79,4075.38,4105.13,4098.97,4090.77,4096.92,4079.49,4083.08,4000.51,4077.44,4058.46,4084.1,0
12_6_40,119,4088.72,4075.38,4094.87,4075.9,4107.69,4102.56,4092.82,4096.41,4090.77,4094.36,4013.85,4088.21,4064.62,4087.18,0
12_6_40,120,4090.26,4073.85,4095.38,4076.92,4106.15,4101.54,4092.31,4097.44,4098.46,4106.67,4020,4095.9,4068.72,4092.31,0
12_6_40,121,4088.21,4073.33,4093.33,4073.85,4101.03,4092.82,4093.33,4096.92,4092.31,4106.67,4018.46,4087.18,4065.64,4089.23,0
12_6_40,122,4081.54,4071.28,4090.26,4068.21,4093.85,4088.21,4086.15,4096.41,4077.95,4090.77,4016.92,4075.9,4063.59,4080.51,0
12_6_40,123,4080,4073.33,4090.26,4068.21,4093.85,4089.23,4082.56,4097.95,4083.59,4087.69,4020.51,4076.41,4069.74,4080.51,0
12_6_40,124,4081.54,4075.38,4090.77,4066.67,4101.54,4088.21,4088.72,4098.97,4090.77,4094.36,4020.51,4077.95,4073.33,4087.18,0
12_6_40,125,4085.13,4074.36,4093.33,4067.69,4106.67,4086.15,4085.13,4098.97,4076.41,4091.28,4017.44,4073.85,4072.82,4091.28,0
12_6_40,126,4094.87,4082.56,4099.49,4081.03,4108.72,4090.77,4081.54,4097.44,4079.49,4098.97,4024.62,4081.54,4077.44,4093.85,0
12_6_40,127,4097.95,4087.18,4099.49,4084.62,4109.74,4094.87,4091.79,4097.44,4098.97,4111.28,4032.31,4092.82,4078.97,4095.9,0
12_6_40,128,4091.79,4077.44,4092.31,4073.33,4104.1,4093.33,4091.79,4096.41,4088.72,4107.18,4030.26,4088.72,4075.38,4093.33,0
12_6_40,0,4092.82,4077.95,4094.36,4072.82,4100.51,4090.26,4085.64,4096.41,4074.87,4102.56,4031.28,4081.03,4074.36,4090.77,0
12_6_40,1,4094.87,4078.97,4096.41,4074.87,4104.1,4091.79,4087.18,4097.95,4087.18,4103.08,4029.23,4079.49,4069.23,4091.28,0
12_6_40,2,4089.23,4070.26,4090.26,4068.21,4103.59,4091.28,4085.64,4098.46,4088.21,4097.95,4017.95,4075.9,4058.46,4089.23,0
12_6_40,3,4088.72,4074.87,4090.77,4069.23,4102.05,4090.77,4083.08,4097.95,4073.85,4096.41,4016.92,4075.38,4057.95,4089.74,0
12_6_40,4,4092.82,4084.62,4097.44,4074.87,4105.64,4098.46,4090.26,4098.46,4076.41,4107.69,4029.23,4080.51,4068.72,4091.28,0
12_6_40,5,4092.82,4082.56,4096.92,4073.85,4109.74,4105.13,4092.31,4098.46,4093.85,4118.46,4040,4086.67,4076.92,4091.79,0
12_6_40,6,4094.87,4086.67,4097.44,4075.38,4109.74,4101.54,4092.31,4097.95,4097.95,4125.13,4048.72,4091.79,4080,4100.51,0
12_6_40,7,4097.95,4088.21,4099.49,4077.44,4107.69,4094.36,4095.38,4097.44,4089.74,4126.67,4051.28,4086.15,4079.49,4103.08,0
12_6_40,8,4092.82,4075.9,4097.95,4073.85,4106.67,4091.79,4093.33,4097.95,4087.18,4121.54,4048.21,4077.44,4075.9,4090.26,0
12_6_40,9,4090.77,4080.51,4099.49,4075.9,4108.21,4093.85,4090.26,4098.46,4089.23,4118.97,4050.26,4084.62,4075.9,4088.21,0
12_6_40,10,4093.33,4091.28,4102.05,4077.44,4108.21,4092.31,4090.77,4098.46,4088.72,4120,4054.36,4093.33,4077.44,4095.38,0
12_6_40,11,4095.38,4089.23,4099.49,4079.49,4108.72,4098.46,4092.82,4097.95,4081.03,4113.33,4051.79,4090.26,4075.38,4092.31,0
12_6_40,12,4098.46,4091.28,4098.46,4086.15,4110.77,4104.62,4093.85,4098.46,4082.56,4107.69,4051.28,4090.26,4073.85,4093.33,0
12_6_40,13,4100,4091.28,4097.44,4083.59,4108.21,4100.51,4089.74,4099.49,4093.85,4112.82,4059.49,4091.28,4075.38,4100.51,0
12_6_40,14,4095.9,4078.97,4096.92,4075.9,4105.64,4096.92,4088.21,4098.46,4090.77,4111.28,4062.05,4086.67,4074.36,4096.41,0
12_6_40,15,4094.87,4076.92,4098.46,4079.49,4110.26,4104.62,4094.36,4098.46,4080,4104.1,4057.95,4084.62,4073.33,4093.33,0
12_6_40,16,4098.97,4084.1,4098.97,4084.62,4107.18,4108.72,4096.41,4098.97,4084.1,4106.67,4064.1,4086.67,4078.97,4097.44,0
12_6_40,17,4097.95,4079.49,4096.41,4078.97,4097.95,4100,4093.33,4098.46,4091.28,4108.72,4071.28,4081.54,4077.44,4093.85,0
12_6_40,18,4093.33,4072.82,4095.38,4075.38,4101.03,4096.92,4094.87,4098.97,4089.23,4104.1,4069.74,4079.49,4069.74,4088.72,0
12_6_40,19,4091.28,4074.87,4094.36,4077.95,4107.18,4095.9,4094.36,4100,4092.31,4105.13,4069.74,4084.1,4072.82,4090.26,0
12_6_40,20,4095.38,4076.41,4095.38,4079.49,4106.67,4092.31,4090.26,4099.49,4093.33,4109.23,4076.92,4085.13,4083.08,4092.82,0
12_6_40,21,4099.49,4074.87,4098.97,4079.49,4105.13,4095.38,4090.26,4097.95,4081.03,4107.69,4081.03,4085.64,4081.03,4093.33,0
12_6_40,22,4093.85,4073.85,4095.38,4078.97,4102.05,4104.1,4093.85,4097.44,4080.51,4105.64,4074.87,4085.13,4070.77,4089.74,0
12_6_40,23,4088.72,4075.9,4090.26,4078.46,4097.95,4105.64,4094.87,4097.44,4092.31,4106.67,4072.82,4083.59,4067.18,4084.1,0
12_6_40,24,4091.28,4074.36,4092.31,4077.44,4102.05,4100,4090.77,4097.44,4092.31,4105.64,4072.82,4080.51,4064.1,4077.95,0
12_6_40,25,4093.85,4070.26,4097.95,4078.46,4107.69,4097.44,4088.72,4097.44,4089.74,4106.15,4068.21,4080,4060.51,4080,0
12_6_40,26,4093.85,4072.82,4100,4080.51,4101.03,4095.9,4093.33,4099.49,4092.82,4109.23,4070.26,4086.15,4060,4087.69,0
12_6_40,27,4092.31,4075.9,4097.95,4080,4093.33,4097.95,4094.87,4099.49,4088.72,4106.15,4073.85,4089.74,4063.08,4087.18,0
12_6_40,28,4094.36,4078.97,4097.44,4081.54,4098.46,4102.56,4093.85,4097.44,4097.95,4112.31,4075.9,4088.72,4075.9,4083.59,0
12_6_40,29,4097.95,4087.69,4100.51,4090.26,4107.18,4100,4095.38,4097.95,4106.15,4123.08,4084.1,4088.21,4089.23,4090.26,0
12_6_40,30,4096.41,4086.67,4101.03,4090.77,4105.64,4096.41,4094.87,4099.49,4090.77,4113.85,4090.26,4085.64,4085.13,4094.36,0
12_6_40,31,4090.77,4073.85,4097.95,4081.03,4098.97,4101.54,4091.28,4096.41,4081.54,4096.41,4078.97,4076.92,4075.38,4084.62,0
12_6_40,32,4090.26,4073.85,4095.9,4080.51,4097.44,4103.59,4090.77,4094.87,4082.05,4091.28,4069.23,4073.85,4072.31,4077.44,0
12_6_40,33,4090.26,4080.51,4094.36,4082.56,4094.87,4095.38,4088.21,4097.95,4072.31,4090.26,4076.41,4076.92,4068.72,4077.44,0
12_6_40,34,4086.15,4072.82,4093.85,4074.87,4090.26,4090.26,4084.62,4099.49,4072.31,4088.72,4086.67,4076.41,4067.18,4075.9,0
12_6_40,35,4089.23,4071.79,4097.44,4077.44,4094.36,4091.79,4088.21,4096.92,4088.21,4093.85,4093.85,4079.49,4075.38,4075.9,0
12_6_40,36,4093.85,4081.54,4097.95,4088.72,4100,4091.79,4090.77,4095.9,4089.23,4095.9,4088.21,4081.03,4074.87,4077.44,0
12_6_40,37,4090.77,4077.95,4094.36,4086.67,4097.95,4092.31,4092.31,4096.92,4090.77,4097.95,4083.08,4078.46,4065.64,4080.51,0
12_6_40,38,4090.77,4073.85,4096.41,4080,4093.85,4097.44,4096.41,4101.03,4094.87,4099.49,4090.26,4076.92,4066.15,4083.59,0
12_6_40,39,4098.46,4085.64,4097.95,4085.13,4097.95,4098.97,4095.38,4098.97,4081.54,4091.79,4089.23,4077.95,4075.38,4089.74,0
12_6_40,40,4094.36,4086.15,4095.38,4085.64,4104.1,4096.92,4091.28,4091.28,4073.85,4084.62,4082.05,4074.87,4076.41,4089.74,0
12_6_40,41,4090.26,4078.46,4094.87,4080,4107.18,4101.54,4092.31,4093.85,4088.72,4089.23,4093.33,4075.38,4074.87,4090.26,0
12_6_40,42,4100.51,4085.64,4097.44,4084.62,4105.64,4106.67,4095.38,4100.51,4107.69,4097.44,4109.74,4085.13,4085.64,4098.97,0
12_6_40,43,4103.59,4087.69,4096.41,4092.82,4098.97,4098.97,4093.33,4099.49,4092.82,4091.28,4103.59,4087.69,4090.77,4097.95,0
12_6_40,44,4094.36,4074.87,4094.36,4087.69,4092.82,4090.77,4091.28,4096.92,4064.62,4071.79,4084.62,4074.87,4077.44,4083.59,0
12_6_40,45,4088.72,4072.31,4090.77,4076.41,4095.9,4097.44,4092.82,4098.97,4064.1,4053.85,4070.77,4063.08,4060,4074.36,0
12_6_40,46,4087.69,4075.38,4089.74,4075.38,4103.59,4107.18,4092.82,4098.97,4078.97,4051.79,4066.67,4064.62,4051.28,4072.31,0
12_6_40,47,4092.31,4077.95,4094.87,4082.05,4108.21,4103.08,4090.26,4097.44,4079.49,4058.97,4074.87,4073.33,4054.36,4078.46,0
12_6_40,48,4103.08,4086.15,4100.51,4087.69,4104.62,4094.36,4089.23,4098.97,4076.41,4060.51,4086.15,4081.03,4066.67,4089.74,0
12_6_40,49,4106.15,4088.21,4099.49,4089.23,4097.95,4093.85,4092.31,4098.97,4085.64,4060.51,4091.79,4081.03,4075.38,4094.36,0
12_6_40,50,4104.1,4085.64,4097.95,4090.26,4101.03,4101.03,4096.92,4097.44,4091.28,4059.49,4092.31,4079.49,4075.38,4092.31,0
12_6_40,51,4105.13,4089.74,4097.95,4090.77,4108.72,4104.1,4098.46,4096.92,4089.23,4050.26,4091.79,4083.59,4072.31,4091.79,0
12_6_40,52,4105.13,4093.85,4100.51,4089.23,4109.23,4107.18,4099.49,4098.97,4090.26,4047.18,4095.38,4089.74,4071.79,4095.9,0
12_6_40,53,4107.18,4093.33,4102.05,4090.77,4107.18,4111.79,4107.69,4100,4094.36,4056.41,4105.13,4095.38,4079.49,4104.62,0
12_6_40,54,4109.23,4090.77,4099.49,4091.79,4108.72,4109.74,4107.18,4096.92,4089.23,4049.23,4111.28,4097.44,4084.1,4109.74,0
12_6_40,55,4107.18,4092.82,4098.97,4091.79,4111.79,4103.08,4096.92,4097.95,4079.49,4031.28,4106.15,4097.44,4078.46,4107.69,0
12_6_40,56,4106.67,4098.46,4099.49,4092.82,4111.28,4104.1,4093.85,4098.46,4080.51,4025.64,4096.41,4094.36,4069.23,4106.15,0
12_6_40,57,4109.23,4097.44,4098.46,4093.33,4107.69,4108.21,4096.92,4093.85,4076.41,4020,4089.23,4089.23,4058.97,4104.1,0
12_6_40,58,4109.23,4092.82,4097.44,4091.28,4107.69,4106.15,4095.9,4094.87,4073.33,4013.33,4087.18,4088.72,4060,4105.64,0
12_6_40,59,4109.23,4092.82,4100,4092.31,4110.26,4103.59,4095.9,4100.51,4083.08,4012.82,4089.74,4092.31,4065.64,4110.26,0
12_6_40,60,4108.72,4093.33,4100.51,4093.33,4108.21,4105.13,4098.97,4100,4081.54,4003.59,4089.23,4091.79,4057.44,4106.15,0
12_6_40,61,4107.69,4090.77,4098.97,4090.77,4110.77,4106.67,4097.44,4097.95,4072.31,3988.21,4077.95,4082.05,4044.1,4095.38,0
12_6_40,62,4106.67,4090.77,4097.44,4087.69,4115.38,4107.69,4093.33,4099.49,4075.38,3980,4066.67,4075.9,4042.05,4093.33,0
12_6_40,63,4107.18,4095.38,4097.95,4091.79,4116.41,4109.23,4094.87,4100.51,4071.79,3971.28,4063.59,4081.54,4049.74,4096.41,0
12_6_40,64,4109.74,4098.46,4096.92,4097.44,4117.95,4111.28,4100.51,4099.49,4060.51,3956.41,4061.54,4083.59,4064.1,4094.87,0
12_6_40,65,4105.64,4088.72,4093.33,4091.28,4114.87,4111.28,4100,4098.46,4061.54,3938.97,4058.46,4075.38,4082.05,4090.77,0
12_6_40,66,4095.38,4076.92,4090.26,4076.92,4106.67,4104.1,4091.79,4098.46,4063.08,3927.18,4058.97,4072.31,4101.03,4090.77,0
12_6_40,67,4092.31,4078.46,4091.79,4074.36,4102.56,4098.97,4089.74,4098.97,4053.85,3920,4064.1,4077.44,4114.87,4091.79,0
12_6_40,68,4091.79,4075.9,4093.33,4076.92,4105.13,4102.56,4091.79,4098.46,4057.44,3913.33,4066.67,4078.46,4115.38,4090.26,0
12_6_40,69,4095.9,4069.23,4091.79,4075.38,4106.67,4107.69,4092.31,4098.97,4073.33,3913.33,4071.79,4083.08,4113.85,4090.77,0
12_6_40,70,4103.59,4075.38,4092.82,4075.38,4106.15,4106.15,4092.82,4098.46,4066.67,3910.26,4074.87,4090.77,4120,4093.85,0
12_6_40,71,4102.05,4085.13,4094.36,4076.92,4107.69,4105.13,4096.41,4098.46,4047.69,3896.41,4072.31,4090.26,4118.97,4095.38,0
12_6_40,72,4094.87,4084.1,4094.87,4076.41,4111.79,4109.74,4096.92,4100,4049.23,3882.05,4068.72,4091.28,4110.26,4096.41,0
12_6_40,73,4090.77,4076.92,4092.82,4074.87,4108.21,4110.77,4091.79,4096.41,4055.9,3870.77,4058.97,4092.31,4093.33,4091.28,0
12_6_40,74,4095.38,4074.36,4089.74,4071.28,4102.05,4106.67,4088.21,4092.31,4053.33,3860.51,4051.28,4084.62,4074.87,4086.15,0
12_6_40,75,4102.05,4077.44,4089.23,4069.23,4105.64,4105.64,4091.28,4095.38,4061.03,3864.62,4058.46,4084.1,4074.36,4089.74,0
12_6_40,76,4102.56,4076.41,4088.72,4068.21,4104.1,4107.18,4096.41,4099.49,4063.08,3868.21,4062.56,4092.31,4080.51,4092.82,0
12_6_40,77,4092.31,4068.21,4085.13,4061.03,4091.79,4104.1,4089.23,4097.95,4044.62,3853.85,4045.64,4086.67,4069.74,4083.08,0
12_6_40,78,4084.1,4063.08,4082.56,4055.9,4088.72,4096.92,4079.49,4098.46,4038.97,3841.03,4036.41,4074.87,4053.33,4076.41,0
12_6_40,79,4082.05,4061.54,4083.08,4058.46,4095.38,4093.33,4080.51,4100.51,4044.62,3832.31,4038.97,4074.36,4045.64,4075.9,0
12_6_40,80,4078.97,4059.49,4083.08,4057.95,4096.92,4093.33,4081.03,4099.49,4038.46,3818.97,4029.23,4075.38,4034.87,4069.74,0
12_6_40,81,4082.56,4057.95,4082.56,4056.41,4091.79,4090.77,4074.36,4097.44,4027.18,3804.62,4018.46,4073.33,4022.56,4067.18,0
12_6_40,82,4087.69,4057.95,4084.62,4055.9,4089.74,4090.26,4073.85,4097.95,4030.77,3797.95,4018.97,4079.49,4013.85,4076.41,0
12_6_40,83,4091.28,4061.03,4086.15,4055.38,4092.82,4096.41,4085.13,4097.95,4043.08,3804.1,4023.08,4091.28,4008.21,4087.69,0
12_6_40,84,4102.05,4069.23,4090.26,4060,4095.9,4098.97,4093.85,4094.36,4042.05,3810.77,4023.59,4097.95,4009.74,4093.33,0
12_6_40,85,4110.77,4072.31,4093.33,4066.67,4096.41,4094.36,4092.82,4090.77,4029.74,3803.59,4017.95,4094.87,4009.23,4094.36,0
12_6_40,86,4103.59,4061.54,4090.77,4063.59,4095.38,4091.28,4087.18,4093.33,4029.23,3793.85,4010.77,4091.79,3997.44,4092.31,0
12_6_40,87,4090.77,4051.28,4087.18,4053.85,4091.28,4092.31,4088.21,4098.46,4031.79,3790.77,4004.62,4089.23,3987.18,4089.74,0
12_6_40,88,4091.28,4050.26,4089.23,4052.82,4091.28,4094.87,4090.77,4100,4030.77,3787.69,4009.23,4089.23,3989.74,4090.77,0
12_6_40,89,4100.51,4054.87,4092.31,4060.51,4098.46,4095.38,4083.59,4096.92,4033.85,3789.74,4017.44,4093.33,3994.87,4093.85,0
12_6_40,90,4101.54,4052.31,4091.28,4056.41,4091.28,4086.67,4072.31,4096.41,4020,3780,4004.1,4089.23,3983.59,4090.26,0
12_6_40,91,4096.41,4041.54,4089.74,4043.59,4077.44,4079.49,4070.26,4100.51,4003.59,3754.36,3983.08,4082.56,3961.03,4084.62,0
12_6_40,92,4098.97,4038.97,4091.28,4046.15,4081.54,4088.21,4081.03,4097.44,4020.51,3755.9,3989.74,4091.28,3953.85,4093.33,0
12_6_40,93,4100.51,4037.95,4090.77,4051.28,4085.13,4095.9,4089.23,4090.26,4029.74,3770.26,3993.33,4095.9,3960,4095.9,0
12_6_40,94,4088.21,4028.72,4082.56,4041.54,4079.49,4092.82,4089.23,4096.92,4009.23,3754.87,3966.67,4076.92,3949.23,4078.46,0
12_6_40,95,4090.26,4028.21,4081.03,4040,4083.59,4092.82,4083.59,4105.13,4006.67,3742.05,3958.46,4070.26,3935.38,4075.38,0
12_6_40,96,4107.69,4035.38,4092.82,4049.74,4087.18,4093.85,4076.92,4096.41,4015.38,3749.74,3974.36,4088.72,3942.05,4093.33,0
12_6_41,97,4107.69,4028.72,4096.41,4047.18,4076.41,4091.79,4073.85,4091.28,4006.15,3743.59,3971.79,4094.87,3945.13,4097.95,0
12_6_41,98,4093.33,4015.9,4087.18,4034.36,4074.36,4088.72,4075.9,4095.9,4002.05,3731.28,3960.51,4081.54,3932.82,4086.15,0
12_6_41,99,4088.72,4012.82,4087.69,4033.33,4081.54,4084.1,4078.46,4097.44,4005.13,3731.79,3953.33,4074.36,3925.13,4080.51,0
12_6_41,100,4091.79,4017.95,4091.79,4042.05,4082.05,4085.13,4078.46,4097.44,4002.56,3732.82,3945.64,4074.87,3926.15,4080,0
12_6_41,101,4091.28,4022.56,4089.74,4041.54,4078.97,4091.28,4077.95,4096.41,3996.41,3726.15,3941.03,4069.74,3925.64,4078.97,0
12_6_41,102,4093.33,4021.03,4088.72,4034.87,4078.46,4093.33,4081.54,4092.31,4000,3724.62,3941.03,4068.72,3924.1,4084.62,0
12_6_41,103,4101.54,4021.54,4094.36,4039.49,4080.51,4093.85,4089.74,4093.33,4005.13,3726.15,3945.13,4084.1,3925.64,4093.33,0
12_6_41,104,4110.26,4021.03,4097.44,4049.23,4083.59,4094.36,4087.69,4095.38,4000,3722.56,3952.82,4097.44,3927.18,4098.46,0
12_6_41,105,4105.64,4009.74,4091.28,4044.62,4081.54,4087.18,4076.92,4093.33,3987.18,3708.72,3944.62,4088.72,3918.97,4093.33,0
12_6_41,106,4086.15,3998.97,4081.54,4028.72,4076.92,4085.13,4078.46,4092.31,3979.49,3690.77,3917.95,4066.67,3897.95,4076.41,0
12_6_41,107,4076.41,3997.95,4081.03,4023.08,4076.92,4096.92,4085.64,4094.87,3976.92,3682.56,3904.1,4051.79,3880.51,4064.1,0
12_6_41,108,4078.97,3995.38,4083.59,4025.13,4078.97,4095.38,4081.03,4094.87,3971.28,3678.97,3905.13,4048.21,3878.46,4068.72,0
12_6_41,109,4076.92,3991.79,4081.54,4023.59,4075.9,4081.03,4074.87,4092.31,3974.36,3678.46,3905.64,4054.36,3880.51,4076.92,0
12_6_41,110,4076.92,3988.21,4082.56,4020,4068.72,4081.54,4078.97,4092.31,3983.59,3682.05,3908.21,4059.49,3879.49,4075.38,0
12_6_41,111,4085.13,3984.1,4086.67,4018.46,4064.62,4091.79,4085.64,4093.33,3985.13,3681.54,3910.77,4057.44,3874.87,4073.33,0
12_6_41,112,4094.87,3993.33,4091.79,4022.56,4069.23,4091.28,4090.26,4095.38,3987.69,3687.18,3910.26,4063.59,3876.92,4086.67,0
12_6_41,113,4104.1,4007.18,4094.36,4028.21,4078.97,4090.26,4089.23,4096.92,3997.95,3702.05,3914.87,4081.03,3885.64,4106.67,0
12_6_41,114,4101.03,4000.51,4091.28,4025.64,4081.03,4095.38,4085.13,4094.87,3996.41,3701.03,3913.33,4081.03,3877.95,4105.64,0
12_6_41,115,4081.54,3980,4084.1,4013.85,4073.85,4094.36,4081.03,4094.87,3973.85,3674.36,3888.21,4058.97,3847.69,4083.08,0
12_6_41,116,4071.28,3969.74,4082.56,4010.26,4072.82,4089.74,4077.95,4100.51,3969.23,3661.54,3870.26,4046.67,3826.67,4067.18,0
12_6_41,117,4075.9,3973.85,4085.13,4016.41,4077.95,4091.28,4082.05,4100,3982.56,3679.49,3876.92,4053.85,3835.9,4068.72,0
12_6_41,118,4082.05,3983.59,4085.64,4018.46,4080,4101.03,4093.33,4093.33,3980.51,3691.28,3881.03,4058.97,3848.21,4077.95,0
12_6_41,119,4088.21,3989.74,4083.08,4017.95,4077.95,4105.13,4092.31,4092.82,3973.33,3686.67,3882.05,4055.9,3847.69,4088.21,0
12_6_41,120,4092.82,3987.69,4086.67,4020,4076.92,4097.44,4082.56,4093.85,3976.92,3686.15,3894.36,4058.97,3846.15,4093.33,0
12_6_41,121,4096.41,3987.69,4092.31,4022.56,4077.44,4091.79,4084.62,4094.36,3980,3687.18,3896.92,4069.23,3850.26,4100,0
12_6_41,122,4098.97,3992.31,4090.26,4021.54,4077.44,4095.38,4088.72,4099.49,3972.31,3674.87,3884.62,4068.21,3845.64,4106.67,0
12_6_41,123,4096.41,3991.28,4091.79,4022.56,4075.9,4095.38,4082.56,4100.51,3970.77,3665.64,3880.51,4061.03,3834.36,4102.05,0
12_6_41,124,4092.82,3979.49,4094.87,4023.08,4073.85,4091.79,4081.03,4093.33,3975.38,3670.77,3878.46,4059.49,3829.74,4092.82,0
12_6_41,125,4086.15,3968.21,4088.21,4012.82,4074.87,4090.26,4082.56,4090.77,3965.13,3671.28,3866.15,4052.31,3819.49,4088.21,0
12_6_41,126,4075.38,3969.23,4081.54,4007.18,4075.38,4086.67,4076.41,4092.82,3958.97,3666.67,3861.03,4036.92,3807.18,4082.05,0
12_6_41,127,4074.36,3973.85,4085.13,4007.69,4069.23,4088.21,4073.85,4093.33,3970.26,3666.67,3863.08,4024.1,3808.21,4076.92,0
12_6_41,128,4086.15,3971.79,4088.72,4010.26,4065.64,4092.31,4074.87,4094.36,3969.23,3663.08,3863.08,4025.13,3811.79,4090.26,0
12_6_41,0,4094.36,3970.77,4089.74,4014.36,4066.15,4090.26,4073.85,4096.92,3952.82,3648.72,3863.08,4031.79,3804.62,4106.15,0
12_6_41,1,4092.82,3973.85,4089.23,4013.33,4064.1,4087.69,4073.85,4095.38,3954.87,3635.9,3862.05,4032.31,3799.49,4103.08,0
12_6_41,2,4090.77,3974.87,4087.69,4010.26,4063.08,4090.26,4072.31,4092.82,3958.46,3636.92,3852.31,4026.15,3800,4091.28,0
12_6_41,3,4089.74,3974.36,4089.23,4014.36,4067.18,4092.82,4071.79,4093.85,3959.49,3648.21,3846.67,4024.1,3794.36,4089.23,0
12_6_41,4,4091.28,3975.38,4091.79,4016.41,4072.82,4093.85,4074.87,4096.92,3973.85,3662.56,3856.92,4023.59,3792.31,4097.95,0
12_6_41,5,4088.72,3974.36,4089.74,4012.31,4073.85,4093.33,4073.85,4096.41,3971.79,3670.26,3860.51,4011.79,3795.9,4101.03,0
12_6_41,6,4085.13,3972.82,4089.74,4013.33,4070.77,4092.82,4067.69,4091.28,3963.08,3670.77,3851.79,4008.21,3795.9,4103.59,0
12_6_41,7,4087.18,3971.28,4090.26,4012.82,4066.15,4092.31,4066.15,4092.82,3974.36,3671.28,3850.26,4013.33,3791.28,4107.69,0
12_6_41,8,4087.18,3965.64,4090.26,4006.15,4061.54,4086.67,4064.1,4096.92,3971.28,3662.56,3847.69,4011.79,3785.64,4102.05,0
12_6_41,9,4084.1,3960.51,4091.28,4005.13,4058.46,4079.49,4062.05,4093.85,3955.9,3647.69,3831.28,4007.69,3782.56,4102.56,0
12_6_41,10,4084.1,3961.03,4089.74,3998.97,4056.41,4075.38,4060,4093.85,3958.97,3635.38,3814.87,3991.79,3776.92,4109.23,0
12_6_41,11,4077.44,3955.9,4082.56,3989.23,4055.9,4074.87,4053.33,4097.44,3954.36,3621.03,3798.46,3949.74,3760.51,4100,0
12_6_41,12,4064.1,3952.82,4083.08,3987.69,4057.44,4077.44,4053.33,4095.38,3931.28,3613.33,3774.87,3908.72,3746.67,4085.13,0
12_6_41,13,4060.51,3954.87,4086.15,3991.79,4062.56,4075.38,4050.26,4092.82,3937.44,3627.69,3765.64,3904.1,3750.77,4088.21,0
12_6_41,14,4065.13,3949.23,4083.08,3989.74,4061.03,4069.23,4038.97,4097.44,3962.05,3643.08,3770.77,3910.26,3756.41,4094.36,0
12_6_41,15,4064.1,3940,4083.08,3982.05,4049.23,4064.1,4037.95,4098.46,3957.95,3637.44,3765.13,3905.64,3751.28,4088.72,0
12_6_41,16,4062.56,3941.54,4085.13,3981.03,4041.03,4059.49,4046.15,4093.33,3943.59,3631.28,3757.95,3909.23,3750.26,4086.67,0
12_6_41,17,4070.77,3944.62,4086.15,3984.62,4044.62,4060.51,4051.28,4091.79,3949.74,3635.9,3760.51,3924.62,3757.44,4093.85,0
12_6_41,18,4075.38,3945.13,4088.21,3981.54,4051.28,4070.26,4055.9,4093.85,3956.92,3636.41,3752.31,3930.26,3759.49,4101.03,0
12_6_41,19,4063.59,3943.59,4087.18,3973.33,4052.31,4077.95,4056.92,4092.82,3948.21,3624.62,3723.08,3915.9,3746.15,4091.28,0
12_6_41,20,4053.85,3942.05,4082.56,3970.26,4055.9,4078.46,4050.26,4090.26,3936.92,3612.82,3708.21,3905.13,3727.69,4075.38,0
12_6_41,21,4063.08,3951.79,4084.1,3974.36,4068.21,4077.95,4049.74,4091.79,3933.85,3620,3721.03,3909.23,3727.69,4081.03,0
12_6_41,22,4070.26,3958.46,4087.18,3975.9,4073.33,4076.41,4051.79,4095.9,3948.21,3644.1,3730.26,3912.31,3740.51,4091.28,0
12_6_41,23,4064.1,3947.69,4086.15,3973.85,4068.21,4073.85,4048.72,4093.85,3962.05,3658.97,3728.21,3909.23,3741.54,4087.18,0
12_6_41,24,4061.54,3939.49,4084.62,3972.82,4062.56,4073.33,4050.26,4091.79,3948.72,3655.9,3728.72,3915.9,3738.46,4086.15,0
12_6_41,25,4064.1,3940,4086.67,3968.72,4063.59,4075.38,4060.51,4094.87,3936.92,3654.87,3731.28,3926.15,3738.46,4092.82,0
12_6_41,26,4065.64,3943.08,4085.64,3964.1,4071.79,4073.85,4060,4097.95,3954.87,3662.05,3730.26,3920.51,3737.95,4090.26,0
12_6_41,27,4058.97,3941.54,4081.54,3958.46,4073.33,4069.74,4047.69,4096.41,3963.08,3661.03,3728.21,3911.79,3735.9,4084.1,0
12_6_41,28,4045.64,3929.74,4080.51,3947.69,4065.64,4066.67,4041.03,4091.28,3936.92,3647.18,3723.08,3904.62,3730.26,4075.9,0
12_6_41,29,4037.44,3916.41,4082.05,3937.44,4065.64,4065.13,4040.51,4089.74,3918.46,3637.95,3722.05,3894.36,3719.49,4064.62,0
12_6_41,30,4042.56,3919.49,4082.56,3941.03,4073.33,4062.56,4035.9,4093.85,3930.77,3646.67,3734.36,3893.85,3721.03,4066.15,0
12_6_41,31,4050.26,3926.15,4083.08,3950.26,4075.9,4064.62,4033.33,4094.36,3945.13,3668.72,3749.74,3906.67,3733.85,4076.92,0
12_6_41,32,4047.18,3924.62,4082.56,3947.18,4075.9,4069.74,4041.03,4092.31,3948.72,3686.67,3755.9,3912.82,3738.46,4078.46,0
12_6_41,33,4040,3920.51,4081.54,3941.54,4079.49,4069.74,4045.64,4094.36,3953.85,3694.87,3758.46,3908.21,3736.41,4073.33,0
12_6_41,34,4043.59,3917.95,4083.08,3942.05,4077.95,4067.18,4040,4096.92,3958.97,3699.49,3764.62,3911.79,3738.46,4073.85,0
12_6_41,35,4052.82,3921.03,4084.62,3944.1,4078.46,4065.13,4034.87,4093.85,3958.97,3702.56,3766.15,3919.49,3742.56,4080,0
12_6_41,36,4046.67,3922.05,4083.08,3943.08,4086.67,4065.64,4035.9,4090.26,3954.87,3701.54,3758.46,3916.92,3745.13,4077.44,0
12_6_41,37,4032.82,3918.46,4081.54,3940,4091.28,4070.77,4037.44,4090.77,3942.05,3693.33,3750.26,3908.21,3750.77,4062.56,0
12_6_41,38,4039.49,3922.56,4083.08,3943.08,4090.77,4072.82,4037.44,4093.85,3938.46,3697.95,3758.97,3907.69,3771.79,4056.92,0
12_6_41,39,4051.79,3928.21,4086.15,3943.59,4089.74,4070.77,4041.03,4093.85,3951.79,3716.41,3772.31,3916.92,3798.97,4065.13,0
12_6_41,40,4048.72,3926.15,4086.67,3936.92,4091.28,4065.64,4037.95,4091.28,3958.46,3725.13,3780.51,3923.59,3815.9,4068.21,0
12_6_41,41,4044.1,3924.62,4084.62,3933.85,4089.74,4062.56,4035.9,4094.36,3958.97,3736.41,3792.82,3927.18,3829.23,4067.69,0
12_6_41,42,4046.15,3926.15,4083.08,3936.92,4083.59,4066.15,4043.59,4095.9,3956.41,3747.69,3800.51,3928.72,3841.03,4068.72,0
12_6_41,43,4045.13,3924.62,4081.03,3930.26,4082.56,4069.23,4044.1,4095.38,3945.13,3743.08,3796.92,3928.72,3838.46,4065.13,0
12_6_41,44,4043.08,3920.51,4079.49,3923.08,4090.26,4067.18,4036.41,4096.92,3944.1,3742.56,3797.95,3935.9,3836.92,4060,0
12_6_41,45,4044.1,3916.41,4076.92,3925.64,4093.33,4066.15,4032.82,4094.87,3950.26,3756.41,3806.67,3939.49,3846.67,4057.44,0
12_6_41,46,4040.51,3911.28,4075.38,3924.62,4089.74,4068.21,4032.31,4089.74,3941.54,3757.95,3805.64,3929.74,3849.23,4048.72,0
12_6_41,47,4034.36,3911.79,4074.36,3918.46,4089.23,4065.13,4030.26,4089.23,3941.03,3753.85,3807.18,3924.1,3841.03,4038.97,0
12_6_41,48,4032.82,3918.46,4072.82,3917.44,4091.79,4068.21,4033.85,4091.28,3956.92,3765.64,3815.9,3932.82,3841.03,4040,0
12_6_41,49,4034.36,3918.97,4072.82,3915.9,4093.33,4073.85,4038.97,4090.26,3949.74,3772.82,3817.95,3931.79,3845.64,4042.56,0
12_6_41,50,4036.41,3911.79,4077.95,3912.82,4093.85,4068.21,4035.9,4090.77,3945.13,3775.9,3823.08,3923.59,3846.15,4038.46,0
12_6_41,51,4030.77,3909.23,4080,3910.26,4091.28,4064.1,4032.31,4093.85,3965.13,3791.28,3831.79,3926.67,3846.67,4034.87,0
12_6_41,52,4018.97,3915.38,4077.95,3909.74,4094.87,4072.82,4040,4094.36,3968.72,3801.54,3832.31,3927.69,3849.23,4031.28,0
12_6_41,53,4012.82,3924.62,4081.03,3915.9,4106.15,4080,4045.13,4089.74,3954.36,3801.03,3831.28,3929.23,3857.95,4030.77,0
12_6_41,54,4013.33,3928.21,4084.1,3924.1,4111.28,4078.46,4038.97,4087.18,3953.33,3802.05,3836.92,3936.92,3865.13,4036.92,0
