TIME, ED_COUNTER, AF3, F7, F3, FC5, T7, P7, O1, O2, P8, T8, FC6, F4, F8, AF4, LABEL
12_30_29,122,4101.03,4086.15,4084.1,4100,4151.79,4085.64,4100,4091.28,4094.36,4128.21,4112.82,4137.44,4102.56,4143.59,0
12_30_29,123,4109.74,4116.92,4087.18,4087.69,4158.46,4082.56,4096.92,4090.77,4096.92,4144.62,4106.15,4137.95,4129.23,4153.33,0
12_30_29,124,4110.26,4111.79,4082.05,4097.95,4118.46,4085.64,4094.87,4088.21,4088.72,4109.74,4116.92,4135.9,4110.77,4156.41,0
12_30_29,125,4105.64,4095.38,4081.54,4116.92,4130.77,4090.26,4095.9,4091.79,4094.36,4101.54,4123.59,4131.79,4100.51,4148.21,0
12_30_29,126,4093.85,4096.92,4080,4107.69,4152.82,4080.51,4089.23,4086.15,4094.36,4095.9,4100.51,4114.87,4097.44,4136.92,0
12_30_29,127,4085.64,4074.36,4072.31,4090.26,4131.79,4070.77,4083.59,4073.33,4078.46,4089.23,4077.95,4102.05,4073.85,4124.1,0
12_30_29,128,4092.31,4057.95,4075.38,4089.23,4133.33,4076.41,4092.31,4077.44,4069.23,4093.85,4088.72,4113.85,4073.85,4121.54,0
12_30_29,0,4085.13,4078.97,4077.44,4085.13,4114.87,4075.9,4092.31,4077.44,4065.64,4072.82,4090.77,4113.85,4078.97,4118.97,0
12_30_29,1,4060.51,4076.92,4071.28,4076.41,4071.79,4072.31,4083.08,4067.69,4063.59,4067.69,4070.77,4092.82,4050.77,4108.72,0
12_30_29,2,4072.82,4065.13,4079.49,4083.08,4132.82,4087.18,4096.41,4081.54,4085.64,4098.97,4093.85,4106.67,4047.69,4117.95,0
12_30_29,3,4100,4092.31,4088.21,4093.85,4200.51,4092.82,4110.77,4097.44,4100.51,4104.62,4114.87,4132.82,4082.05,4131.28,0
12_30_29,4,4087.69,4107.18,4078.46,4093.33,4137.95,4081.03,4100,4084.1,4082.56,4078.97,4084.62,4116.92,4086.67,4124.1,0
12_30_29,5,4075.9,4086.15,4074.36,4089.74,4081.54,4075.9,4088.72,4080.51,4080.51,4082.56,4075.38,4095.9,4059.49,4116.92,0
12_30_29,6,4088.72,4084.1,4078.46,4082.56,4125.13,4078.46,4092.82,4091.79,4098.46,4118.46,4094.87,4106.67,4054.87,4124.1,0
12_30_29,7,4090.77,4086.67,4074.87,4077.44,4150.77,4077.95,4097.44,4088.21,4092.82,4117.95,4093.85,4114.87,4074.87,4122.05,0
12_30_29,8,4080.51,4081.03,4072.31,4083.59,4133.33,4078.97,4095.38,4081.03,4076.92,4072.31,4085.13,4105.13,4069.74,4107.69,0
12_30_29,9,4075.38,4088.72,4071.28,4080.51,4123.08,4080,4090.77,4072.31,4068.72,4062.05,4071.28,4089.74,4038.97,4098.46,0
12_30_29,10,4071.28,4094.36,4064.62,4071.28,4121.54,4081.54,4088.72,4066.67,4064.1,4101.03,4059.49,4085.13,4036.41,4101.54,0
12_30_29,11,4078.46,4097.44,4068.21,4073.85,4126.15,4084.1,4095.38,4077.44,4069.23,4098.46,4080.51,4099.49,4056.92,4106.15,0
12_30_29,12,4084.1,4094.36,4077.95,4074.87,4114.36,4074.36,4095.38,4076.92,4069.23,4069.74,4085.64,4100,4057.95,4106.67,0
12_30_29,13,4074.87,4090.26,4075.38,4073.33,4104.62,4063.59,4089.74,4063.08,4060.51,4084.62,4058.97,4086.15,4058.46,4109.23,0
12_30_29,14,4075.9,4098.46,4074.87,4081.03,4132.31,4076.92,4093.85,4065.13,4065.13,4084.1,4067.69,4093.33,4069.74,4110.26,0
12_30_29,15,4092.31,4112.31,4087.69,4085.13,4160.51,4088.21,4099.49,4077.95,4082.05,4069.74,4098.46,4113.33,4069.74,4114.87,0
12_30_29,16,4092.31,4117.95,4091.28,4082.05,4127.18,4070.77,4092.31,4069.74,4064.62,4075.38,4085.64,4107.69,4058.97,4113.85,0
12_30_29,17,4089.74,4134.36,4085.64,4085.64,4106.15,4060,4087.69,4054.87,4036.41,4069.74,4063.08,4093.33,4062.56,4113.33,0
12_30_29,18,4098.46,4145.64,4086.15,4088.21,4120,4063.08,4091.28,4056.92,4047.69,4066.67,4072.31,4094.36,4070.26,4121.54,0
12_30_29,19,4095.38,4128.21,4087.69,4082.05,4110.77,4064.62,4089.74,4062.56,4058.97,4082.05,4075.38,4087.69,4069.74,4118.46,0
12_30_29,20,4089.23,4129.23,4091.28,4076.92,4115.38,4067.69,4088.21,4061.03,4045.64,4066.15,4068.72,4085.13,4067.69,4110.26,0
12_30_29,21,4094.36,4138.97,4089.74,4075.9,4122.56,4067.18,4088.72,4058.46,4047.69,4038.46,4076.92,4090.26,4063.59,4110.77,0
12_30_29,22,4090.77,4115.9,4077.44,4074.87,4102.05,4065.13,4083.59,4057.95,4063.59,4061.03,4076.41,4075.9,4055.38,4101.03,0
12_30_29,23,4085.13,4102.56,4074.36,4071.79,4121.03,4068.21,4082.05,4057.95,4061.54,4094.36,4060.51,4064.1,4068.21,4092.31,0
12_30_29,24,4103.08,4131.28,4088.21,4070.26,4158.46,4070.77,4093.33,4061.03,4057.44,4090.26,4063.59,4081.03,4103.59,4110.77,0
12_30_29,25,4120.51,4156.41,4102.56,4075.38,4138.46,4070.26,4106.15,4066.67,4068.72,4069.23,4080.51,4092.31,4113.33,4128.72,0
12_30_29,26,4108.21,4143.08,4107.69,4079.49,4133.85,4075.38,4106.67,4064.62,4076.41,4067.69,4075.9,4078.97,4091.79,4117.95,0
12_30_29,27,4097.95,4134.87,4108.21,4075.9,4180,4081.03,4098.46,4060,4078.46,4092.31,4072.31,4076.92,4086.15,4108.72,0
12_30_29,28,4105.64,4143.08,4108.72,4075.9,4155.38,4074.36,4096.92,4060,4076.41,4089.74,4082.56,4085.64,4097.95,4112.31,0
12_30_29,29,4100,4128.21,4110.77,4076.92,4112.82,4068.72,4105.64,4062.56,4076.41,4056.41,4070.26,4080,4098.97,4110.77,0
12_30_29,30,4081.03,4105.64,4103.59,4065.64,4157.44,4074.36,4103.08,4058.46,4073.33,4055.9,4047.69,4068.21,4086.15,4104.62,0
12_30_29,31,4080,4109.74,4096.92,4062.05,4178.46,4075.38,4091.28,4052.82,4069.74,4077.44,4055.38,4069.74,4075.38,4106.15,0
12_30_29,32,4090.26,4130.77,4100.51,4073.33,4153.85,4068.72,4099.49,4058.46,4072.82,4069.74,4067.18,4079.49,4077.95,4109.23,0
12_30_29,33,4089.23,4136.92,4096.92,4072.31,4176.41,4071.79,4111.28,4063.59,4072.82,4065.64,4051.79,4076.92,4084.1,4102.56,0
12_30_29,34,4089.23,4129.74,4091.79,4067.18,4193.33,4076.92,4105.64,4064.62,4080.51,4074.87,4055.9,4075.38,4087.69,4102.05,0
12_30_29,35,4087.69,4116.92,4092.31,4069.23,4156.92,4071.28,4096.41,4064.62,4086.15,4065.13,4068.72,4075.38,4081.03,4102.05,0
12_30_29,36,4068.21,4098.97,4081.54,4061.03,4148.21,4074.87,4094.87,4052.31,4057.95,4043.08,4033.85,4056.92,4055.38,4085.64,0
12_30_29,37,4058.46,4102.05,4076.92,4058.46,4172.82,4075.9,4098.46,4046.15,4040.51,4041.54,4010.26,4048.21,4050.26,4080,0
12_30_29,38,4083.08,4124.1,4098.97,4075.9,4163.59,4066.67,4104.62,4059.49,4070.26,4057.44,4048.21,4069.74,4080,4093.33,0
12_30_29,39,4098.46,4131.79,4112.31,4084.62,4157.44,4070.77,4107.69,4064.62,4088.72,4063.59,4081.54,4083.08,4083.59,4099.49,0
12_30_29,40,4083.08,4122.56,4098.46,4073.85,4177.95,4080,4104.1,4052.82,4070.26,4054.87,4065.13,4072.82,4057.95,4095.38,0
12_30_29,41,4078.97,4125.64,4093.85,4069.74,4191.28,4083.08,4104.1,4051.28,4067.18,4058.97,4045.64,4064.62,4060.51,4093.85,0
12_30_29,42,4095.38,4133.33,4105.13,4078.97,4188.72,4082.05,4109.23,4060.51,4086.15,4088.72,4049.74,4071.28,4085.13,4094.36,0
12_30_29,43,4084.62,4118.46,4095.9,4072.82,4170.26,4075.9,4103.08,4049.74,4070.26,4074.87,4044.1,4062.56,4073.85,4084.1,0
12_30_29,44,4055.38,4099.49,4076.92,4058.46,4161.54,4066.67,4093.85,4033.85,4041.54,4018.46,4029.74,4040,4041.03,4069.74,0
12_30_29,45,4059.49,4105.64,4086.15,4064.1,4175.9,4066.15,4101.03,4047.18,4058.97,4025.13,4036.92,4043.08,4042.05,4073.85,0
12_30_29,46,4082.56,4124.1,4100,4072.82,4178.46,4071.28,4103.08,4058.97,4077.95,4069.23,4046.15,4063.59,4059.49,4080,0
12_30_29,47,4080,4123.59,4088.21,4067.18,4152.31,4074.36,4093.33,4038.97,4052.31,4058.97,4035.9,4059.49,4050.77,4070.26,0
12_30_29,48,4070.26,4115.38,4086.67,4068.21,4145.64,4073.85,4098.97,4032.31,4044.62,4035.9,4037.44,4051.28,4038.97,4068.72,0
12_30_29,49,4074.87,4122.56,4102.56,4073.85,4173.33,4071.79,4109.23,4051.79,4064.62,4050.26,4046.15,4065.64,4047.69,4077.95,0
12_30_29,50,4080,4124.62,4102.05,4070.26,4171.28,4070.77,4097.95,4054.36,4062.56,4049.23,4042.56,4075.9,4047.18,4081.03,0
12_30_29,51,4080.51,4107.18,4092.31,4069.23,4140,4070.26,4089.23,4047.69,4062.56,4041.54,4057.44,4076.92,4040.51,4086.15,0
12_30_29,52,4075.38,4098.46,4094.36,4067.69,4137.44,4071.28,4092.82,4047.69,4067.69,4057.95,4064.1,4072.82,4046.67,4089.74,0
12_30_29,53,4070.26,4114.36,4100,4064.62,4159.49,4074.87,4094.87,4046.67,4063.59,4073.33,4044.62,4064.1,4049.74,4084.62,0
12_30_29,54,4069.74,4114.36,4095.38,4063.59,4158.97,4074.36,4094.36,4044.1,4056.92,4060,4040.51,4060.51,4043.59,4073.85,0
12_30_29,55,4066.67,4100,4088.72,4059.49,4148.21,4073.33,4095.38,4044.1,4047.18,4034.36,4045.13,4058.46,4038.46,4061.03,0
12_30_29,56,4074.36,4116.41,4098.46,4064.1,4164.62,4074.87,4100,4053.33,4052.82,4040.51,4042.05,4068.21,4052.31,4071.28,0
12_30_29,57,4090.77,4139.49,4109.74,4073.33,4179.49,4074.36,4107.69,4065.13,4077.95,4069.74,4064.1,4087.69,4067.18,4097.44,0
12_30_29,58,4091.28,4129.23,4104.62,4070.26,4164.62,4069.23,4107.69,4066.15,4082.56,4081.03,4080.51,4089.74,4060.51,4093.85,0
12_30_29,59,4081.03,4114.36,4100.51,4063.08,4153.33,4067.69,4100.51,4058.97,4063.08,4067.69,4057.44,4076.41,4048.72,4074.87,0
12_30_29,60,4081.03,4121.03,4106.67,4063.08,4148.21,4063.59,4098.46,4060,4061.54,4066.67,4052.31,4076.41,4045.64,4076.92,0
12_30_29,61,4079.49,4126.15,4105.13,4066.15,4131.28,4063.08,4096.41,4060.51,4067.18,4065.64,4060.51,4076.92,4042.05,4076.92,0
12_30_29,62,4078.46,4117.95,4101.03,4068.21,4144.62,4073.85,4092.82,4053.33,4065.64,4051.79,4050.26,4071.79,4047.18,4074.87,0
12_30_29,63,4092.82,4122.05,4108.21,4075.9,4185.64,4076.41,4094.36,4055.38,4065.13,4057.95,4060.51,4086.15,4070.77,4090.77,0
12_30_29,64,4097.44,4134.87,4110.26,4073.85,4178.46,4066.15,4094.36,4061.03,4063.59,4074.36,4082.56,4096.92,4080,4097.95,0
12_30_29,65,4083.59,4130.26,4101.54,4065.64,4142.05,4061.54,4090.26,4057.44,4061.54,4075.38,4081.03,4086.67,4066.67,4086.67,0
12_30_29,66,4077.95,4122.05,4093.85,4068.72,4146.67,4064.62,4089.74,4048.72,4056.92,4062.56,4064.1,4074.36,4054.36,4074.36,0
12_30_29,67,4085.13,4132.31,4095.38,4077.44,4178.46,4073.85,4092.82,4049.23,4058.46,4058.46,4057.44,4075.38,4047.18,4074.87,0
12_30_29,68,4088.21,4126.67,4102.56,4078.46,4166.67,4079.49,4094.87,4055.9,4061.54,4056.92,4066.67,4083.59,4035.9,4084.62,0
12_30_29,69,4089.74,4100.51,4105.13,4078.46,4117.95,4065.64,4096.92,4062.05,4056.92,4064.62,4078.97,4090.26,4041.54,4089.23,0
12_30_29,70,4101.03,4108.72,4107.18,4081.03,4130.77,4059.49,4098.97,4065.13,4063.08,4072.82,4085.64,4102.05,4072.31,4091.79,0
12_30_29,71,4111.79,4140,4113.33,4075.9,4188.21,4076.92,4097.95,4063.08,4074.87,4067.18,4078.97,4107.69,4086.67,4099.49,0
12_30_29,72,4106.67,4143.08,4110.77,4074.36,4177.44,4077.44,4094.36,4060,4063.59,4068.72,4066.67,4095.38,4060.51,4096.41,0
12_30_29,73,4087.69,4116.41,4100,4077.44,4124.62,4060,4089.23,4057.95,4042.05,4076.41,4064.62,4082.05,4031.28,4081.54,0
12_30_29,74,4091.79,4108.21,4101.54,4080,4136.92,4066.15,4090.26,4063.08,4052.82,4080,4080,4097.44,4057.95,4088.72,0
12_30_29,75,4111.28,4130.26,4110.26,4086.67,4170.77,4084.1,4095.38,4068.21,4065.64,4072.31,4078.46,4109.23,4089.23,4101.54,0
12_30_29,76,4105.13,4137.44,4107.18,4089.23,4166.15,4084.1,4092.82,4062.05,4050.26,4052.82,4064.1,4093.33,4067.69,4092.31,0
12_30_29,77,4097.95,4134.36,4104.62,4081.54,4155.9,4080,4094.87,4064.62,4056.41,4058.46,4075.9,4091.79,4049.23,4089.74,0
12_30_29,78,4104.62,4141.54,4103.08,4077.95,4154.36,4081.54,4101.03,4075.38,4075.38,4070.77,4082.56,4096.92,4061.54,4093.33,0
12_30_29,79,4097.95,4134.87,4094.36,4086.15,4161.54,4081.54,4100,4073.85,4066.67,4062.05,4072.31,4086.15,4060.51,4082.56,0
12_30_29,80,4086.15,4114.87,4089.23,4085.64,4165.64,4077.95,4100,4072.82,4064.1,4077.95,4075.9,4085.13,4059.49,4080.51,0
12_30_29,81,4092.31,4118.97,4091.28,4076.92,4134.87,4074.87,4097.95,4077.95,4077.95,4088.72,4083.08,4094.36,4075.38,4091.79,0
12_30_29,82,4095.38,4135.9,4091.28,4083.08,4107.69,4072.31,4094.87,4074.87,4066.67,4053.85,4077.95,4088.72,4064.62,4091.79,0
12_30_29,83,4098.46,4138.46,4095.9,4094.36,4147.69,4082.05,4098.97,4078.46,4060.51,4064.62,4085.64,4092.82,4056.92,4090.77,0
12_30_29,84,4116.41,4140.51,4107.18,4093.85,4197.95,4094.36,4104.1,4089.23,4089.74,4120,4104.62,4115.38,4090.77,4106.67,0
12_30_29,85,4122.56,4137.44,4108.21,4091.79,4175.9,4088.72,4100,4082.56,4092.31,4111.79,4103.08,4119.49,4101.03,4114.87,0
12_30_29,86,4110.26,4132.82,4101.03,4093.33,4136.41,4080,4092.31,4063.08,4054.87,4063.59,4086.67,4104.62,4068.72,4100.51,0
12_30_29,87,4102.05,4135.9,4099.49,4091.28,4136.41,4077.44,4083.59,4057.44,4044.62,4050.26,4070.26,4095.38,4057.44,4088.72,0
12_30_29,88,4106.15,4140.51,4106.67,4091.79,4148.21,4071.28,4081.54,4068.21,4067.18,4064.62,4068.72,4103.08,4075.9,4100,0
12_30_29,89,4109.74,4141.54,4108.21,4097.95,4154.36,4076.92,4090.26,4074.87,4071.28,4080,4084.1,4111.28,4079.49,4112.31,0
12_30_29,90,4107.18,4135.38,4098.97,4097.44,4157.95,4094.36,4089.74,4065.13,4051.79,4067.18,4086.67,4105.13,4070.77,4103.08,0
12_30_29,91,4111.28,4141.03,4094.87,4096.41,4152.82,4087.69,4081.54,4059.49,4055.38,4070.77,4083.08,4101.03,4076.92,4099.49,0
12_30_29,92,4109.23,4151.28,4092.82,4094.36,4142.56,4080.51,4080.51,4063.08,4069.74,4094.87,4081.03,4096.41,4073.85,4100,0
12_30_30,93,4095.9,4142.05,4087.18,4091.79,4130.77,4096.92,4086.15,4060.51,4057.95,4048.72,4081.03,4081.54,4060.51,4088.21,0
12_30_30,94,4091.79,4120.51,4087.69,4092.82,4130.26,4096.92,4091.28,4064.62,4058.97,4026.67,4088.72,4080.51,4066.15,4088.21,0
12_30_30,95,4099.49,4117.95,4088.21,4093.33,4152.31,4079.49,4088.72,4074.36,4078.46,4098.46,4086.67,4087.69,4073.33,4100,0
12_30_30,96,4106.15,4136.92,4087.69,4090.77,4165.13,4082.56,4083.59,4069.23,4068.21,4121.54,4084.62,4088.21,4074.87,4103.08,0
12_30_30,97,4107.18,4143.59,4089.74,4093.85,4149.23,4092.82,4082.05,4056.92,4040,4063.08,4091.79,4089.74,4080.51,4103.59,0
12_30_30,98,4097.44,4133.33,4085.64,4095.38,4136.41,4089.23,4077.95,4048.21,4034.36,4046.15,4074.87,4081.03,4073.85,4097.44,0
12_30_30,99,4090.26,4122.05,4082.05,4091.79,4140,4089.23,4072.82,4050.26,4044.62,4072.82,4056.41,4070.26,4064.1,4086.67,0
12_30_30,100,4101.54,4120,4090.77,4092.82,4137.95,4091.28,4077.95,4058.46,4052.82,4080,4084.62,4086.15,4076.41,4094.36,0
12_30_30,101,4111.28,4129.23,4094.87,4094.36,4132.82,4087.69,4084.62,4063.08,4058.97,4080,4102.56,4104.1,4085.64,4110.26,0
12_30_30,102,4109.23,4138.97,4093.33,4086.67,4143.08,4089.74,4088.21,4065.64,4057.44,4083.59,4080.51,4101.03,4081.54,4112.82,0
12_30_30,103,4117.95,4141.54,4103.59,4093.33,4145.13,4091.28,4091.79,4073.85,4062.56,4087.69,4092.31,4106.67,4090.77,4115.9,0
12_30_30,104,4125.64,4133.85,4113.33,4108.72,4131.79,4090.77,4091.28,4076.92,4071.79,4086.67,4115.38,4119.49,4097.44,4113.85,0
12_30_30,105,4122.56,4136.41,4108.72,4108.21,4130.26,4095.38,4089.74,4073.33,4064.62,4072.82,4101.03,4120,4086.67,4106.67,0
12_30_30,106,4123.59,4143.08,4105.13,4105.13,4128.21,4097.44,4091.79,4077.44,4065.64,4070.77,4102.56,4121.54,4086.15,4111.28,0
12_30_30,107,4124.62,4136.92,4108.72,4106.15,4118.46,4091.79,4093.85,4078.46,4074.36,4082.05,4123.59,4123.59,4097.95,4121.03,0
12_30_30,108,4124.62,4136.92,4108.72,4103.08,4124.1,4087.69,4091.28,4073.33,4068.72,4097.95,4110.26,4121.03,4103.08,4123.59,0
12_30_30,109,4124.62,4138.97,4107.18,4105.13,4140,4090.26,4089.74,4067.69,4054.87,4094.36,4081.54,4113.85,4103.08,4120,0
12_30_30,110,4124.1,4141.03,4107.69,4110.77,4150.77,4094.36,4089.23,4066.15,4054.87,4069.23,4091.79,4110.77,4104.1,4114.87,0
12_30_30,111,4129.74,4154.87,4109.74,4106.15,4147.69,4093.33,4089.74,4070.26,4061.03,4071.79,4114.36,4117.44,4103.59,4114.87,0
12_30_30,112,4139.49,4165.64,4113.33,4106.67,4122.05,4086.15,4090.26,4076.41,4067.69,4096.41,4109.23,4125.13,4108.21,4120.51,0
12_30_30,113,4140.51,4156.41,4115.38,4118.46,4109.74,4092.82,4092.31,4077.44,4073.33,4099.49,4101.54,4126.15,4111.28,4126.15,0
12_30_30,114,4131.28,4139.49,4111.28,4116.92,4126.15,4105.64,4094.87,4075.9,4069.23,4091.79,4108.21,4125.64,4100,4121.54,0
12_30_30,115,4124.62,4129.74,4106.67,4106.67,4112.82,4093.85,4094.36,4078.97,4062.56,4083.59,4104.1,4123.59,4088.21,4109.74,0
12_30_30,116,4121.03,4132.31,4107.18,4106.67,4100,4085.13,4093.85,4081.54,4062.56,4068.72,4090.77,4117.44,4088.21,4103.08,0
12_30_30,117,4116.92,4138.46,4105.64,4107.69,4116.41,4100,4094.36,4078.46,4063.08,4071.79,4092.82,4114.87,4086.15,4102.05,0
12_30_30,118,4124.1,4129.74,4103.08,4105.64,4102.05,4098.97,4091.79,4075.38,4062.56,4084.62,4103.59,4114.36,4089.23,4106.15,0
12_30_30,119,4135.9,4118.46,4105.13,4111.28,4101.03,4088.21,4089.23,4076.41,4066.15,4062.05,4112.31,4118.46,4103.59,4123.08,0
12_30_30,120,4140,4125.64,4111.28,4115.9,4147.69,4099.49,4092.31,4079.49,4070.77,4057.95,4115.9,4127.69,4112.31,4144.62,0
12_30_30,121,4149.23,4141.03,4113.33,4116.92,4135.38,4104.62,4092.82,4079.49,4069.23,4099.49,4112.82,4129.23,4111.79,4156.92,0
12_30_30,122,4178.97,4165.64,4117.44,4125.64,4093.33,4092.82,4091.28,4078.46,4065.64,4105.64,4112.82,4128.72,4117.95,4171.28,0
12_30_30,123,4209.23,4188.72,4127.18,4133.33,4125.64,4090.26,4092.31,4076.92,4067.18,4086.15,4112.31,4136.41,4129.74,4191.79,0
12_30_30,124,4220.51,4201.03,4133.85,4133.33,4152.31,4093.33,4093.33,4077.95,4076.41,4095.38,4115.9,4143.08,4135.9,4207.18,0
12_30_30,125,4221.03,4209.74,4129.74,4141.54,4121.03,4093.33,4091.79,4071.79,4069.74,4088.21,4116.41,4135.9,4121.03,4205.13,0
12_30_30,126,4221.54,4216.41,4125.13,4154.87,4112.31,4093.33,4087.18,4060.51,4043.59,4054.36,4093.85,4121.54,4091.28,4188.72,0
12_30_30,127,4232.31,4226.67,4131.79,4160,4124.62,4093.85,4086.67,4060,4036.92,4041.54,4077.95,4118.97,4074.87,4183.08,0
12_30_30,7,4204.62,4299.49,4119.49,4177.95,4136.41,4088.72,4075.38,4057.44,4020,4028.21,4022.56,4083.08,3956.41,4091.79,0
12_30_30,8,4175.9,4276.92,4105.13,4167.69,4110.77,4088.72,4071.79,4047.18,4006.67,4006.67,3988.72,4054.87,3934.87,4060.51,0
12_30_30,9,4153.85,4250.77,4096.92,4168.72,4096.41,4089.74,4068.72,4044.62,4012.82,3998.46,3980.51,4034.36,3927.18,4044.62,0
12_30_30,10,4154.87,4274.36,4100,4167.18,4130.77,4092.82,4074.36,4057.44,4047.69,4061.03,3998.46,4044.62,3951.79,4050.26,0
12_30_30,11,4150.77,4288.72,4094.87,4158.97,4140,4095.38,4081.54,4064.62,4052.82,4076.92,3998.97,4048.72,3969.23,4047.18,0
12_30_30,12,4134.87,4254.36,4086.15,4153.85,4112.82,4092.82,4074.87,4055.9,4025.64,4010.77,3994.87,4036.92,3959.49,4035.9,0
12_30_30,13,4128.21,4235.38,4089.74,4149.23,4116.92,4091.28,4072.31,4054.36,4028.72,4005.64,4005.13,4043.59,3970.26,4041.54,0
12_30_30,14,4127.18,4243.08,4094.87,4146.67,4132.31,4099.49,4084.62,4067.69,4055.9,4056.92,4009.74,4056.92,4014.36,4049.74,0
12_30_30,15,4117.95,4232.82,4092.31,4147.69,4114.87,4103.08,4090.77,4078.97,4062.56,4061.03,4004.1,4051.28,4032.82,4044.62,0
12_30_30,16,4110.26,4215.38,4090.26,4143.59,4102.56,4091.79,4084.1,4074.36,4054.36,4045.13,4002.56,4048.72,4019.49,4043.59,0
12_30_30,17,4109.74,4212.82,4095.9,4141.03,4101.54,4084.1,4082.56,4066.67,4048.21,4036.92,4011.79,4060.51,4022.56,4047.18,0
12_30_30,18,4108.21,4212.82,4102.05,4147.18,4104.1,4096.41,4090.77,4069.74,4047.18,4028.72,4014.36,4061.54,4027.18,4045.13,0
12_30_30,19,4107.18,4202.05,4102.56,4151.28,4105.13,4105.64,4093.85,4076.41,4057.95,4044.62,4005.13,4055.9,4024.1,4049.23,0
12_30_30,20,4109.23,4188.21,4106.15,4154.36,4091.79,4101.54,4092.31,4078.97,4068.21,4068.21,4011.79,4065.64,4035.9,4060,0
12_30_30,21,4109.74,4187.18,4108.21,4149.74,4103.59,4102.56,4091.28,4070.26,4057.95,4058.97,4018.97,4075.38,4043.59,4053.85,0
12_30_30,22,4107.69,4189.23,4102.56,4138.46,4128.72,4106.67,4087.18,4061.03,4048.72,4037.95,4009.23,4067.18,4033.33,4044.1,0
12_30_30,23,4108.72,4188.21,4104.62,4143.59,4125.64,4106.67,4086.15,4068.72,4061.54,4055.9,4010.26,4063.08,4031.79,4050.77,0
12_30_30,24,4102.56,4178.97,4104.62,4146.67,4111.79,4106.67,4088.21,4075.38,4069.74,4073.33,4014.87,4064.62,4038.46,4050.26,0
12_30_30,25,4089.23,4162.56,4094.87,4133.33,4108.72,4109.23,4090.26,4070.77,4065.13,4052.82,4011.79,4060.51,4033.85,4040.51,0
12_30_30,26,4089.74,4163.08,4092.31,4133.85,4097.44,4106.67,4092.31,4071.28,4072.31,4044.1,4020,4060,4028.21,4044.1,0
12_30_30,27,4096.92,4167.69,4095.9,4142.56,4091.79,4105.13,4093.33,4078.97,4089.23,4069.23,4030.26,4072.31,4035.9,4055.9,0
12_30_30,28,4091.79,4157.44,4094.87,4133.85,4106.15,4110.26,4091.79,4080.51,4100,4092.82,4028.72,4076.92,4048.21,4052.31,0
12_30_30,29,4079.49,4154.36,4089.23,4124.1,4104.62,4106.15,4088.21,4073.85,4091.28,4080.51,4025.64,4062.56,4045.13,4034.87,0
12_30_30,30,4076.41,4161.03,4088.72,4126.15,4089.23,4101.03,4088.72,4073.33,4076.41,4050.77,4024.1,4058.46,4029.23,4026.15,0
12_30_30,31,4074.87,4150.77,4090.26,4128.21,4082.56,4105.64,4093.33,4080.51,4080,4052.82,4024.1,4066.15,4032.31,4031.79,0
12_30_30,32,4070.26,4136.92,4084.62,4128.21,4092.31,4111.28,4094.36,4086.15,4096.41,4070.26,4030.26,4069.74,4051.28,4035.38,0
12_30_30,33,4068.21,4140.51,4077.95,4127.18,4096.41,4109.23,4091.79,4089.74,4104.62,4077.44,4034.36,4067.18,4043.59,4030.77,0
12_30_30,34,4061.03,4135.9,4075.9,4122.56,4060.51,4104.62,4091.28,4088.21,4097.95,4070.77,4020.51,4057.44,4016.92,4021.03,0
12_30_30,35,4049.74,4117.44,4068.21,4113.33,4053.85,4105.13,4089.23,4077.44,4088.72,4053.33,4003.08,4055.38,4018.46,4020,0
12_30_30,36,4057.44,4116.92,4067.69,4107.69,4118.97,4111.28,4091.28,4083.59,4104.62,4077.95,4020.51,4072.31,4043.08,4038.97,0
12_30_30,37,4070.77,4124.1,4080.51,4109.23,4144.1,4112.82,4094.36,4095.38,4122.05,4124.62,4042.05,4078.46,4048.21,4045.64,0
12_30_30,38,4052.31,4111.79,4073.85,4108.72,4093.33,4109.23,4086.15,4079.49,4100,4092.82,4018.46,4052.31,4026.15,4018.97,0
12_30_30,39,4031.79,4097.44,4060,4105.64,4072.82,4109.74,4081.54,4065.13,4077.95,4037.44,3998.46,4037.95,4009.74,4004.62,0
12_30_30,40,4046.67,4103.59,4070.26,4104.1,4088.72,4110.26,4088.72,4075.9,4089.74,4060,4014.87,4057.44,4012.82,4021.03,0
12_30_30,41,4058.97,4105.13,4082.05,4108.72,4080.51,4105.64,4094.36,4081.54,4099.49,4087.18,4018.46,4066.67,4025.13,4030.26,0
12_30_30,42,4049.74,4085.64,4077.44,4111.28,4076.92,4104.1,4094.36,4074.36,4087.18,4065.64,3991.79,4054.36,4024.62,4025.13,0
12_30_30,43,4044.62,4065.64,4075.9,4100.51,4082.56,4101.03,4086.67,4062.56,4071.28,4048.21,3972.82,4046.15,3992.31,4013.85,0
12_30_30,44,4045.64,4066.67,4077.95,4094.87,4073.33,4094.87,4078.46,4054.87,4069.74,4055.38,3981.03,4050.26,3982.05,4008.72,0
12_30_30,45,4044.62,4077.44,4071.28,4094.87,4077.44,4098.97,4083.08,4062.05,4076.92,4066.15,3983.59,4049.23,4014.87,4018.46,0
12_30_30,46,4054.36,4075.9,4078.97,4075.9,4092.82,4103.59,4090.77,4072.31,4080.51,4064.62,3975.38,4053.33,4024.1,4024.62,0
12_30_30,47,4063.08,4065.13,4092.82,4062.05,4084.1,4095.9,4087.69,4071.28,4080,4065.64,3969.74,4069.23,3991.28,4024.62,0
12_30_30,48,4043.59,4056.92,4078.46,4068.72,4058.97,4087.18,4082.05,4066.15,4074.36,4062.05,3957.95,4061.54,3981.03,4020,0
12_30_30,49,4019.49,4053.33,4055.9,4066.15,4058.97,4089.23,4080,4061.03,4068.72,4048.21,3955.9,4038.46,4028.72,4002.56,0
12_30_30,50,4020.51,4051.79,4056.92,4050.77,4074.36,4100.51,4080,4058.46,4072.31,4053.33,3965.64,4034.87,4057.95,3992.82,0
12_30_30,51,4033.33,4044.1,4069.74,4044.1,4075.9,4108.21,4080,4062.05,4075.38,4072.31,3965.64,4042.56,4051.28,3998.97,0
12_30_30,52,4025.13,4035.9,4063.08,4041.03,4070.77,4105.64,4079.49,4059.49,4064.1,4062.56,3958.46,4035.38,4051.28,3995.38,0
12_30_30,53,4023.08,4041.54,4061.03,4026.67,4070.77,4103.59,4083.59,4055.9,4061.03,4050.26,3959.49,4045.64,4044.1,4000.51,0
12_30_30,54,4064.1,4060,4096.92,4022.56,4073.85,4107.69,4091.79,4069.23,4078.46,4071.79,3976.92,4092.31,4042.56,4033.85,0
12_30_30,55,4081.54,4067.18,4110.77,4027.69,4071.79,4103.08,4092.31,4082.56,4093.85,4100.51,3998.97,4097.44,4081.54,4036.41,0
12_30_30,56,4052.82,4049.74,4075.38,4024.1,4079.49,4096.41,4090.77,4076.92,4091.79,4106.15,3992.82,4063.59,4098.46,4021.03,0
12_30_30,57,4046.67,4050.77,4065.13,4018.46,4098.46,4106.67,4090.77,4072.31,4087.69,4093.85,3979.49,4061.54,4088.21,4028.72,0
12_30_30,58,4066.67,4061.54,4098.46,4015.38,4088.21,4109.23,4091.79,4076.41,4095.38,4094.36,4002.56,4080,4101.03,4037.95,0
12_30_30,59,4061.54,4022.05,4098.97,4011.79,4049.74,4096.92,4090.77,4075.38,4098.97,4105.13,4026.15,4074.87,4115.38,4024.1,0
12_30_30,60,4034.36,4000.51,4062.56,4008.21,4068.72,4097.44,4088.72,4070.77,4095.9,4110.77,4016.92,4048.21,4109.23,4001.03,0
12_30_30,61,4032.82,4027.18,4055.38,4010.77,4115.9,4112.31,4091.28,4075.38,4103.08,4107.18,3999.49,4043.08,4100.51,4001.54,0
12_30_30,62,4040.51,4017.95,4067.69,4012.31,4089.23,4110.26,4095.38,4079.49,4107.69,4086.67,3997.95,4054.87,4093.85,4007.18,0
12_30_30,63,4030.26,3972.31,4060.51,4004.62,4060.51,4104.1,4093.85,4077.44,4105.13,4083.08,4016.41,4055.38,4096.92,3997.44,0
12_30_30,64,4013.33,3958.46,4042.56,3996.92,4091.79,4115.38,4092.82,4075.9,4104.1,4108.72,4017.44,4048.72,4102.05,3986.15,0
12_30_30,65,4014.87,3964.62,4047.18,3993.85,4100,4122.56,4098.97,4078.97,4107.18,4117.95,4007.69,4045.64,4117.95,3980.51,0
12_30_30,66,4033.33,3939.49,4062.56,4009.23,4065.13,4110.26,4100.51,4079.49,4107.69,4100,4030.77,4046.15,4140,3980,0
12_30_30,67,4034.87,3909.74,4057.44,4011.79,4050.77,4103.59,4092.31,4073.85,4098.46,4086.67,4048.72,4045.13,4131.79,3982.56,0
12_30_30,68,4022.05,3924.1,4048.21,3990.26,4061.03,4108.21,4090.26,4071.28,4089.23,4087.18,4030.77,4054.36,4118.97,3986.15,0
12_30_30,69,4023.08,3963.59,4053.33,4005.13,4077.44,4110.77,4101.03,4076.41,4092.31,4094.36,4035.38,4059.49,4147.18,3989.23,0
12_30_30,70,4028.21,3971.79,4055.9,4035.38,4076.92,4108.72,4103.08,4077.95,4093.85,4095.9,4052.82,4056.92,4143.59,3991.79,0
12_30_30,71,4025.64,3949.23,4061.03,4019.49,4045.64,4106.15,4094.36,4073.33,4089.23,4080,4043.08,4058.97,4116.92,3983.59,0
12_30_30,72,4049.23,3942.05,4085.13,4012.82,4051.28,4115.38,4106.15,4085.13,4111.79,4092.31,4053.33,4090.26,4132.82,4001.03,0
12_30_30,73,4069.23,3947.69,4088.72,4045.64,4086.15,4124.1,4120,4094.87,4129.74,4130.26,4087.69,4116.41,4162.56,4026.15,0
12_30_30,74,4043.59,3950.77,4064.1,4033.85,4064.1,4111.79,4101.54,4080.51,4115.38,4144.62,4085.13,4084.1,4173.85,4004.62,0
12_30_30,75,4027.18,3946.15,4061.54,3996.41,4024.1,4098.46,4086.67,4075.38,4106.15,4123.59,4056.41,4058.46,4156.41,3992.31,0
12_30_30,76,4030.77,3950.77,4061.54,4011.28,4046.67,4105.64,4094.36,4076.92,4093.85,4075.9,4038.97,4072.31,4123.08,4003.08,0
12_30_30,77,4019.49,3958.97,4048.72,4024.62,4078.46,4113.33,4096.92,4069.74,4080.51,4062.56,4040.51,4070.26,4134.36,3985.64,0
12_30_30,78,4020.51,3947.69,4056.41,4010.77,4064.62,4108.21,4096.92,4077.95,4097.95,4100,4066.67,4068.21,4167.18,3983.08,0
12_30_30,79,4038.97,3937.95,4067.69,4013.33,4049.74,4101.54,4099.49,4090.26,4111.28,4115.38,4083.59,4082.56,4159.49,4008.72,0
12_30_30,80,4040.51,3935.38,4057.44,4020.51,4045.13,4104.62,4093.33,4078.46,4092.31,4092.31,4068.21,4074.87,4148.72,4006.67,0
12_30_30,81,4041.54,3948.21,4057.44,4020,4038.46,4110.77,4090.26,4070.26,4085.64,4080.51,4065.64,4068.72,4170.77,3996.41,0
12_30_30,82,4044.1,3986.67,4062.56,4030.77,4040.51,4104.62,4091.79,4075.9,4092.31,4097.44,4078.97,4079.49,4172.82,4001.54,0
12_30_30,83,4036.92,3994.36,4056.41,4032.82,4051.79,4101.03,4092.31,4082.05,4094.36,4118.97,4076.92,4080,4156.41,4002.05,0
12_30_30,84,4043.08,3966.15,4063.59,4023.59,4058.97,4108.72,4093.85,4087.69,4108.21,4127.18,4076.41,4095.9,4151.79,4017.95,0
12_30_30,85,4049.74,3973.85,4068.72,4030.77,4051.79,4105.13,4088.72,4082.05,4106.15,4111.79,4072.82,4109.23,4148.72,4031.79,0
12_30_30,86,4041.03,3995.9,4056.92,4032.31,4045.64,4106.67,4088.72,4077.95,4090.77,4103.08,4059.49,4085.13,4144.1,4014.87,0
12_30_30,87,4033.85,3970.26,4054.36,4010.26,4062.56,4125.13,4098.46,4085.64,4096.92,4113.33,4065.13,4068.21,4150.26,4002.05,0
12_30_30,88,4028.72,3947.18,4052.82,4002.56,4064.1,4120,4090.77,4076.41,4096.41,4108.21,4063.08,4067.18,4150.77,4001.03,0
12_30_30,89,4015.9,3976.92,4038.97,4017.95,4034.87,4095.38,4076.92,4061.54,4079.49,4092.31,4040,4053.33,4143.59,3986.67,0
12_30_30,90,4020.51,4004.62,4042.05,4024.62,4038.97,4098.46,4087.18,4069.74,4087.18,4092.31,4039.49,4055.9,4139.49,3990.26,0
12_30_30,91,4044.1,4002.05,4056.92,4017.44,4071.28,4108.72,4096.41,4082.56,4105.13,4108.72,4056.92,4085.13,4140,4015.9,0
12_30_30,92,4046.15,4010.26,4051.28,4013.85,4052.31,4100.51,4086.15,4076.92,4095.9,4119.49,4041.03,4089.74,4142.05,4017.44,0
12_30_30,93,4033.33,4025.13,4047.69,4024.62,4025.64,4098.97,4082.56,4072.31,4083.59,4108.21,4015.9,4078.97,4141.03,4008.21,0
12_30_30,94,4038.46,4029.23,4060,4033.33,4057.95,4108.72,4091.79,4078.97,4090.77,4099.49,4020,4086.67,4136.92,4018.97,0
12_30_30,95,4049.74,4045.64,4058.97,4021.54,4088.21,4109.23,4092.31,4078.97,4092.31,4104.62,4022.05,4089.23,4126.67,4021.54,0
12_30_31,96,4051.79,4070.26,4050.77,4010.77,4064.62,4106.15,4089.23,4072.82,4084.62,4105.13,4012.31,4081.54,4109.74,4014.36,0
12_30_31,97,4051.28,4085.13,4052.82,4024.62,4046.15,4108.21,4089.74,4073.33,4081.54,4086.15,4011.79,4082.05,4105.13,4021.03,0
12_30_31,98,4057.44,4101.03,4061.03,4036.41,4067.69,4110.26,4090.26,4076.92,4083.08,4066.67,4022.05,4089.74,4114.36,4029.74,0
12_30_31,99,4064.1,4120.51,4064.1,4033.33,4074.87,4108.72,4092.82,4078.97,4092.82,4095.9,4034.36,4095.9,4120,4035.9,0
12_30_31,100,4067.69,4147.18,4062.56,4033.33,4058.46,4106.15,4100,4084.1,4097.95,4135.9,4035.9,4102.56,4120,4044.62,0
12_30_31,101,4069.74,4176.41,4066.67,4036.92,4062.56,4105.64,4100.51,4084.62,4083.08,4112.31,4017.95,4102.05,4114.87,4041.54,0
12_30_31,102,4068.72,4195.38,4070.26,4035.9,4082.56,4106.15,4092.31,4077.44,4075.38,4077.44,4005.13,4096.92,4107.69,4039.49,0
12_30_31,103,4071.28,4218.97,4069.23,4033.33,4077.95,4103.08,4090.77,4076.92,4090.77,4092.31,4019.49,4102.05,4108.21,4053.85,0
12_30_31,104,4071.79,4230.26,4064.62,4036.41,4051.79,4101.54,4093.85,4078.46,4097.44,4104.62,4034.36,4103.08,4104.1,4055.38,0
12_30_31,105,4057.95,4217.95,4057.95,4033.85,4056.41,4097.95,4087.69,4067.18,4078.46,4088.72,4014.36,4085.64,4069.23,4037.95,0
12_30_31,106,4055.38,4233.33,4060.51,4028.72,4073.85,4088.72,4082.56,4060,4069.74,4090.77,3996.92,4078.97,4045.13,4039.49,0
12_30_31,107,4073.85,4270.26,4070.77,4033.33,4066.15,4091.28,4091.28,4072.31,4082.56,4102.05,4022.56,4093.85,4079.49,4061.54,0
12_30_31,108,4081.54,4275.9,4068.21,4044.62,4054.87,4104.62,4096.92,4080,4093.33,4090.77,4051.79,4100.51,4111.79,4077.44,0
12_30_31,109,4073.33,4265.64,4060.51,4056.92,4044.1,4105.13,4090.77,4074.36,4090.77,4086.15,4049.74,4090.26,4091.79,4072.82,0
12_30_31,110,4081.03,4278.97,4073.33,4080.51,4050.77,4103.08,4094.87,4080.51,4091.28,4107.18,4052.82,4098.46,4084.62,4067.69,0
12_30_31,111,4101.03,4298.97,4088.21,4104.1,4072.82,4108.21,4104.1,4093.33,4102.05,4117.44,4082.56,4125.64,4122.05,4085.13,0
12_30_31,112,4096.41,4294.87,4078.46,4110.77,4062.56,4101.03,4096.92,4089.23,4104.1,4098.46,4095.9,4127.18,4135.9,4091.79,0
12_30_31,113,4081.54,4277.95,4070.77,4115.38,4047.18,4091.28,4087.69,4083.08,4100,4097.95,4078.97,4108.72,4116.41,4078.46,0
12_30_31,114,4090.77,4289.74,4082.05,4124.62,4083.59,4102.56,4094.87,4090.77,4105.64,4114.87,4069.74,4108.72,4122.56,4082.56,0
12_30_31,115,4103.08,4308.72,4084.62,4129.23,4103.08,4113.85,4098.46,4093.85,4112.31,4106.15,4078.46,4118.97,4145.64,4094.36,0
12_30_31,116,4095.9,4290.26,4078.46,4134.36,4072.82,4110.26,4094.87,4090.77,4116.92,4101.54,4086.15,4120,4143.08,4093.33,0
12_30_31,117,4097.44,4283.59,4085.64,4137.95,4075.38,4107.18,4097.95,4092.31,4122.56,4124.62,4089.23,4120.51,4122.56,4091.79,0
12_30_31,118,4106.67,4308.21,4089.23,4138.46,4081.03,4101.54,4096.92,4094.36,4118.46,4133.33,4094.36,4125.13,4116.92,4094.36,0
12_30_31,119,4095.38,4305.13,4081.03,4137.95,4055.9,4099.49,4091.79,4091.28,4105.64,4113.85,4083.59,4119.49,4124.62,4092.31,0
12_30_31,120,4086.15,4290.26,4081.03,4140,4058.46,4105.64,4092.82,4086.67,4102.56,4099.49,4068.21,4107.18,4122.05,4089.74,0
12_30_31,121,4098.46,4296.92,4087.18,4148.21,4076.41,4102.56,4095.38,4086.15,4106.67,4098.97,4081.03,4107.18,4110.26,4091.28,0
12_30_31,122,4105.13,4302.56,4087.18,4152.82,4082.05,4093.33,4094.87,4090.77,4109.23,4102.05,4096.92,4117.44,4108.72,4096.41,0
12_30_31,123,4095.9,4310.26,4085.64,4138.97,4085.13,4096.41,4097.95,4094.36,4110.26,4111.79,4081.03,4110.77,4113.85,4098.97,0
12_30_31,124,4089.23,4322.05,4081.54,4130.26,4080,4103.59,4099.49,4088.72,4102.05,4105.64,4061.54,4096.92,4103.08,4097.44,0
12_30_31,125,4087.18,4315.9,4076.41,4143.59,4063.08,4098.97,4094.87,4084.1,4094.87,4090.77,4071.79,4097.95,4085.13,4091.28,0
12_30_31,126,4079.49,4305.64,4076.92,4143.59,4060.51,4084.62,4090.77,4085.13,4099.49,4092.31,4078.97,4097.44,4073.33,4081.54,0
12_30_31,127,4076.92,4306.67,4075.38,4124.62,4061.03,4080,4089.74,4077.95,4099.49,4094.36,4062.05,4089.74,4068.72,4078.97,0
12_30_31,128,4084.1,4304.62,4071.79,4124.62,4056.41,4097.44,4089.74,4074.36,4091.79,4081.03,4056.92,4091.28,4068.21,4083.08,0
12_30_31,0,4094.87,4314.36,4082.56,4140.51,4075.9,4106.67,4093.85,4086.67,4097.95,4087.69,4083.08,4107.69,4075.9,4089.74,0
12_30_31,1,4101.03,4322.56,4096.41,4142.05,4080,4094.36,4097.95,4097.95,4118.46,4115.38,4101.54,4118.46,4084.1,4094.87,0
12_30_31,2,4093.33,4299.49,4090.77,4136.41,4061.54,4088.21,4095.9,4093.33,4113.85,4111.79,4080,4109.23,4077.95,4089.74,0
12_30_31,3,4091.28,4289.74,4086.15,4136.41,4072.31,4093.85,4093.33,4087.69,4091.28,4093.33,4063.08,4101.54,4071.28,4085.64,0
12_30_31,4,4103.08,4311.28,4093.85,4130.77,4093.85,4093.33,4095.9,4093.85,4093.85,4101.54,4085.64,4117.95,4076.92,4093.33,0
12_30_31,5,4101.54,4311.79,4093.85,4122.56,4077.95,4088.72,4097.44,4097.44,4108.21,4112.31,4096.41,4130.26,4078.46,4096.41,0
12_30_31,6,4088.72,4290.77,4084.1,4125.64,4052.31,4087.18,4093.85,4093.85,4107.69,4106.15,4078.97,4116.92,4071.28,4090.26,0
12_30_31,7,4089.23,4289.23,4083.59,4132.82,4051.79,4088.21,4094.87,4097.44,4105.64,4101.54,4082.05,4110.26,4072.82,4089.74,0
12_30_31,8,4094.87,4300.51,4090.26,4135.9,4055.38,4092.82,4095.9,4101.54,4107.69,4107.18,4093.33,4116.92,4075.38,4092.31,0
12_30_31,9,4093.85,4306.67,4088.21,4139.49,4061.03,4091.79,4092.31,4093.85,4096.92,4109.23,4082.05,4111.28,4065.64,4092.31,0
12_30_31,10,4088.72,4298.97,4082.05,4140,4063.59,4088.72,4088.72,4086.67,4091.79,4102.56,4081.54,4103.59,4054.87,4087.69,0
12_30_31,11,4081.54,4283.08,4077.44,4128.72,4052.31,4092.82,4087.18,4084.62,4095.9,4090.77,4092.82,4104.62,4049.74,4078.46,0
12_30_31,12,4086.15,4279.49,4082.05,4125.64,4052.82,4094.36,4086.67,4080.51,4089.23,4086.67,4084.1,4104.1,4054.36,4086.15,0
12_30_31,13,4092.31,4282.56,4091.28,4140.51,4074.36,4088.72,4089.23,4086.15,4088.72,4104.62,4074.87,4098.97,4061.54,4097.95,0
12_30_31,14,4078.46,4273.85,4085.13,4137.95,4094.36,4091.28,4091.28,4091.79,4092.31,4110.77,4073.85,4088.72,4054.36,4083.59,0
12_30_31,15,4072.31,4265.64,4074.36,4120.51,4102.56,4101.03,4090.77,4089.23,4095.9,4104.1,4073.33,4086.67,4056.41,4073.33,0
12_30_31,16,4090.77,4266.67,4078.97,4118.46,4078.97,4091.28,4095.9,4101.54,4108.21,4111.28,4086.67,4098.97,4076.41,4085.13,0
12_30_31,17,4087.18,4258.97,4079.49,4122.56,4036.92,4079.49,4096.41,4108.72,4109.74,4101.54,4090.77,4095.38,4070.26,4080,0
12_30_31,18,4064.62,4243.08,4068.72,4116.41,4056.92,4095.9,4093.33,4096.41,4100.51,4085.13,4072.31,4076.92,4044.62,4065.64,0
12_30_31,19,4073.33,4242.05,4072.82,4116.92,4106.67,4106.67,4097.44,4100,4106.15,4105.13,4076.92,4084.1,4047.69,4075.38,0
12_30_31,20,4093.33,4252.31,4086.15,4127.18,4093.33,4093.85,4100,4110.77,4120.51,4131.79,4095.9,4103.08,4062.56,4085.13,0
12_30_31,21,4090.77,4258.46,4087.69,4133.85,4081.54,4097.95,4100.51,4106.67,4125.64,4126.67,4086.15,4101.54,4061.54,4082.56,0
12_30_31,22,4087.69,4262.56,4087.69,4133.85,4108.72,4113.85,4104.62,4106.15,4121.54,4109.23,4082.05,4102.05,4066.15,4090.77,0
12_30_31,23,4091.79,4258.97,4087.18,4128.72,4091.79,4103.08,4102.56,4109.23,4106.67,4094.36,4094.36,4108.72,4067.69,4093.33,0
12_30_31,24,4084.1,4243.08,4078.46,4123.08,4065.64,4088.72,4094.87,4101.03,4092.31,4087.69,4080.51,4095.38,4045.64,4080.51,0
12_30_31,25,4087.18,4235.38,4078.46,4123.08,4095.9,4092.82,4093.85,4093.33,4092.31,4093.85,4063.59,4084.1,4031.79,4080.51,0
12_30_31,26,4108.21,4241.54,4085.13,4121.03,4097.95,4092.31,4093.33,4097.44,4097.44,4089.23,4074.87,4096.41,4044.62,4095.9,0
12_30_31,27,4121.03,4244.1,4086.67,4117.95,4066.67,4087.18,4092.82,4104.1,4101.54,4090.77,4081.54,4108.21,4052.31,4106.67,0
12_30_31,28,4127.18,4244.1,4085.64,4120.51,4080.51,4090.26,4096.92,4103.08,4096.92,4093.33,4070.26,4101.54,4043.08,4113.33,0
12_30_31,29,4136.92,4246.67,4089.23,4122.56,4091.79,4089.74,4093.85,4094.87,4080,4064.62,4068.21,4098.46,4042.56,4128.21,0
12_30_31,30,4151.28,4247.18,4093.33,4122.05,4073.33,4083.08,4091.28,4092.82,4076.92,4057.44,4076.41,4105.64,4047.18,4146.15,0
12_30_31,31,4171.28,4254.87,4095.9,4128.72,4080.51,4089.74,4093.85,4096.41,4090.77,4096.92,4076.92,4110.26,4046.15,4151.79,0
12_30_31,32,4191.28,4276.41,4104.1,4141.03,4096.92,4095.9,4093.33,4093.85,4092.82,4102.56,4077.95,4115.38,4046.15,4155.9,0
12_30_31,33,4202.05,4282.56,4112.31,4144.1,4089.74,4083.59,4089.74,4090.26,4081.54,4068.72,4089.74,4123.59,4048.21,4171.28,0
12_30_31,34,4205.13,4271.79,4110.77,4142.56,4101.03,4079.49,4089.23,4090.77,4081.03,4070.77,4093.33,4124.62,4041.03,4176.41,0
12_30_31,35,4206.15,4275.9,4108.72,4138.46,4112.31,4088.21,4092.82,4093.85,4080.51,4089.23,4084.1,4122.56,4034.87,4169.23,0
12_30_31,36,4201.03,4279.49,4107.18,4127.18,4088.21,4085.64,4091.79,4094.36,4068.21,4077.44,4083.08,4125.13,4042.05,4170.26,0
12_30_31,37,4191.79,4268.72,4100,4121.03,4076.92,4078.46,4085.13,4088.72,4063.59,4072.82,4082.05,4120.51,4044.1,4167.69,0
12_30_31,38,4184.1,4262.56,4092.82,4122.05,4083.08,4075.9,4083.08,4087.69,4071.79,4081.54,4074.36,4112.31,4036.41,4156.41,0
12_30_31,39,4176.92,4254.87,4089.23,4115.9,4083.08,4077.95,4090.26,4094.87,4082.05,4075.9,4080.51,4110.26,4034.87,4152.31,0
12_30_31,40,4161.54,4237.95,4088.21,4110.26,4086.67,4085.13,4093.33,4102.56,4091.79,4080.51,4091.79,4108.21,4035.9,4145.13,0
12_30_31,41,4142.05,4226.67,4084.1,4111.28,4074.87,4088.72,4087.18,4096.92,4086.67,4092.82,4077.95,4096.41,4018.46,4120,0
12_30_31,42,4131.28,4218.46,4078.46,4108.21,4053.85,4083.59,4084.62,4088.72,4078.97,4091.79,4066.15,4087.69,4004.1,4102.56,0
12_30_31,43,4134.36,4213.33,4078.46,4102.56,4070.77,4082.56,4088.72,4098.46,4092.82,4095.38,4081.03,4093.33,4016.41,4108.21,0
12_30_31,44,4134.36,4215.9,4080.51,4100,4101.03,4090.77,4090.26,4106.15,4091.79,4086.67,4085.64,4091.79,4020,4111.28,0
12_30_31,45,4118.46,4203.08,4074.87,4099.49,4087.18,4093.33,4087.69,4095.38,4070.26,4077.95,4075.38,4085.13,3996.92,4101.54,0
12_30_31,46,4105.64,4182.56,4068.21,4100.51,4075.9,4089.23,4088.21,4088.72,4068.72,4098.46,4072.31,4084.62,3990.26,4089.23,0
12_30_31,47,4107.69,4182.05,4064.62,4096.92,4096.92,4093.85,4091.28,4098.46,4074.36,4107.18,4063.08,4082.56,4011.28,4085.64,0
12_30_31,48,4108.72,4190.26,4060,4087.18,4097.44,4105.64,4090.77,4102.05,4076.41,4077.44,4057.44,4079.49,4013.85,4087.69,0
12_30_31,49,4104.62,4183.59,4060,4091.79,4080,4103.08,4090.77,4107.69,4096.92,4076.41,4080,4094.36,4008.21,4089.74,0
12_30_31,50,4106.67,4176.92,4068.21,4103.59,4084.1,4090.77,4094.36,4121.54,4108.72,4115.9,4100,4108.21,4023.08,4090.26,0
12_30_31,51,4109.23,4175.38,4066.67,4099.49,4087.69,4088.72,4097.44,4120,4093.33,4130.26,4090.26,4098.46,4026.15,4084.1,0
12_30_31,52,4102.05,4165.64,4058.97,4089.23,4075.38,4091.28,4096.41,4109.74,4089.74,4109.74,4082.05,4087.18,4008.72,4077.95,0
12_30_31,53,4095.9,4156.92,4063.08,4091.28,4075.38,4092.31,4095.38,4111.28,4097.95,4091.79,4091.28,4089.74,4002.05,4084.62,0
12_30_31,54,4095.38,4149.74,4072.31,4095.38,4073.33,4094.36,4094.87,4112.82,4091.79,4091.79,4094.87,4091.28,4005.64,4087.69,0
12_30_31,55,4095.9,4138.97,4071.79,4093.85,4073.85,4095.9,4090.26,4104.62,4090.26,4101.54,4085.13,4088.21,4004.62,4077.44,0
12_30_31,56,4101.03,4140.51,4073.85,4096.41,4097.44,4093.85,4092.31,4111.28,4107.69,4120.51,4084.1,4097.44,4009.74,4084.1,0
12_30_31,57,4103.59,4147.18,4081.54,4105.64,4107.18,4098.46,4102.05,4120,4115.38,4115.9,4096.41,4103.59,4011.79,4094.87,0
12_30_31,58,4101.54,4133.85,4079.49,4108.72,4090.26,4105.13,4102.56,4109.23,4104.1,4089.23,4096.92,4094.87,4001.03,4076.92,0
12_30_31,59,4098.97,4118.97,4076.41,4101.54,4088.21,4099.49,4095.9,4105.13,4107.69,4106.67,4088.21,4096.41,4002.56,4070.77,0
12_30_31,60,4095.9,4120,4080.51,4091.28,4085.13,4093.33,4097.95,4113.33,4110.26,4122.05,4090.26,4103.08,4009.23,4087.69,0
12_30_31,61,4091.28,4126.67,4075.38,4086.67,4077.95,4090.77,4097.95,4108.21,4084.1,4081.03,4089.23,4089.74,3992.31,4081.54,0
12_30_31,62,4103.08,4141.03,4071.28,4094.87,4082.56,4089.74,4092.82,4099.49,4073.33,4067.69,4081.03,4084.1,3980.51,4073.33,0
12_30_31,63,4127.18,4161.03,4086.15,4113.85,4076.41,4096.41,4100.51,4104.62,4092.82,4096.92,4082.05,4111.28,3994.87,4096.92,0
12_30_31,64,4146.15,4178.46,4098.97,4125.13,4082.56,4105.64,4111.79,4114.87,4103.59,4099.49,4092.82,4129.23,4013.33,4118.46,0
12_30_31,65,4153.85,4185.64,4096.92,4122.05,4109.23,4099.49,4108.72,4119.49,4103.08,4098.97,4101.03,4119.49,4025.64,4119.49,0
12_30_31,66,4155.38,4175.38,4099.49,4123.08,4101.03,4093.33,4104.62,4123.08,4107.69,4105.13,4109.23,4123.08,4046.15,4125.64,0
12_30_31,67,4153.33,4157.95,4108.72,4127.69,4075.38,4103.59,4109.23,4122.05,4104.62,4090.77,4112.31,4136.92,4059.49,4133.33,0
12_30_31,68,4147.18,4143.59,4106.67,4116.92,4080,4106.67,4108.21,4114.36,4100.51,4086.15,4101.03,4125.64,4055.9,4128.72,0
12_30_31,69,4134.36,4129.74,4096.92,4103.59,4076.41,4091.79,4097.44,4106.67,4102.56,4092.82,4094.36,4105.64,4061.54,4115.9,0
12_30_31,70,4123.59,4115.38,4092.31,4099.49,4061.54,4077.44,4093.33,4107.69,4103.59,4090.26,4106.67,4107.18,4080.51,4113.33,0
12_30_31,71,4121.03,4103.59,4093.85,4089.74,4067.18,4074.36,4101.03,4113.85,4109.74,4082.56,4109.23,4113.85,4082.05,4118.46,0
12_30_31,72,4131.28,4110.26,4106.15,4088.72,4082.56,4086.15,4106.67,4116.41,4119.49,4083.59,4101.03,4117.95,4076.41,4121.03,0
12_30_31,73,4148.72,4129.74,4122.05,4104.1,4105.13,4102.56,4105.13,4120,4123.59,4112.82,4118.97,4131.79,4111.79,4130.26,0
12_30_31,74,4156.92,4133.85,4127.18,4112.31,4100,4101.54,4108.21,4124.1,4122.56,4133.33,4140.51,4143.08,4148.21,4143.59,0
12_30_31,75,4148.72,4121.54,4123.59,4109.23,4069.74,4089.23,4118.46,4123.59,4128.72,4108.72,4130.26,4139.49,4135.9,4140.51,0
12_30_31,76,4138.46,4116.92,4124.1,4109.74,4069.23,4088.72,4120.51,4123.59,4133.33,4084.62,4124.62,4134.87,4116.41,4126.67,0
12_30_31,77,4134.87,4113.85,4129.23,4111.79,4088.21,4091.79,4113.33,4123.59,4125.13,4093.33,4125.64,4137.44,4115.38,4121.54,0
12_30_31,78,4130.26,4108.21,4128.72,4108.21,4091.79,4087.69,4109.23,4122.56,4120,4104.1,4117.95,4141.54,4110.26,4125.13,0
12_30_31,79,4126.15,4110.26,4123.59,4100,4080.51,4083.08,4109.23,4120,4123.59,4100,4111.28,4131.28,4108.21,4126.15,0
12_30_31,80,4128.72,4119.49,4123.59,4103.08,4074.36,4081.54,4109.23,4120.51,4128.72,4092.82,4114.87,4122.56,4112.31,4124.62,0
12_30_31,81,4123.59,4120.51,4120.51,4108.21,4090.26,4086.67,4105.13,4112.82,4118.97,4085.13,4110.77,4120.51,4093.85,4111.79,0
12_30_31,82,4116.41,4112.82,4113.33,4100,4122.56,4095.9,4101.03,4102.56,4112.31,4087.18,4098.46,4117.44,4085.64,4104.62,0
12_30_31,83,4113.85,4107.18,4117.44,4091.79,4106.15,4089.23,4103.08,4111.79,4129.74,4103.08,4094.87,4117.95,4104.1,4108.21,0
12_30_31,84,4106.15,4111.28,4124.62,4095.38,4066.67,4075.38,4107.18,4122.56,4135.9,4109.74,4100,4122.56,4104.62,4109.23,0
12_30_31,85,4106.67,4128.21,4120,4101.03,4087.69,4079.49,4105.64,4113.33,4117.95,4097.44,4105.13,4121.54,4090.26,4111.79,0
12_30_31,86,4127.69,4138.97,4123.59,4110.26,4106.15,4088.72,4103.59,4103.08,4112.82,4078.46,4106.67,4120,4089.74,4121.03,0
12_30_31,87,4151.79,4139.49,4140,4125.13,4077.44,4083.08,4105.64,4107.18,4128.72,4080.51,4116.41,4133.85,4090.26,4134.36,0
12_30_31,88,4158.46,4143.59,4142.56,4127.18,4077.44,4083.59,4107.69,4109.23,4122.56,4085.64,4113.33,4140,4080.51,4145.13,0
12_30_31,89,4157.44,4147.18,4135.38,4116.92,4121.03,4096.92,4107.18,4106.15,4109.74,4078.46,4093.33,4134.36,4091.28,4151.28,0
12_30_31,90,4159.49,4147.18,4140.51,4113.33,4111.28,4090.26,4106.67,4109.23,4126.67,4091.79,4097.44,4138.46,4108.21,4154.87,0
12_30_31,91,4149.23,4138.46,4138.97,4111.28,4066.67,4076.92,4107.18,4110.77,4132.31,4113.85,4107.18,4138.46,4094.36,4149.74,0
12_30_31,92,4124.62,4122.56,4120.51,4102.56,4087.69,4084.62,4106.15,4105.13,4107.18,4085.64,4091.79,4123.59,4069.23,4127.69,0
12_30_31,93,4117.44,4121.03,4114.87,4101.03,4109.23,4084.62,4105.64,4106.67,4102.56,4046.67,4086.67,4117.95,4062.56,4105.64,0
12_30_31,94,4124.62,4127.18,4122.05,4105.64,4076.41,4075.9,4108.72,4118.97,4125.64,4088.21,4104.62,4126.15,4064.62,4105.64,0
12_30_32,95,4113.85,4113.33,4118.46,4102.05,4067.69,4083.59,4108.72,4118.97,4127.69,4128.72,4099.49,4121.03,4058.97,4109.23,0
12_30_32,96,4112.82,4106.67,4118.46,4105.64,4106.15,4095.9,4112.82,4114.36,4122.56,4111.28,4084.1,4118.97,4058.97,4111.28,0
12_30_32,97,4123.08,4115.38,4127.18,4111.28,4111.79,4095.9,4122.05,4125.13,4130.26,4101.54,4091.28,4127.69,4063.08,4112.31,0
12_30_32,98,4103.59,4099.49,4114.36,4092.82,4079.49,4090.26,4114.87,4120,4115.9,4081.03,4090.77,4117.44,4043.08,4095.38,0
12_30_32,99,4089.74,4093.33,4104.1,4081.03,4080,4083.59,4107.18,4106.67,4104.62,4062.05,4090.26,4111.28,4029.23,4090.77,0
12_30_32,100,4108.72,4117.44,4121.54,4098.97,4098.46,4085.64,4120.51,4119.49,4123.08,4103.59,4104.62,4127.18,4052.31,4109.23,0
12_30_32,101,4114.36,4122.56,4124.62,4108.72,4093.85,4094.36,4123.59,4129.23,4131.79,4137.95,4103.08,4127.69,4068.21,4115.9,0
12_30_32,102,4095.38,4105.64,4106.15,4095.9,4079.49,4087.69,4105.13,4110.26,4120,4101.54,4095.38,4112.31,4044.62,4098.46,0
12_30_32,103,4087.69,4100.51,4101.03,4087.18,4081.54,4077.44,4099.49,4096.92,4113.33,4073.85,4097.44,4107.69,4025.64,4084.62,0
12_30_32,104,4093.33,4110.26,4108.72,4092.82,4088.21,4077.95,4110.26,4105.13,4121.54,4102.56,4094.87,4112.31,4050.77,4095.9,0
12_30_32,105,4090.26,4108.21,4102.05,4093.33,4076.92,4076.92,4104.1,4102.56,4112.31,4090.26,4087.69,4108.21,4055.9,4099.49,0
12_30_32,106,4080,4092.82,4090.26,4080,4077.44,4072.31,4092.31,4089.23,4088.21,4037.95,4083.08,4101.03,4017.95,4076.41,0
12_30_32,107,4078.97,4091.28,4095.9,4077.44,4079.49,4064.1,4097.44,4093.85,4094.87,4055.9,4084.62,4105.13,4016.41,4071.28,0
12_30_32,108,4094.36,4111.79,4109.23,4089.74,4073.85,4063.08,4107.18,4109.74,4121.03,4127.69,4102.56,4124.1,4061.54,4104.1,0
12_30_32,109,4107.69,4118.46,4112.31,4086.67,4093.85,4075.9,4106.67,4110.77,4115.38,4130.26,4118.46,4132.31,4078.97,4124.1,0
12_30_32,110,4106.67,4098.97,4108.21,4072.31,4106.67,4076.92,4103.08,4105.64,4100.51,4090.77,4118.97,4130.26,4074.36,4120,0
12_30_32,111,4108.21,4097.44,4112.31,4081.03,4091.79,4072.31,4107.69,4111.79,4117.44,4110.77,4130.26,4140,4092.82,4127.69,0
12_30_32,112,4105.64,4110.77,4109.74,4093.33,4079.49,4084.62,4108.72,4109.23,4126.15,4120,4138.46,4140,4095.38,4127.69,0
12_30_32,113,4097.44,4103.59,4101.03,4090.77,4074.87,4088.72,4105.64,4102.05,4116.41,4090.77,4132.82,4129.23,4074.87,4111.79,0
12_30_32,114,4097.44,4088.21,4102.05,4091.28,4069.23,4075.38,4105.64,4109.74,4123.08,4094.36,4135.38,4131.28,4081.03,4109.74,0
12_30_32,115,4097.95,4091.28,4100,4085.64,4077.44,4073.85,4106.67,4111.79,4129.74,4105.64,4138.97,4127.69,4087.69,4113.33,0
12_30_32,116,4092.31,4097.44,4096.41,4081.03,4089.74,4078.46,4107.69,4103.59,4121.54,4103.08,4140.51,4120,4077.44,4109.23,0
12_30_32,117,4099.49,4094.36,4104.1,4094.36,4089.74,4071.28,4106.15,4109.23,4119.49,4118.46,4142.05,4131.28,4081.54,4113.33,0
12_30_32,118,4108.21,4102.56,4110.77,4092.31,4094.87,4073.85,4105.13,4120.51,4128.21,4148.21,4134.36,4138.46,4089.74,4121.54,0
12_30_32,119,4094.87,4105.13,4105.13,4069.74,4076.41,4080.51,4106.15,4115.38,4116.92,4124.1,4124.62,4125.13,4075.9,4111.79,0
12_30_32,120,4092.31,4093.33,4105.13,4073.33,4053.85,4072.82,4109.74,4112.31,4103.59,4086.15,4136.92,4126.15,4064.1,4101.03,0
12_30_32,121,4112.31,4096.92,4110.26,4089.23,4071.79,4066.67,4110.77,4124.1,4118.46,4105.13,4146.67,4143.08,4083.08,4111.28,0
12_30_32,122,4109.74,4112.31,4109.23,4086.67,4093.85,4074.36,4110.77,4125.13,4129.23,4118.46,4140.51,4141.54,4095.9,4123.08,0
12_30_32,123,4090.26,4103.08,4104.1,4086.15,4079.49,4080.51,4110.77,4111.79,4114.36,4093.33,4141.54,4124.62,4076.92,4116.41,0
12_30_32,124,4094.87,4088.72,4104.1,4086.15,4058.46,4067.69,4104.62,4103.59,4103.59,4090.26,4144.1,4119.49,4066.15,4106.15,0
12_30_32,125,4107.69,4098.46,4104.62,4074.36,4078.46,4058.97,4095.38,4100,4104.62,4111.28,4137.44,4126.15,4079.49,4106.15,0
12_30_32,126,4099.49,4110.26,4096.92,4074.87,4097.44,4068.21,4092.31,4091.28,4098.97,4104.1,4132.31,4118.97,4078.97,4101.54,0
12_30_32,127,4087.18,4104.62,4090.26,4091.28,4078.46,4071.79,4094.36,4088.72,4093.33,4089.74,4135.9,4109.23,4067.69,4088.72,0
12_30_32,128,4092.82,4091.28,4097.95,4093.33,4063.08,4064.1,4096.41,4098.46,4095.38,4088.21,4137.95,4115.38,4072.82,4091.28,0
12_30_32,0,4106.67,4089.74,4105.64,4088.72,4062.56,4066.67,4101.54,4106.67,4100.51,4088.72,4137.44,4124.1,4079.49,4112.31,0
12_30_32,1,4104.62,4098.46,4099.49,4090.26,4061.54,4073.33,4106.15,4107.18,4106.67,4097.44,4144.62,4128.72,4077.44,4122.05,0
12_30_32,2,4094.87,4102.56,4094.87,4088.72,4078.46,4070.26,4100.51,4107.69,4109.23,4109.23,4150.26,4132.82,4083.08,4115.9,0
12_30_32,3,4092.31,4092.82,4096.92,4077.95,4092.82,4068.21,4093.33,4106.15,4108.21,4106.67,4143.08,4128.72,4082.05,4106.15,0
12_30_32,4,4085.13,4082.56,4092.31,4072.82,4081.54,4069.23,4095.38,4104.62,4104.1,4094.36,4135.9,4117.95,4069.23,4096.92,0
12_30_32,5,4084.1,4089.74,4088.72,4075.9,4067.69,4070.77,4102.05,4106.67,4103.08,4090.77,4137.95,4118.46,4064.62,4095.38,0
12_30_32,6,4100.51,4094.87,4098.46,4073.33,4046.15,4072.82,4107.18,4111.79,4111.79,4100.51,4142.05,4130.26,4071.79,4106.67,0
12_30_32,7,4104.1,4077.95,4108.72,4077.95,4041.54,4071.79,4104.1,4115.9,4121.03,4114.36,4154.87,4137.44,4077.95,4114.36,0
12_30_32,8,4094.36,4071.28,4106.67,4090.26,4095.9,4080.51,4098.97,4115.9,4117.95,4117.95,4162.56,4136.41,4072.31,4107.69,0
12_30_32,9,4103.59,4097.44,4106.67,4092.82,4131.79,4097.44,4107.18,4117.95,4119.49,4119.49,4149.23,4136.41,4071.28,4109.23,0
12_30_32,10,4113.85,4114.87,4110.26,4086.15,4094.87,4090.77,4110.26,4120.51,4129.74,4129.23,4149.74,4140,4090.77,4123.59,0
12_30_32,11,4103.08,4100,4105.13,4081.03,4077.95,4076.92,4093.33,4111.28,4120.51,4123.08,4158.97,4131.79,4095.9,4122.56,0
12_30_32,12,4105.64,4094.36,4103.59,4090.77,4104.1,4082.05,4092.31,4102.56,4103.59,4104.1,4148.72,4127.69,4081.03,4118.46,0
12_30_32,13,4127.18,4100,4112.31,4105.13,4083.59,4076.92,4105.64,4108.21,4107.69,4102.05,4152.82,4142.56,4081.54,4128.72,0
12_30_32,14,4122.56,4085.13,4112.82,4094.36,4025.64,4063.08,4098.97,4107.69,4109.74,4116.92,4167.18,4139.49,4085.64,4128.21,0
12_30_32,15,4098.97,4071.28,4104.1,4078.46,4044.1,4075.38,4088.21,4098.97,4096.41,4107.18,4160,4118.97,4067.18,4110.77,0
12_30_32,16,4099.49,4078.97,4105.64,4087.18,4125.64,4091.28,4098.97,4103.08,4094.87,4089.23,4156.92,4123.59,4061.54,4104.62,0
12_30_32,17,4109.74,4083.59,4108.72,4091.28,4126.67,4079.49,4107.69,4111.28,4107.18,4103.59,4170.26,4141.54,4076.92,4114.87,0
12_30_32,18,4105.64,4074.36,4102.56,4078.46,4071.28,4069.74,4100.51,4106.67,4108.21,4112.82,4165.13,4139.49,4070.26,4120.51,0
12_30_32,19,4103.08,4079.49,4095.9,4077.44,4077.95,4078.46,4092.82,4098.97,4104.1,4093.85,4155.9,4132.31,4061.03,4116.41,0
12_30_32,20,4101.03,4088.21,4094.36,4083.59,4074.36,4074.87,4092.31,4100,4100,4090.77,4154.36,4131.79,4070.77,4107.18,0
12_30_32,21,4096.41,4084.62,4097.95,4089.74,4034.87,4063.59,4097.44,4106.67,4095.9,4110.77,4151.79,4130.77,4072.31,4110.26,0
12_30_32,22,4104.1,4085.13,4102.05,4092.82,4063.59,4068.72,4100.51,4110.77,4098.97,4111.79,4154.36,4127.18,4061.54,4118.46,0
12_30_32,23,4108.21,4089.23,4098.97,4085.13,4121.03,4078.46,4100.51,4112.31,4100,4102.56,4149.23,4122.56,4064.62,4113.33,0
12_30_32,24,4103.08,4087.69,4101.03,4080,4109.74,4074.87,4103.59,4116.41,4098.46,4106.15,4137.44,4125.13,4071.79,4108.21,0
12_30_32,25,4109.23,4091.79,4110.26,4088.72,4081.03,4073.33,4107.18,4116.92,4102.05,4092.31,4139.49,4131.79,4061.54,4108.72,0
12_30_32,26,4114.87,4095.9,4110.77,4101.03,4080.51,4080.51,4106.67,4117.44,4106.15,4077.95,4145.64,4134.36,4057.95,4110.77,0
12_30_32,27,4107.69,4084.62,4105.13,4101.03,4068.21,4081.54,4105.64,4118.46,4103.59,4092.31,4137.95,4130.77,4071.28,4114.87,0
12_30_32,28,4112.31,4083.59,4112.31,4092.31,4075.9,4082.05,4107.69,4114.36,4107.69,4115.38,4134.87,4131.79,4085.64,4122.56,0
12_30_32,29,4125.13,4094.36,4123.59,4094.87,4104.1,4085.64,4107.69,4109.23,4112.82,4107.69,4140,4139.49,4088.21,4126.15,0
12_30_32,30,4122.56,4091.28,4124.62,4111.28,4107.69,4084.62,4105.64,4108.21,4105.64,4078.46,4138.97,4144.62,4087.18,4124.1,0
12_30_32,31,4112.82,4088.72,4117.95,4109.23,4089.23,4078.46,4098.97,4107.18,4103.59,4079.49,4138.46,4141.54,4086.67,4123.59,0
12_30_32,32,4105.64,4091.28,4108.21,4093.33,4054.87,4071.79,4093.85,4104.1,4106.67,4107.69,4137.44,4132.31,4089.23,4122.56,0
12_30_32,33,4102.56,4086.15,4104.1,4094.36,4054.87,4072.31,4096.41,4108.21,4109.74,4116.41,4137.95,4132.31,4102.05,4124.62,0
12_30_32,34,4104.62,4081.03,4107.18,4097.95,4100,4075.9,4098.97,4113.33,4117.44,4105.13,4142.05,4137.95,4105.64,4123.08,0
12_30_32,35,4103.08,4088.72,4109.23,4091.79,4127.69,4078.97,4097.95,4110.77,4122.56,4110.26,4136.41,4138.46,4095.38,4121.54,0
12_30_32,36,4091.28,4085.64,4101.03,4084.62,4100,4086.67,4098.97,4107.18,4121.54,4124.1,4123.08,4126.67,4092.82,4121.54,0
12_30_32,37,4075.38,4062.05,4091.28,4077.95,4069.74,4091.28,4097.44,4105.64,4115.9,4110.77,4115.9,4107.69,4089.23,4108.72,0
12_30_32,38,4071.28,4046.67,4093.85,4071.79,4074.87,4080,4093.33,4106.67,4106.15,4083.08,4120.51,4106.67,4078.97,4099.49,0
12_30_32,39,4081.54,4056.41,4101.54,4077.95,4091.79,4073.85,4102.56,4110.77,4109.74,4087.69,4125.13,4121.54,4080,4110.77,0
12_30_32,40,4091.28,4070.26,4101.54,4089.23,4079.49,4084.62,4109.74,4112.82,4120.51,4108.21,4117.44,4120.51,4083.08,4114.36,0
12_30_32,41,4089.74,4061.54,4098.46,4091.79,4032.31,4088.72,4103.08,4107.69,4114.36,4098.46,4110.77,4109.23,4074.36,4099.49,0
12_30_32,42,4089.23,4056.92,4101.03,4091.28,4055.9,4091.79,4098.97,4107.18,4109.23,4091.28,4120,4118.97,4080,4101.54,0
12_30_32,43,4092.31,4069.74,4103.08,4088.72,4123.08,4095.38,4101.54,4109.74,4111.79,4107.18,4128.21,4128.21,4093.33,4111.79,0
12_30_32,44,4088.72,4073.85,4100,4088.21,4113.85,4089.74,4102.56,4104.1,4106.15,4114.36,4117.44,4116.41,4090.26,4105.13,0
12_30_32,45,4088.72,4077.95,4098.97,4090.77,4085.64,4088.72,4101.03,4107.69,4114.87,4109.74,4117.44,4113.85,4088.21,4104.1,0
12_30_32,46,4095.9,4088.21,4104.1,4095.9,4100,4091.79,4103.08,4118.46,4129.74,4107.18,4134.87,4125.64,4093.33,4112.31,0
12_30_32,47,4092.82,4082.56,4102.05,4096.92,4082.05,4087.18,4103.59,4112.31,4114.87,4094.36,4130.77,4120.51,4092.82,4108.21,0
12_30_32,48,4083.08,4069.23,4094.36,4091.79,4058.46,4088.72,4101.03,4100.51,4099.49,4086.15,4110.26,4103.08,4089.74,4101.03,0
12_30_32,49,4087.69,4075.38,4101.54,4097.44,4098.97,4094.87,4104.62,4113.85,4119.49,4113.33,4115.38,4110.26,4093.85,4108.72,0
12_30_32,50,4090.77,4073.85,4103.59,4103.59,4103.08,4090.77,4103.59,4121.54,4128.72,4130.26,4127.18,4121.03,4092.31,4110.77,0
12_30_32,51,4087.18,4066.15,4093.85,4094.87,4074.36,4091.79,4097.44,4107.18,4112.82,4110.26,4117.95,4114.36,4091.28,4103.08,0
12_30_32,52,4091.28,4077.95,4097.95,4096.41,4085.64,4092.31,4101.03,4106.67,4115.38,4101.54,4118.97,4116.92,4094.36,4108.21,0
12_30_32,53,4089.74,4074.87,4107.18,4104.1,4097.44,4088.72,4106.67,4115.9,4120.51,4111.28,4125.64,4122.56,4092.31,4113.85,0
12_30_32,54,4082.56,4057.95,4104.1,4095.38,4097.95,4099.49,4098.97,4105.64,4100,4093.33,4114.36,4112.31,4082.56,4102.56,0
12_30_32,55,4092.82,4069.23,4108.21,4095.9,4116.41,4105.64,4098.97,4102.56,4100,4088.21,4121.54,4118.46,4084.1,4100,0
12_30_32,56,4101.03,4082.56,4116.92,4109.74,4112.82,4094.36,4108.21,4120.51,4127.69,4124.1,4141.03,4141.03,4101.03,4115.38,0
12_30_32,57,4094.87,4071.28,4113.85,4110.26,4084.1,4086.67,4099.49,4118.97,4126.15,4136.92,4134.87,4141.03,4108.21,4121.03,0
12_30_32,58,4104.1,4077.44,4113.85,4106.67,4097.95,4085.64,4087.18,4103.08,4106.15,4111.28,4131.79,4135.38,4105.13,4118.97,0
12_30_32,59,4115.38,4092.82,4113.33,4108.21,4111.79,4081.03,4094.87,4104.1,4104.1,4088.21,4136.92,4140.51,4102.05,4123.59,0
12_30_32,60,4109.23,4079.49,4109.23,4108.21,4089.74,4084.62,4102.05,4107.69,4106.67,4093.85,4127.18,4141.03,4090.26,4120,0
12_30_32,61,4112.31,4069.74,4114.36,4120.51,4082.56,4088.72,4096.92,4105.64,4108.21,4120,4130.26,4147.69,4090.26,4117.44,0
12_30_32,62,4125.13,4077.95,4118.97,4127.18,4091.79,4081.03,4095.38,4110.26,4113.85,4131.28,4146.67,4156.41,4111.28,4132.82,0
12_30_32,63,4123.08,4079.49,4115.38,4109.74,4086.15,4071.28,4097.95,4114.87,4111.28,4118.46,4143.08,4152.82,4120.51,4140.51,0
12_30_32,64,4109.23,4076.41,4114.36,4102.05,4076.92,4070.26,4094.87,4111.28,4105.13,4108.21,4140,4149.23,4112.31,4126.67,0
12_30_32,65,4112.82,4080.51,4118.46,4113.85,4087.18,4074.87,4092.82,4109.23,4108.72,4111.28,4150.77,4153.85,4115.9,4123.59,0
12_30_32,66,4122.05,4077.95,4117.95,4116.92,4088.21,4077.44,4096.41,4109.23,4110.26,4109.23,4144.62,4149.74,4116.92,4130.77,0
12_30_32,66,4122.05,4077.95,4117.95,4116.92,4088.21,4077.44,4096.41,4109.23,4110.26,4109.23,4144.62,4149.74,4116.92,4130.77,0
12_30_32,67,4113.85,4067.69,4114.87,4113.85,4072.31,4082.05,4095.9,4109.23,4106.67,4103.08,4134.87,4141.03,4096.92,4125.64,0
12_30_32,68,4104.1,4061.54,4113.85,4112.82,4063.08,4083.08,4094.36,4109.74,4107.18,4098.97,4142.56,4141.54,4086.15,4120.51,0
12_30_32,69,4103.08,4055.9,4109.23,4101.54,4070.26,4079.49,4091.28,4106.15,4102.05,4105.64,4135.9,4137.95,4095.9,4121.03,0
12_30_32,70,4106.67,4065.13,4104.1,4094.87,4070.26,4076.92,4087.69,4102.05,4098.46,4116.41,4126.15,4132.82,4108.72,4120.51,0
12_30_32,71,4112.31,4076.41,4107.69,4108.72,4041.54,4071.79,4090.77,4105.64,4106.67,4105.64,4142.56,4140,4106.67,4125.13,0
12_30_32,72,4109.23,4063.59,4110.77,4113.33,4052.31,4078.46,4096.41,4105.64,4110.26,4094.87,4151.28,4140,4098.46,4126.15,0
12_30_32,73,4100.51,4055.9,4104.1,4092.31,4105.13,4099.49,4100,4102.05,4103.08,4110.26,4137.95,4123.59,4101.54,4116.41,0
12_30_32,74,4104.1,4066.15,4102.56,4091.79,4112.82,4103.08,4107.69,4112.82,4105.64,4131.28,4137.44,4124.1,4112.82,4115.9,0
12_30_32,75,4109.74,4068.21,4107.18,4106.67,4090.26,4089.23,4113.85,4128.21,4118.46,4130.26,4143.59,4136.92,4112.82,4124.62,0
12_30_32,76,4105.64,4071.79,4104.62,4096.92,4087.18,4089.74,4104.1,4126.67,4120,4114.36,4137.44,4131.28,4099.49,4121.03,0
12_30_32,77,4103.59,4079.49,4103.59,4089.74,4084.1,4093.85,4097.44,4120.51,4113.85,4101.03,4134.87,4122.05,4097.95,4116.41,0
12_30_32,78,4105.64,4074.87,4109.74,4104.1,4091.28,4094.36,4104.62,4121.03,4113.85,4101.54,4134.36,4125.13,4107.18,4116.92,0
12_30_32,79,4099.49,4063.08,4105.64,4104.1,4093.85,4088.72,4100.51,4110.26,4107.18,4114.87,4122.56,4124.62,4100,4108.72,0
12_30_32,80,4088.21,4054.87,4094.87,4091.28,4062.05,4073.85,4086.67,4095.38,4088.72,4108.21,4117.44,4117.95,4082.56,4101.03,0
12_30_32,81,4092.82,4068.21,4101.03,4097.44,4082.56,4082.56,4090.77,4103.59,4091.28,4097.44,4124.62,4121.03,4091.28,4107.18,0
12_30_32,82,4104.62,4081.03,4108.72,4097.95,4110.26,4096.41,4100,4111.28,4100,4093.85,4120.51,4123.59,4102.05,4108.21,0
12_30_32,83,4104.1,4056.92,4104.62,4097.44,4051.28,4082.05,4094.87,4109.23,4090.26,4086.15,4116.92,4121.54,4074.87,4103.59,0
12_30_32,84,4115.9,4053.33,4113.33,4115.9,4047.18,4075.9,4091.79,4116.92,4099.49,4105.64,4137.44,4135.38,4074.87,4121.54,0
12_30_32,85,4144.1,4092.31,4125.13,4116.41,4115.9,4087.69,4093.85,4118.97,4110.77,4114.87,4147.18,4150.77,4120.51,4153.33,0
12_30_32,86,4158.97,4100.51,4123.08,4105.64,4111.28,4083.59,4091.79,4104.1,4086.67,4083.59,4135.9,4150.26,4125.13,4165.64,0
12_30_32,87,4172.31,4089.23,4127.18,4116.92,4049.23,4069.74,4090.26,4105.64,4078.46,4082.05,4143.59,4156.41,4104.1,4174.87,0
12_30_32,88,4202.56,4113.85,4141.03,4135.38,4043.08,4070.77,4093.33,4124.1,4102.05,4111.28,4160.51,4172.82,4121.03,4206.15,0
12_30_32,89,4227.18,4144.1,4143.08,4137.44,4089.23,4078.46,4096.41,4119.49,4099.49,4103.59,4150.77,4174.36,4138.46,4228.21,0
12_30_32,90,4237.44,4148.72,4140,4135.38,4113.85,4074.87,4093.85,4104.1,4080,4087.69,4138.97,4165.64,4127.69,4221.54,0
12_30_32,91,4235.38,4137.44,4141.54,4138.46,4089.23,4067.18,4089.74,4106.15,4081.54,4091.79,4153.85,4170.77,4122.56,4218.46,0
12_30_32,92,4219.49,4121.03,4137.95,4138.97,4064.62,4070.26,4091.28,4109.23,4078.46,4075.38,4156.92,4171.28,4111.79,4218.97,0
12_30_33,93,4222.05,4130.26,4137.44,4137.95,4081.54,4076.41,4094.36,4105.13,4070.77,4063.59,4134.87,4157.44,4107.69,4212.31,0
12_30_33,94,4242.56,4152.82,4143.08,4134.87,4089.74,4068.72,4091.28,4107.69,4079.49,4082.56,4133.85,4160,4118.46,4218.97,0
12_30_33,95,4233.33,4143.59,4142.56,4137.95,4072.82,4061.03,4088.21,4107.69,4083.08,4102.56,4147.18,4168.72,4106.67,4222.56,0
12_30_33,96,4209.23,4127.69,4137.95,4143.08,4069.74,4069.23,4090.77,4097.95,4071.79,4084.1,4131.79,4158.97,4094.87,4208.21,0
12_30_33,97,4207.18,4129.74,4135.9,4136.92,4091.28,4080,4091.28,4095.9,4060,4049.23,4113.33,4146.67,4091.79,4195.9,0
12_30_33,98,4215.38,4133.33,4135.9,4122.56,4117.44,4080.51,4092.31,4104.1,4061.03,4074.87,4124.1,4153.85,4089.23,4196.92,0
12_30_33,99,4215.9,4140,4138.46,4127.18,4104.62,4074.36,4097.44,4114.36,4077.95,4117.44,4139.49,4167.18,4104.1,4198.46,0
12_30_33,100,4210.26,4137.44,4141.54,4148.21,4069.74,4072.82,4097.95,4122.56,4093.33,4102.56,4142.56,4171.28,4109.23,4188.72,0
12_30_33,101,4195.38,4114.87,4136.92,4137.95,4065.64,4073.33,4091.28,4121.03,4087.18,4084.1,4132.82,4163.08,4086.67,4181.54,0
12_30_33,102,4187.18,4112.82,4132.82,4120,4097.95,4075.9,4091.28,4116.92,4082.56,4100.51,4122.56,4153.85,4083.59,4186.15,0
12_30_33,103,4192.82,4126.67,4137.95,4131.28,4105.13,4082.56,4100,4119.49,4091.28,4095.38,4136.92,4158.97,4098.97,4179.49,0
12_30_33,104,4181.03,4113.85,4137.95,4135.9,4080,4078.97,4100.51,4121.54,4085.64,4088.21,4142.05,4155.9,4090.26,4152.82,0
12_30_33,105,4169.23,4109.74,4137.44,4120,4089.74,4077.44,4096.92,4121.54,4079.49,4104.1,4124.1,4144.62,4092.82,4149.23,0
12_30_33,106,4171.28,4123.08,4134.87,4113.85,4111.79,4090.26,4097.44,4118.97,4088.21,4103.59,4120.51,4143.08,4102.56,4160.51,0
12_30_33,107,4160,4104.1,4126.15,4127.18,4065.13,4096.41,4093.33,4107.69,4084.1,4087.18,4122.56,4137.44,4083.59,4146.15,0
12_30_33,108,4156.92,4088.21,4129.23,4138.97,4040.51,4094.87,4086.15,4100.51,4077.44,4083.08,4125.64,4138.46,4080,4138.97,0
12_30_33,109,4170.26,4103.08,4141.03,4129.23,4108.21,4103.08,4093.85,4111.28,4092.31,4110.77,4136.41,4152.82,4111.28,4152.82,0
12_30_33,110,4163.59,4105.64,4140.51,4116.92,4138.97,4109.74,4102.56,4124.1,4109.23,4138.46,4136.41,4152.82,4129.23,4157.44,0
12_30_33,111,4150.26,4097.95,4135.9,4120.51,4084.1,4098.46,4100,4124.1,4108.72,4131.79,4126.15,4144.1,4128.72,4153.33,0
12_30_33,112,4154.87,4094.36,4136.92,4128.21,4056.41,4093.33,4100,4116.41,4106.15,4114.36,4137.44,4150.77,4135.9,4153.33,0
12_30_33,113,4154.36,4075.38,4138.97,4131.79,4096.92,4107.18,4104.1,4107.18,4107.18,4117.95,4150.77,4156.92,4143.59,4154.36,0
12_30_33,114,4150.77,4073.85,4144.1,4130.77,4125.64,4109.74,4101.54,4107.18,4111.79,4117.44,4149.23,4151.79,4140,4155.38,0
12_30_33,115,4155.9,4093.85,4145.13,4125.13,4087.18,4090.77,4100.51,4117.44,4114.87,4110.77,4152.82,4151.79,4134.36,4157.44,0
12_30_33,116,4152.82,4090.26,4145.64,4131.79,4066.67,4086.15,4106.67,4122.56,4109.23,4123.08,4147.69,4154.36,4143.08,4161.03,0
12_30_33,117,4144.1,4083.08,4148.21,4131.28,4118.46,4093.85,4106.15,4113.85,4097.44,4119.49,4126.67,4151.28,4157.44,4161.03,0
12_30_33,118,4139.49,4096.41,4145.64,4112.31,4134.36,4082.56,4098.46,4105.13,4091.79,4093.85,4129.23,4151.28,4151.28,4151.79,0
12_30_33,119,4137.44,4077.95,4147.69,4119.49,4074.36,4066.15,4095.38,4103.59,4090.77,4086.67,4155.38,4153.33,4126.67,4147.18,0
12_30_33,120,4140.51,4053.85,4157.44,4134.36,4101.54,4068.72,4096.41,4106.15,4094.36,4114.87,4147.69,4146.15,4130.26,4152.82,0
12_30_33,121,4132.82,4055.38,4155.38,4111.28,4136.92,4063.59,4095.38,4107.69,4094.87,4118.46,4117.44,4136.92,4148.72,4144.1,0
12_30_33,122,4111.79,4030.77,4147.69,4101.54,4062.56,4044.62,4091.79,4104.1,4086.15,4088.72,4130.77,4135.38,4132.31,4120.51,0
12_30_33,123,4105.64,4008.21,4152.31,4115.38,4064.62,4048.21,4094.36,4103.59,4092.31,4098.97,4156.41,4138.46,4112.82,4122.05,0
12_30_33,124,4106.67,4038.46,4156.41,4101.03,4164.62,4061.03,4099.49,4110.26,4105.13,4126.15,4142.56,4144.1,4130.77,4146.15,0
12_30_33,125,4096.41,4051.79,4151.28,4082.05,4148.72,4050.26,4094.36,4110.77,4095.38,4111.28,4116.41,4141.03,4151.28,4142.56,0
12_30_33,126,4090.26,4002.05,4151.28,4096.92,4054.36,4035.9,4086.15,4101.54,4080,4094.36,4127.69,4132.31,4129.23,4118.46,0
12_30_33,127,4108.21,3996.41,4163.59,4113.33,4086.67,4046.67,4095.38,4109.74,4095.9,4128.21,4154.36,4148.72,4121.03,4137.95,0
12_30_33,128,4127.18,4063.08,4177.44,4107.18,4173.33,4056.41,4110.26,4129.23,4121.54,4162.05,4157.95,4175.38,4161.54,4180.51,0
12_30_33,0,4126.15,4084.1,4172.82,4103.08,4133.85,4041.54,4106.15,4128.72,4117.44,4155.9,4154.36,4176.41,4171.79,4169.23,0
12_30_33,1,4119.49,4039.49,4164.1,4105.64,4070.26,4033.85,4099.49,4119.49,4111.79,4136.92,4171.28,4172.82,4138.46,4138.46,0
12_30_33,2,4115.9,4024.62,4164.62,4108.72,4121.03,4042.56,4105.13,4123.08,4118.97,4140,4176.41,4177.95,4130.77,4143.08,0
12_30_33,3,4109.23,4054.36,4159.49,4105.64,4168.72,4039.49,4108.21,4124.1,4116.92,4150.26,4148.72,4170.77,4146.67,4149.23,0
12_30_33,4,4103.08,4059.49,4154.36,4096.92,4106.67,4030.26,4103.59,4117.95,4112.31,4133.85,4155.38,4164.1,4137.95,4138.46,0
12_30_33,5,4111.79,4046.15,4165.64,4102.56,4087.18,4036.41,4106.67,4121.03,4121.54,4146.15,4188.72,4171.79,4130.77,4136.41,0
12_30_33,6,4117.95,4052.31,4173.85,4109.74,4139.49,4037.44,4111.28,4124.62,4128.21,4201.54,4175.9,4174.36,4149.23,4144.62,0
12_30_33,7,4114.87,4067.18,4165.64,4100,4139.49,4027.18,4108.72,4127.18,4128.72,4220.51,4164.1,4170.26,4159.49,4143.08,0
12_30_33,8,4116.41,4069.74,4163.08,4098.46,4135.38,4035.38,4111.28,4131.79,4130.77,4187.69,4190.77,4171.79,4146.67,4137.44,0
12_30_33,9,4118.97,4056.92,4168.72,4108.72,4157.44,4048.72,4118.97,4130.26,4121.54,4167.69,4201.03,4178.46,4129.23,4133.85,0
12_30_33,10,4125.13,4060,4167.18,4107.69,4138.97,4044.62,4121.54,4126.15,4113.33,4179.49,4186.67,4182.56,4126.15,4128.72,0
12_30_33,11,4143.59,4083.08,4169.23,4111.28,4149.74,4037.95,4122.05,4132.82,4130.26,4179.49,4190.77,4183.08,4148.72,4138.46,0
12_30_33,12,4156.92,4083.59,4173.33,4116.92,4213.85,4032.31,4124.62,4137.95,4148.72,4169.74,4211.79,4184.62,4166.15,4143.59,0
12_30_33,13,4151.28,4055.38,4167.18,4109.74,4198.97,4018.46,4121.54,4124.1,4136.41,4175.38,4226.15,4184.62,4137.95,4121.54,0
12_30_33,14,4160,4069.23,4168.21,4109.23,4162.56,4016.41,4121.03,4117.95,4127.69,4207.69,4211.79,4186.15,4126.15,4132.82,0
12_30_33,15,4174.36,4114.87,4168.21,4106.67,4186.67,4018.97,4121.03,4122.56,4134.87,4218.46,4177.95,4180,4158.97,4170.77,0
12_30_33,16,4169.23,4100.51,4156.41,4103.08,4185.64,4007.69,4115.9,4116.41,4127.69,4174.36,4185.64,4172.82,4153.33,4153.85,0
12_30_33,17,4172.31,4077.44,4164.62,4115.38,4192.31,4002.56,4122.05,4113.85,4131.79,4166.67,4224.1,4189.23,4131.28,4126.15,0
12_30_33,18,4186.15,4109.74,4183.08,4125.64,4241.54,4011.79,4135.9,4128.72,4153.33,4208.21,4220,4211.28,4156.92,4148.72,0
12_30_33,19,4193.33,4133.33,4182.05,4130.26,4254.87,4017.44,4137.95,4134.87,4152.31,4208.72,4200.51,4202.05,4172.82,4160.51,0
12_30_33,20,4199.49,4121.03,4181.03,4132.31,4243.59,4011.28,4136.92,4124.62,4141.54,4172.31,4208.72,4180.51,4156.92,4149.23,0
12_30_33,21,4200.51,4095.38,4184.62,4130.26,4223.08,3996.41,4137.95,4122.56,4145.13,4150.77,4223.08,4171.79,4146.15,4144.1,0
12_30_33,22,4197.95,4088.21,4179.49,4143.08,4205.13,3991.79,4135.9,4128.21,4151.28,4155.38,4229.74,4168.21,4144.1,4142.56,0
12_30_33,23,4202.56,4096.41,4180,4151.79,4250.77,4008.21,4140,4126.15,4160.51,4185.13,4229.23,4172.82,4150.77,4149.23,0
12_30_33,24,4207.69,4076.41,4188.72,4129.23,4309.74,4023.08,4147.18,4111.28,4172.31,4221.03,4218.97,4184.62,4156.92,4153.33,0
12_30_33,25,4211.79,4083.59,4188.72,4120,4291.28,4018.97,4144.62,4096.92,4176.92,4210.77,4220.51,4197.95,4168.21,4158.46,0
12_30_33,26,4214.87,4138.46,4184.62,4146.67,4253.33,4011.79,4139.49,4088.72,4174.87,4177.95,4229.74,4208.72,4185.64,4180,0
12_30_33,27,4220,4158.46,4189.74,4155.9,4253.85,4003.59,4140.51,4073.85,4170.77,4195.38,4217.44,4208.72,4176.92,4187.18,0
12_30_33,28,4238.97,4133.33,4211.79,4169.23,4283.59,3998.97,4147.69,4060,4175.9,4230.77,4222.56,4215.9,4163.08,4180.51,0
12_30_33,29,4257.44,4145.13,4225.64,4190.77,4324.62,4003.59,4153.33,4049.74,4185.13,4230.26,4241.03,4234.87,4186.67,4200,0
12_30_33,30,4260,4190.26,4217.95,4173.33,4330.26,4002.05,4152.82,4039.49,4175.38,4203.59,4229.74,4234.36,4198.97,4209.74,0
12_30_33,31,4254.87,4207.18,4213.33,4151.79,4305.13,4000,4149.23,4031.28,4164.1,4188.21,4220,4218.97,4173.85,4181.54,0
12_30_33,32,4243.59,4201.54,4215.9,4160.51,4299.49,4007.18,4152.82,4010.77,4169.23,4203.08,4224.62,4220,4169.74,4172.31,0
12_30_33,33,4231.79,4191.79,4215.38,4160,4317.44,4000,4163.59,3994.36,4173.33,4222.56,4212.82,4225.13,4186.15,4184.1,0
12_30_33,34,4231.28,4205.13,4214.36,4154.36,4331.28,3987.18,4169.23,4037.95,4169.23,4223.59,4217.44,4231.28,4181.03,4170.77,0
12_30_33,35,4222.05,4205.64,4207.18,4183.59,4322.56,3990.77,4166.15,4105.64,4157.95,4210.26,4236.92,4234.36,4160.51,4145.13,0
12_30_33,36,4210.26,4190.77,4196.41,4212.82,4325.64,3993.33,4167.18,4121.03,4152.82,4222.56,4222.56,4235.38,4164.62,4148.72,0
12_30_33,37,4216.92,4198.97,4196.41,4222.05,4324.62,3980.51,4171.28,4093.33,4157.44,4226.15,4214.87,4241.03,4175.9,4156.92,0
12_30_33,38,4218.46,4173.33,4201.54,4251.28,4302.05,3975.38,4169.74,4061.54,4152.31,4194.36,4232.31,4235.9,4163.59,4145.13,0
12_30_33,39,4217.44,4145.64,4204.62,4270.26,4321.54,3994.36,4170.77,4043.08,4143.08,4202.05,4226.15,4236.92,4169.23,4148.72,0
12_30_33,40,4232.31,4168.72,4209.23,4263.08,4353.85,4021.03,4174.36,4027.18,4147.18,4236.41,4209.23,4271.28,4188.21,4170.26,0
12_30_33,41,4240,4187.18,4204.62,4273.85,4330.26,4034.87,4171.79,4008.21,4156.41,4227.69,4215.9,4300,4174.36,4163.08,0
12_30_33,42,4228.72,4170.77,4190.77,4304.1,4320,4051.79,4175.38,4005.64,4154.36,4214.87,4219.49,4293.85,4160,4137.44,0
12_30_33,43,4228.21,4166.15,4187.18,4307.18,4361.54,4085.64,4185.64,4012.31,4136.41,4224.1,4192.31,4284.62,4174.87,4142.05,0
12_30_33,44,4232.82,4149.74,4187.18,4302.56,4325.64,4103.59,4182.56,4000,4116.41,4196.92,4182.05,4282.05,4163.59,4148.72,0
12_30_33,45,4227.18,4114.87,4183.59,4317.95,4270.77,4132.82,4175.9,3991.79,4114.36,4173.85,4214.87,4280,4125.64,4132.82,0
12_30_33,46,4240,4153.85,4188.72,4307.18,4347.69,4215.38,4183.08,4010.26,4126.15,4222.56,4215.38,4287.18,4140,4148.72,0
12_30_33,47,4265.13,4211.28,4190.77,4282.56,4404.1,4280.51,4190.77,4018.97,4131.28,4252.82,4172.31,4285.13,4181.03,4174.36,0
12_30_33,48,4267.69,4188.72,4174.87,4294.36,4342.56,4294.36,4186.15,4007.69,4125.64,4219.49,4167.69,4275.38,4171.79,4156.92,0
12_30_33,49,4265.13,4168.72,4166.15,4307.69,4322.05,4325.64,4184.1,4015.9,4122.05,4202.56,4197.95,4281.54,4148.72,4143.08,0
12_30_33,50,4281.03,4190.77,4177.95,4295.38,4351.79,4376.92,4192.82,4029.23,4128.21,4218.97,4204.62,4291.28,4149.23,4155.38,0
12_30_33,51,4293.33,4198.46,4186.15,4293.85,4346.67,4417.95,4196.92,4018.46,4139.49,4217.95,4199.49,4289.74,4152.82,4159.49,0
12_30_33,52,4285.64,4185.13,4175.9,4291.79,4323.08,4468.21,4191.28,4012.31,4140.51,4203.59,4189.23,4281.54,4147.69,4152.82,0
12_30_33,53,4284.1,4171.28,4163.08,4279.49,4301.54,4510.26,4184.1,4023.59,4134.36,4200,4179.49,4274.36,4147.18,4152.31,0
12_30_33,54,4302.05,4171.28,4169.23,4289.74,4308.72,4525.64,4186.67,4027.69,4139.49,4215.38,4191.79,4281.03,4147.69,4159.49,0
12_30_33,55,4320,4195.38,4180,4306.15,4353.33,4538.46,4197.44,4029.23,4154.36,4234.36,4197.95,4294.87,4151.28,4163.08,0
12_30_33,56,4323.59,4219.49,4175.38,4309.23,4363.59,4554.36,4197.44,4027.18,4154.87,4221.54,4193.33,4297.95,4152.31,4154.36,0
12_30_33,57,4325.64,4215.9,4165.64,4310.77,4340,4546.67,4187.69,3995.38,4148.72,4215.9,4186.15,4299.49,4151.28,4156.92,0
12_30_33,58,4335.38,4212.82,4160,4307.18,4347.69,4518.46,4190.26,3955.38,4158.46,4241.54,4169.74,4313.33,4153.33,4171.28,0
12_30_33,59,4344.1,4229.74,4162.05,4315.38,4368.72,4523.08,4202.56,3943.08,4172.31,4250.26,4168.21,4326.67,4151.28,4172.82,0
12_30_33,60,4346.67,4240.51,4161.54,4335.9,4363.08,4572.31,4201.54,3937.95,4169.74,4235.38,4184.1,4327.18,4150.26,4167.69,0
12_30_33,61,4342.05,4231.28,4157.95,4342.56,4346.15,4618.46,4197.44,3924.62,4169.23,4232.82,4188.21,4325.64,4151.28,4165.13,0
12_30_33,62,4337.44,4215.9,4157.44,4345.64,4329.74,4616.92,4200.51,3909.74,4173.33,4227.69,4185.13,4320.51,4138.46,4157.44,0
12_30_33,63,4334.87,4212.31,4148.72,4352.82,4321.03,4585.13,4194.87,3905.64,4165.13,4213.33,4180.51,4310.77,4127.18,4151.28,0
12_30_33,64,4335.9,4219.49,4134.87,4345.64,4322.56,4586.15,4194.87,3917.95,4171.79,4225.64,4168.21,4306.67,4143.59,4154.36,0
12_30_33,65,4344.62,4228.21,4139.49,4344.1,4330.26,4632.31,4207.69,3924.1,4192.31,4221.54,4178.97,4319.49,4156.41,4158.97,0
12_30_33,66,4352.31,4230.77,4156.92,4360.51,4323.59,4652.31,4208.72,3909.74,4190.77,4200.51,4197.95,4334.87,4136.92,4160.51,0
12_30_33,67,4352.31,4218.46,4157.44,4360,4317.44,4630.26,4205.64,3911.79,4186.15,4216.41,4182.05,4336.41,4123.08,4161.03,0
12_30_33,68,4353.33,4210.77,4151.28,4346.15,4333.33,4626.67,4216.92,3945.64,4198.46,4236.92,4166.15,4337.44,4147.18,4166.67,0
12_30_33,69,4364.1,4229.23,4156.41,4349.74,4346.67,4645.13,4223.59,3964.62,4209.23,4232.31,4189.74,4360.51,4167.18,4173.33,0
12_30_33,70,4369.23,4253.33,4160,4349.74,4344.1,4656.92,4215.9,3960,4213.85,4240,4207.18,4389.74,4158.97,4170.77,0
12_30_33,71,4359.49,4249.23,4157.44,4328.21,4341.54,4665.64,4213.33,3968.72,4217.95,4251.28,4188.21,4394.87,4152.82,4165.13,0
12_30_33,72,4353.33,4232.31,4153.85,4317.95,4329.74,4671.79,4215.38,3986.15,4216.92,4237.44,4182.56,4388.21,4155.38,4167.69,0
12_30_33,73,4365.13,4229.23,4156.92,4332.31,4324.1,4684.62,4211.28,3990.77,4224.62,4227.69,4204.1,4391.79,4150.26,4174.36,0
12_30_33,74,4374.36,4235.9,4160,4329.74,4330.26,4704.1,4204.62,3986.15,4235.38,4234.36,4195.9,4388.21,4143.59,4173.85,0
12_30_33,75,4372.31,4242.05,4152.82,4307.18,4303.59,4704.1,4200,3975.9,4228.21,4233.85,4154.87,4367.18,4141.03,4166.15,0
12_30_33,76,4382.56,4245.64,4154.87,4304.62,4296.92,4699.49,4205.13,3973.33,4226.67,4223.08,4162.05,4367.69,4139.49,4167.69,0
12_30_33,77,4394.87,4249.74,4166.67,4311.28,4348.21,4722.05,4212.82,3968.72,4247.69,4239.49,4202.05,4385.64,4143.59,4172.82,0
12_30_33,78,4387.18,4254.36,4166.67,4302.56,4367.18,4758.97,4216.92,3940.51,4261.03,4258.97,4190.26,4384.62,4149.74,4167.18,0
12_30_33,79,4373.85,4236.92,4168.72,4295.38,4324.62,4782.05,4214.87,3915.38,4251.79,4223.08,4163.08,4380,4133.33,4158.97,0
12_30_33,80,4372.31,4216.41,4187.69,4300,4302.56,4790.77,4206.15,3919.49,4254.36,4202.56,4178.97,4395.9,4117.95,4162.56,0
12_30_33,81,4376.41,4234.87,4191.28,4290.26,4321.54,4802.56,4199.49,3935.9,4273.85,4248.21,4176.92,4405.13,4135.9,4172.82,0
12_30_33,82,4372.31,4257.95,4170.77,4268.72,4326.67,4814.36,4203.59,3967.18,4280,4251.28,4144.62,4392.31,4147.69,4165.13,0
12_30_33,83,4366.15,4232.31,4165.64,4271.28,4315.38,4816.41,4212.82,4013.33,4282.56,4206.67,4154.36,4391.28,4124.62,4150.26,0
12_30_33,84,4365.13,4208.72,4172.31,4285.13,4303.59,4810.26,4215.38,4046.67,4303.08,4225.13,4176.41,4397.95,4118.97,4160,0
12_30_33,85,4360,4225.64,4161.03,4268.72,4298.46,4802.05,4213.85,4057.44,4322.05,4253.85,4155.9,4388.21,4139.49,4170.77,0
12_30_33,86,4351.28,4232.31,4148.72,4245.64,4297.95,4797.44,4214.36,4028.21,4325.64,4224.62,4142.56,4376.41,4141.54,4158.46,0
12_30_33,87,4351.79,4218.46,4154.87,4247.69,4297.44,4804.1,4216.41,3962.05,4336.41,4209.23,4168.72,4381.03,4133.85,4154.87,0
12_30_34,88,4354.87,4221.54,4167.69,4249.23,4291.79,4809.23,4216.41,3920.51,4354.87,4217.95,4173.85,4381.03,4137.95,4167.69,0
12_30_34,89,4348.72,4227.69,4170.26,4243.59,4284.62,4813.33,4213.85,3922.05,4368.21,4218.46,4148.72,4371.28,4138.97,4167.69,0
12_30_34,90,4350.26,4228.72,4171.79,4243.08,4304.1,4832.82,4216.92,3924.1,4382.05,4221.54,4149.74,4377.44,4141.54,4170.77,0
12_30_34,91,4357.44,4241.03,4177.95,4242.56,4317.44,4846.15,4216.41,3918.46,4400.51,4218.97,4164.62,4394.36,4160.51,4190.77,0
12_30_34,92,4351.79,4238.97,4174.87,4232.31,4290.26,4850.26,4208.72,3914.36,4412.82,4208.21,4151.28,4389.74,4171.79,4186.15,0
12_30_34,93,4345.64,4224.1,4168.21,4224.1,4271.79,4866.15,4206.67,3909.23,4414.36,4188.21,4143.59,4378.97,4159.49,4170.77,0
12_30_34,94,4351.79,4230.77,4170.26,4223.08,4278.97,4876.92,4206.15,3911.28,4410.26,4171.79,4162.05,4384.1,4142.56,4187.18,0
12_30_34,95,4356.41,4241.54,4173.33,4222.56,4278.97,4872.31,4201.03,3931.79,4411.28,4193.33,4153.85,4381.03,4149.23,4207.18,0
12_30_34,96,4355.38,4235.9,4171.79,4225.13,4277.95,4873.85,4201.03,3962.05,4428.21,4222.56,4141.03,4371.28,4170.26,4202.05,0
12_30_34,97,4357.44,4226.67,4169.74,4226.15,4268.21,4877.44,4203.08,3988.72,4444.1,4207.18,4162.05,4374.36,4169.23,4195.38,0
12_30_34,98,4361.03,4234.36,4169.23,4223.08,4251.28,4873.85,4199.49,4008.21,4447.18,4188.21,4170.26,4377.95,4153.33,4203.08,0
12_30_34,99,4355.9,4254.87,4166.15,4217.44,4278.46,4873.33,4206.67,4024.62,4453.33,4203.08,4159.49,4372.82,4140.51,4204.62,0
12_30_34,100,4345.13,4256.92,4160.51,4216.92,4312.82,4866.67,4214.87,4042.05,4462.05,4207.18,4153.85,4366.15,4143.59,4200,0
12_30_34,101,4335.9,4231.79,4151.28,4214.87,4286.15,4838.97,4204.1,4053.33,4457.44,4192.31,4139.49,4352.82,4155.38,4196.92,0
12_30_34,102,4341.54,4235.38,4154.87,4213.33,4267.18,4820,4203.59,4066.67,4464.62,4197.95,4134.36,4350.26,4158.46,4198.97,0
12_30_34,103,4358.97,4268.72,4176.92,4234.36,4295.38,4830.77,4225.64,4091.79,4496.41,4224.62,4165.64,4373.85,4158.97,4211.79,0
12_30_34,104,4378.97,4278.46,4190.26,4252.31,4306.15,4846.67,4239.49,4112.31,4516.92,4235.9,4195.38,4392.31,4166.67,4227.69,0
12_30_34,105,4380.51,4272.82,4191.28,4237.44,4297.44,4845.64,4234.87,4112.31,4516.92,4229.74,4189.23,4387.18,4175.9,4231.28,0
12_30_34,106,4354.36,4264.62,4183.08,4221.54,4291.28,4836.92,4229.74,4105.13,4509.23,4228.72,4171.79,4372.82,4179.49,4221.03,0
12_30_34,107,4338.97,4253.33,4174.36,4225.13,4283.08,4838.97,4228.21,4113.33,4506.67,4233.85,4163.08,4358.97,4183.08,4213.33,0
12_30_34,108,4353.85,4248.21,4174.87,4217.44,4299.49,4851.79,4232.31,4128.72,4517.95,4237.44,4167.18,4355.9,4184.62,4214.36,0
12_30_34,109,4354.36,4248.72,4176.92,4199.49,4317.95,4862.56,4233.33,4136.92,4524.1,4222.56,4173.33,4358.97,4185.13,4216.41,0
12_30_34,110,4330.77,4254.36,4170.26,4196.92,4296.41,4861.03,4222.56,4141.54,4512.31,4207.69,4168.21,4348.21,4175.38,4214.87,0
12_30_34,111,4325.13,4265.13,4164.62,4201.54,4275.38,4855.38,4214.36,4150.26,4503.59,4219.49,4160.51,4335.9,4150.77,4209.23,0
12_30_34,112,4337.95,4263.08,4168.21,4208.21,4277.44,4859.49,4218.97,4162.56,4504.1,4226.15,4153.33,4338.97,4152.82,4207.69,0
12_30_34,113,4335.9,4246.15,4169.74,4214.87,4266.67,4861.54,4223.08,4166.15,4501.54,4203.59,4153.33,4341.03,4170.77,4213.33,0
12_30_34,114,4332.31,4246.67,4167.69,4206.15,4265.64,4853.85,4218.46,4167.18,4502.05,4197.44,4168.21,4341.54,4166.67,4214.36,0
12_30_34,115,4329.23,4255.9,4166.15,4186.15,4294.36,4851.28,4219.49,4179.49,4505.64,4215.38,4165.64,4341.03,4155.38,4207.18,0
12_30_34,116,4310.77,4248.21,4156.92,4178.46,4302.56,4852.31,4225.13,4196.41,4505.64,4215.38,4136.41,4323.59,4146.15,4198.46,0
12_30_34,117,4296.92,4238.97,4148.72,4183.59,4274.36,4846.15,4221.03,4198.46,4504.62,4203.08,4128.21,4311.79,4136.41,4193.85,0
12_30_34,118,4306.15,4242.56,4155.9,4188.72,4257.95,4847.18,4218.97,4201.03,4507.18,4196.92,4142.56,4326.67,4131.79,4197.95,0
12_30_34,119,4316.41,4250.77,4168.21,4188.21,4276.41,4866.67,4231.28,4223.59,4512.82,4207.18,4136.92,4338.97,4141.03,4202.05,0
12_30_34,120,4307.69,4245.64,4164.62,4180.51,4275.38,4877.95,4239.49,4248.21,4527.69,4215.9,4136.92,4343.59,4146.15,4201.03,0
12_30_34,121,4301.54,4228.21,4155.38,4177.44,4249.23,4875.38,4234.36,4260.51,4535.38,4206.67,4156.41,4354.87,4134.87,4204.62,0
12_30_34,122,4307.18,4225.64,4163.59,4175.38,4249.74,4875.38,4230.26,4258.97,4503.08,4201.54,4149.74,4354.36,4127.18,4215.38,0
12_30_34,123,4306.15,4244.1,4169.74,4163.08,4275.38,4879.49,4234.36,4265.64,4475.9,4225.13,4135.9,4346.67,4144.1,4220,0
12_30_34,124,4300,4251.79,4159.49,4156.41,4285.64,4874.87,4235.38,4283.59,4487.18,4245.64,4153.33,4361.03,4163.08,4222.56,0
12_30_34,125,4296.41,4233.85,4152.31,4164.1,4274.87,4861.03,4229.74,4282.56,4472.82,4218.97,4157.44,4370.26,4149.74,4220.51,0
12_30_34,126,4292.31,4230.26,4155.9,4163.59,4267.18,4854.87,4226.67,4276.41,4440,4187.69,4137.95,4354.87,4125.13,4208.21,0
12_30_34,127,4290.26,4244.1,4158.97,4153.85,4263.59,4861.54,4233.85,4304.1,4459.49,4197.44,4144.62,4351.28,4129.23,4208.72,0
12_30_34,128,4294.87,4239.49,4156.41,4155.9,4250.77,4867.18,4235.38,4327.69,4485.13,4212.31,4155.38,4361.54,4139.49,4216.92,0
12_30_34,0,4294.36,4227.18,4153.33,4157.44,4238.97,4869.74,4230.26,4320.51,4472.82,4196.41,4141.03,4357.44,4130.26,4208.21,0
12_30_34,1,4282.05,4226.15,4151.28,4142.05,4246.15,4878.97,4236.92,4323.59,4487.18,4190.26,4139.49,4349.23,4124.1,4193.33,0
12_30_34,2,4276.41,4223.08,4153.85,4132.31,4251.79,4880,4239.49,4334.36,4516.41,4218.97,4162.56,4354.87,4138.46,4201.54,0
12_30_34,3,4276.41,4207.69,4152.82,4134.36,4229.74,4858.97,4222.56,4326.67,4496.92,4213.33,4151.79,4354.36,4134.36,4206.67,0
12_30_34,4,4268.72,4204.62,4143.59,4138.46,4213.33,4839.49,4210.77,4314.36,4460.51,4165.13,4116.92,4344.62,4106.15,4188.72,0
12_30_34,5,4263.08,4212.31,4139.49,4135.38,4227.18,4832.82,4210.77,4310.26,4460.51,4149.74,4111.28,4339.49,4105.13,4177.44,0
12_30_34,6,4264.1,4213.33,4137.44,4127.18,4248.72,4828.21,4207.69,4310.77,4486.67,4175.38,4120,4338.97,4123.59,4180,0
12_30_34,7,4258.97,4221.03,4138.46,4121.54,4257.95,4824.1,4207.69,4313.33,4505.64,4176.92,4124.62,4347.18,4121.54,4187.18,0
12_30_34,8,4248.72,4224.62,4150.26,4117.44,4248.72,4826.67,4214.87,4318.97,4521.54,4158.46,4134.36,4356.41,4109.23,4189.23,0
12_30_34,9,4245.64,4211.28,4167.18,4121.03,4234.87,4833.85,4216.92,4336.41,4547.69,4167.69,4142.56,4359.49,4116.41,4191.79,0
12_30_34,10,4247.18,4203.08,4174.36,4132.31,4228.21,4841.03,4216.92,4349.23,4570.77,4188.21,4138.97,4361.03,4128.72,4194.36,0
12_30_34,11,4252.82,4206.67,4166.15,4134.87,4224.1,4849.74,4215.9,4335.38,4575.38,4189.74,4136.41,4362.56,4126.67,4190.26,0
12_30_34,12,4256.41,4205.13,4157.95,4124.1,4219.49,4843.59,4206.15,4319.49,4570.26,4170.26,4141.54,4363.08,4118.46,4187.18,0
12_30_34,13,4248.72,4198.97,4158.46,4120,4213.33,4829.23,4201.03,4322.56,4573.85,4154.87,4139.49,4364.1,4111.28,4183.59,0
12_30_34,14,4244.1,4198.46,4161.03,4119.49,4210.26,4832.82,4205.13,4327.69,4592.82,4157.44,4128.21,4361.54,4116.92,4180.51,0
12_30_34,15,4249.23,4198.97,4157.95,4110.77,4205.13,4845.64,4204.1,4326.67,4602.05,4148.72,4116.92,4355.38,4122.56,4180.51,0
12_30_34,16,4248.21,4198.46,4157.44,4111.79,4199.49,4841.03,4200.51,4352.31,4602.05,4142.56,4123.59,4359.49,4113.33,4186.15,0
12_30_34,17,4247.18,4189.74,4164.62,4121.03,4210.77,4834.36,4201.03,4404.62,4606.67,4156.92,4137.95,4368.72,4116.41,4189.23,0
12_30_34,18,4251.28,4180.51,4165.13,4119.49,4214.87,4839.49,4201.54,4435.38,4605.64,4144.62,4136.92,4367.18,4118.46,4186.67,0
12_30_34,19,4249.74,4184.1,4160.51,4113.85,4196.41,4841.54,4198.97,4441.54,4598.97,4126.15,4125.64,4362.05,4100.51,4185.64,0
12_30_34,20,4247.69,4188.21,4163.08,4115.9,4201.54,4843.08,4200.51,4464.62,4601.54,4150.77,4118.46,4360,4108.72,4183.08,0
12_30_34,21,4251.79,4183.08,4170.77,4126.67,4217.44,4850.26,4200,4496.92,4603.08,4155.38,4130.77,4362.56,4133.33,4183.59,0
12_30_34,22,4252.82,4182.05,4170.26,4130.26,4193.85,4847.18,4191.28,4500.51,4591.28,4117.95,4142.05,4362.05,4112.82,4185.64,0
12_30_34,23,4248.72,4193.33,4160,4119.49,4181.03,4843.08,4177.44,4490.26,4585.13,4122.56,4126.15,4353.33,4097.95,4185.64,0
12_30_34,24,4246.67,4195.9,4153.85,4107.69,4206.67,4846.67,4171.79,4489.23,4587.18,4151.28,4102.05,4343.59,4122.05,4184.1,0
12_30_34,25,4245.64,4190.26,4152.82,4106.67,4212.82,4839.49,4181.03,4496.92,4583.08,4139.49,4104.1,4341.03,4125.13,4181.03,0
12_30_34,26,4243.08,4184.62,4152.31,4109.23,4193.33,4815.9,4188.72,4506.67,4581.54,4127.18,4121.03,4343.08,4108.72,4175.38,0
12_30_34,27,4242.56,4171.28,4152.82,4109.23,4178.97,4787.69,4185.13,4515.9,4584.1,4130.26,4124.1,4343.08,4103.08,4172.31,0
12_30_34,28,4249.23,4171.79,4155.38,4108.21,4192.31,4769.23,4189.74,4530.26,4583.59,4125.13,4121.03,4344.1,4105.64,4177.95,0
12_30_34,29,4246.67,4185.64,4154.87,4108.21,4208.72,4753.33,4196.92,4544.1,4579.49,4118.46,4122.05,4348.21,4111.79,4180,0
12_30_34,30,4235.38,4173.85,4151.28,4112.31,4179.49,4724.1,4188.21,4542.56,4574.87,4121.54,4122.56,4348.72,4110.77,4171.28,0
12_30_34,31,4237.44,4156.41,4153.85,4107.69,4162.56,4697.44,4182.56,4538.46,4568.21,4129.23,4112.31,4344.1,4105.13,4170.77,0
12_30_34,32,4242.05,4167.69,4154.87,4093.33,4211.79,4688.72,4186.67,4547.69,4565.13,4131.28,4104.1,4335.38,4108.72,4175.9,0
12_30_34,33,4229.23,4166.67,4150.26,4085.13,4233.85,4676.92,4188.21,4555.38,4562.56,4121.54,4118.46,4331.79,4103.59,4167.69,0
12_30_34,34,4220.51,4143.08,4149.74,4092.31,4197.44,4651.79,4193.85,4554.87,4555.38,4119.49,4118.46,4333.33,4094.36,4160.51,0
12_30_34,35,4232.82,4145.64,4156.41,4106.15,4182.56,4634.36,4201.03,4553.33,4552.31,4123.08,4090.26,4327.69,4104.1,4170.26,0
12_30_34,36,4238.97,4168.72,4155.38,4111.28,4191.79,4621.03,4197.95,4553.85,4550.77,4114.36,4085.64,4316.92,4102.56,4173.33,0
12_30_34,37,4230.26,4175.9,4141.54,4106.15,4188.72,4607.69,4193.85,4551.28,4539.49,4102.56,4096.92,4305.64,4078.46,4157.44,0
12_30_34,38,4227.18,4162.56,4134.87,4104.62,4179.49,4598.97,4193.33,4554.36,4525.64,4098.97,4084.62,4297.95,4055.38,4143.08,0
12_30_34,39,4230.77,4163.08,4137.44,4106.67,4170.77,4577.95,4188.72,4565.13,4520,4091.28,4068.72,4292.31,4037.95,4136.92,0
12_30_34,40,4231.79,4192.31,4135.38,4110.77,4174.87,4555.9,4189.23,4574.87,4522.05,4082.56,4072.82,4285.64,4033.85,4134.87,0
12_30_34,41,4233.85,4212.82,4137.44,4120,4186.67,4552.82,4198.97,4574.36,4527.18,4102.05,4078.97,4285.64,4038.46,4140.51,0
12_30_34,42,4232.82,4204.1,4137.95,4125.13,4183.59,4545.13,4199.49,4562.05,4513.85,4106.67,4074.36,4286.15,4023.08,4136.92,0
12_30_34,43,4219.49,4183.59,4124.1,4124.1,4177.95,4525.64,4188.21,4553.85,4485.13,4073.85,4057.95,4268.72,4000.51,4124.1,0
12_30_34,44,4212.31,4180,4120,4118.97,4184.1,4516.41,4184.1,4551.79,4474.36,4068.21,4050.26,4254.36,4012.31,4125.64,0
12_30_34,45,4221.03,4194.87,4136.92,4111.79,4186.67,4512.82,4189.74,4545.64,4481.54,4092.82,4065.64,4265.64,4040.51,4140,0
12_30_34,46,4223.08,4199.49,4138.46,4107.69,4181.03,4503.08,4185.64,4537.44,4471.79,4085.13,4068.21,4265.13,4037.44,4142.05,0
12_30_34,47,4211.79,4187.69,4123.59,4108.21,4174.87,4494.87,4182.05,4537.44,4455.9,4068.21,4060.51,4248.72,4018.97,4135.38,0
12_30_34,48,4205.13,4175.9,4126.15,4107.69,4166.67,4490.26,4187.69,4546.67,4461.03,4086.67,4071.28,4249.23,4018.46,4135.9,0
12_30_34,49,4202.56,4174.87,4133.33,4105.13,4168.21,4487.18,4186.67,4543.08,4456.41,4090.77,4069.23,4246.15,4016.92,4135.9,0
12_30_34,50,4193.85,4178.46,4127.69,4110.77,4180,4482.05,4182.56,4532.82,4435.9,4072.31,4050.77,4227.18,4000.51,4131.28,0
12_30_34,51,4196.92,4182.05,4127.69,4121.54,4184.62,4475.38,4189.74,4543.08,4440.51,4080.51,4059.49,4226.15,4006.15,4138.46,0
12_30_34,52,4214.87,4198.46,4137.44,4126.15,4189.74,4473.85,4202.05,4561.54,4460,4102.56,4082.56,4244.1,4032.31,4154.36,0
12_30_34,53,4220,4216.41,4140.51,4125.13,4202.56,4472.82,4202.05,4562.56,4450.26,4108.72,4081.54,4245.64,4037.44,4158.46,0
12_30_34,54,4214.36,4214.36,4129.74,4120,4200.51,4458.97,4194.87,4554.87,4428.72,4102.56,4071.28,4232.31,4033.33,4152.31,0
12_30_34,55,4215.38,4200.51,4112.31,4111.28,4187.69,4441.54,4192.82,4556.41,4424.1,4098.97,4073.85,4228.72,4035.9,4150.26,0
12_30_34,56,4217.95,4200.51,4104.1,4114.87,4183.08,4428.21,4194.87,4561.03,4421.54,4099.49,4079.49,4233.85,4032.82,4152.31,0
12_30_34,57,4223.08,4206.15,4110.77,4123.59,4188.21,4421.03,4193.33,4563.08,4410.77,4107.18,4083.08,4233.85,4036.41,4154.87,0
12_30_34,58,4230.77,4200.51,4102.05,4111.28,4190.26,4412.82,4188.21,4557.95,4400,4109.74,4076.41,4222.56,4043.59,4151.79,0
12_30_34,59,4232.82,4197.44,4082.56,4102.56,4185.64,4398.46,4192.82,4554.87,4394.36,4101.54,4071.28,4213.33,4037.44,4149.23,0
12_30_34,60,4226.67,4200.51,4093.85,4110.77,4183.08,4383.59,4196.41,4556.92,4383.08,4092.31,4080.51,4212.31,4029.23,4158.46,0
12_30_34,61,4214.87,4196.41,4114.87,4107.18,4178.97,4370.77,4188.21,4550.77,4364.1,4085.64,4081.03,4204.62,4029.23,4167.18,0
12_30_34,62,4207.18,4184.62,4107.69,4103.08,4173.85,4358.97,4187.69,4548.72,4353.85,4092.82,4066.67,4187.69,4028.21,4164.62,0
12_30_34,63,4213.85,4188.72,4094.36,4110.77,4184.62,4348.21,4197.95,4553.85,4352.31,4105.64,4066.15,4180,4028.21,4165.13,0
12_30_34,64,4224.62,4202.05,4094.87,4109.23,4203.59,4341.54,4201.54,4554.87,4345.64,4106.15,4073.85,4184.62,4025.64,4173.85,0
12_30_34,65,4232.82,4205.13,4100.51,4107.18,4205.13,4336.92,4198.46,4561.03,4340,4110.77,4077.44,4191.28,4032.31,4179.49,0
12_30_34,66,4248.72,4212.82,4098.46,4118.97,4198.97,4325.13,4199.49,4565.13,4335.9,4125.13,4087.69,4191.79,4053.33,4190.77,0
12_30_34,67,4260.51,4226.15,4092.31,4128.72,4197.95,4307.69,4199.49,4554.36,4316.92,4124.1,4093.85,4184.62,4052.31,4207.18,0
12_30_34,68,4269.23,4239.49,4098.97,4133.33,4200.51,4298.97,4197.95,4555.9,4298.97,4117.95,4088.72,4186.15,4036.41,4217.95,0
12_30_34,69,4286.67,4255.38,4110.26,4144.62,4202.56,4294.87,4198.97,4568.21,4297.95,4125.13,4091.28,4194.87,4044.62,4227.18,0
12_30_34,70,4298.97,4275.9,4108.72,4151.28,4193.85,4277.95,4197.44,4562.05,4290.77,4129.23,4101.54,4195.38,4056.92,4242.05,0
12_30_34,71,4302.56,4296.92,4107.69,4152.82,4190.77,4265.13,4196.41,4555.38,4271.28,4125.64,4095.9,4183.08,4048.21,4256.41,0
12_30_34,72,4297.44,4311.79,4107.69,4155.38,4200,4263.59,4191.79,4563.08,4253.33,4114.36,4083.08,4165.64,4038.46,4260.51,0
12_30_34,73,4285.13,4323.59,4104.62,4149.23,4192.31,4246.67,4186.15,4566.67,4238.46,4104.62,4083.59,4152.31,4036.92,4260.51,0
12_30_34,74,4278.97,4333.33,4102.56,4140,4180.51,4219.49,4187.18,4569.74,4229.23,4120,4083.08,4146.67,4042.56,4270.77,0
12_30_34,75,4280,4342.56,4101.03,4140.51,4195.38,4208.72,4189.23,4573.33,4233.33,4124.1,4070.26,4142.05,4053.33,4286.15,0
12_30_34,76,4267.18,4346.67,4088.72,4136.92,4211.79,4202.05,4186.67,4571.28,4230.26,4100,4059.49,4129.23,4045.64,4286.15,0
12_30_34,77,4245.64,4344.1,4077.44,4124.62,4199.49,4180.51,4185.64,4577.44,4219.49,4102.56,4064.1,4111.79,4031.28,4281.54,0
12_30_34,78,4244.62,4358.46,4079.49,4127.69,4190.77,4161.03,4187.69,4588.21,4224.62,4128.21,4069.23,4105.13,4042.05,4303.08,0
12_30_34,79,4252.82,4381.03,4083.08,4140,4196.92,4149.74,4184.62,4581.03,4232.82,4121.03,4065.64,4107.69,4052.31,4327.18,0
12_30_34,80,4250.26,4365.64,4077.44,4137.95,4178.46,4134.36,4181.03,4576.41,4222.56,4103.59,4072.82,4105.13,4035.38,4328.21,0
12_30_34,81,4246.15,4337.95,4073.33,4134.87,4168.21,4121.54,4183.08,4593.85,4208.21,4113.33,4082.56,4097.95,4025.64,4331.79,0
12_30_34,82,4247.69,4342.05,4081.03,4137.95,4202.05,4120,4183.08,4609.23,4201.03,4126.67,4080.51,4096.92,4036.92,4343.08,0
12_30_34,83,4246.67,4333.33,4083.59,4132.82,4217.95,4118.97,4183.08,4612.31,4192.31,4134.36,4082.56,4096.41,4051.28,4348.21,0
12_30_34,84,4234.36,4295.38,4078.46,4122.56,4187.69,4106.67,4185.64,4616.92,4180.51,4131.79,4086.15,4086.15,4056.92,4345.64,0
12_30_34,85,4214.87,4256.41,4073.33,4126.15,4152.31,4087.18,4180.51,4618.46,4173.85,4113.85,4081.03,4073.85,4039.49,4334.87,0
12_30_34,86,4200,4212.82,4069.74,4132.82,4149.23,4077.95,4170.77,4621.03,4166.15,4109.74,4078.46,4066.15,4014.87,4323.59,0
12_30_35,87,4200,4191.28,4069.23,4120,4188.21,4077.44,4169.23,4627.18,4152.82,4124.1,4068.72,4054.36,4017.95,4320,0
12_30_35,88,4201.54,4208.21,4067.69,4101.54,4216.92,4066.15,4165.64,4627.18,4138.46,4127.18,4052.31,4035.38,4031.79,4309.74,0
12_30_35,89,4194.36,4210.26,4060.51,4101.54,4186.15,4046.67,4154.87,4625.13,4130.77,4114.36,4058.97,4027.18,4030.26,4293.85,0
12_30_35,90,4181.54,4182.56,4053.33,4108.72,4156.92,4037.95,4155.38,4629.23,4122.56,4105.64,4067.69,4021.03,4029.23,4286.67,0
12_30_35,91,4173.85,4161.03,4050.77,4107.18,4170.77,4040.51,4165.64,4633.85,4115.9,4112.31,4058.46,4008.72,4045.64,4282.56,0
12_30_35,92,4171.79,4154.36,4051.28,4103.59,4164.1,4036.92,4167.69,4631.28,4111.79,4116.92,4065.64,4006.15,4051.28,4275.9,0
12_30_35,93,4158.97,4142.05,4046.67,4110.26,4142.56,4028.72,4167.18,4625.13,4105.64,4098.46,4081.03,4000,4025.64,4267.69,0
12_30_35,94,4130.26,4107.18,4038.46,4110.77,4158.46,4027.18,4165.13,4624.62,4109.74,4097.95,4076.92,3976.41,4013.33,4255.38,0
12_30_35,95,4112.31,4094.87,4037.95,4092.82,4187.18,4031.28,4158.97,4631.28,4120,4137.44,4074.36,3965.64,4043.59,4255.9,0
12_30_35,96,4106.15,4118.97,4045.64,4078.97,4174.36,4022.05,4154.87,4633.33,4117.44,4148.21,4077.44,3969.74,4063.59,4264.62,0
12_30_35,97,4084.62,4121.54,4046.67,4082.56,4148.72,4004.1,4155.9,4629.74,4110.26,4124.62,4073.85,3962.05,4055.38,4253.85,0
12_30_35,98,4062.56,4111.79,4045.64,4087.69,4163.08,4002.05,4156.41,4633.85,4111.28,4131.79,4070.26,3947.69,4061.03,4235.9,0
12_30_35,99,4049.74,4102.05,4051.28,4088.21,4176.41,4003.59,4155.38,4641.03,4112.82,4146.67,4075.38,3946.15,4086.15,4236.41,0
12_30_35,100,4029.74,4069.23,4050.26,4082.56,4159.49,3995.38,4155.38,4634.36,4105.64,4135.38,4078.97,3943.59,4099.49,4240,0
12_30_35,101,4007.69,4050.77,4041.03,4063.59,4140.51,3984.62,4149.23,4616.41,4092.82,4117.95,4074.87,3928.21,4093.85,4234.36,0
12_30_35,102,3996.92,4065.13,4041.54,4055.38,4121.03,3978.46,4140,4611.28,4086.67,4103.08,4077.44,3924.1,4082.05,4231.28,0
12_30_35,103,3989.74,4058.46,4055.38,4070.77,4116.92,3980.51,4142.56,4622.05,4094.36,4109.74,4083.08,3936.92,4090.77,4232.31,0
12_30_35,104,3977.95,4040.51,4057.95,4072.82,4146.67,3983.08,4147.69,4628.72,4098.46,4141.54,4077.44,3935.38,4114.36,4229.74,0
12_30_35,105,3964.1,4040,4048.21,4055.9,4153.85,3974.36,4142.05,4621.03,4090.77,4150.26,4071.79,3923.59,4126.67,4227.69,0
12_30_35,106,3945.13,4020.51,4042.56,4051.28,4106.15,3961.54,4137.44,4615.9,4088.21,4125.64,4077.44,3923.59,4129.23,4220.51,0
12_30_35,107,3923.59,3986.67,4040,4060.51,4081.03,3959.49,4143.08,4615.9,4094.87,4113.33,4082.05,3915.38,4127.69,4203.59,0
12_30_35,108,3904.62,3977.95,4038.97,4058.97,4101.54,3961.03,4145.13,4617.44,4103.08,4120.51,4084.62,3893.85,4125.64,4196.92,0
12_30_35,109,3894.87,3971.79,4043.08,4052.31,4113.33,3960.51,4139.49,4620.51,4108.72,4125.13,4096.92,3891.79,4122.05,4196.92,0
12_30_35,110,3893.33,3961.54,4045.13,4050.26,4112.31,3964.62,4138.97,4621.54,4112.31,4120.51,4100.51,3896.41,4120.51,4193.33,0
12_30_35,111,3886.67,3965.64,4044.1,4041.54,4107.69,3958.97,4141.03,4617.95,4110.77,4126.67,4079.49,3884.62,4134.36,4193.33,0
12_30_35,112,3871.79,3966.15,4043.08,4033.33,4099.49,3947.18,4138.46,4615.38,4102.56,4137.95,4068.21,3877.95,4150.77,4194.36,0
12_30_35,113,3861.03,3947.69,4044.1,4036.92,4098.46,3947.69,4134.36,4616.92,4101.54,4127.69,4092.31,3886.67,4150.26,4187.69,0
12_30_35,114,3855.9,3930.77,4049.74,4036.92,4112.31,3957.95,4131.79,4617.44,4103.08,4121.03,4111.28,3893.33,4148.72,4178.97,0
12_30_35,115,3847.69,3929.23,4053.33,4029.23,4104.1,3956.41,4133.85,4613.33,4095.38,4138.46,4099.49,3885.64,4160,4175.38,0
12_30_35,116,3841.54,3920,4050.77,4026.15,4064.62,3943.59,4136.41,4607.69,4088.72,4144.62,4093.33,3850.26,4157.95,4167.18,0
12_30_35,117,3834.36,3910.26,4047.18,4024.1,4069.74,3944.62,4131.79,4604.1,4083.59,4122.56,4094.36,3796.41,4139.49,4155.38,0
12_30_35,118,3818.97,3917.95,4043.08,4020,4093.33,3951.28,4123.59,4596.92,4072.82,4111.28,4089.23,3762.05,4131.79,4146.15,0
12_30_35,119,3809.74,3906.15,4033.85,4024.1,4065.13,3945.64,4120.51,4585.13,4065.64,4113.85,4097.95,3754.36,4126.67,4142.56,0
12_30_35,120,3816.41,3887.18,4030.26,4028.21,4055.38,3943.08,4122.05,4585.64,4070.26,4122.56,4107.18,3751.28,4125.64,4146.67,0
12_30_35,121,3824.62,3908.21,4037.95,4024.1,4097.95,3956.41,4126.15,4599.49,4077.95,4135.9,4096.92,3759.49,4146.15,4154.36,0
12_30_35,122,3822.05,3926.67,4040.51,4021.54,4090.77,3963.08,4128.72,4599.49,4076.41,4134.87,4092.31,3770.26,4160,4153.33,0
12_30_35,123,3815.9,3899.49,4035.9,4024.62,4048.72,3946.67,4124.1,4578.97,4063.08,4121.54,4096.92,3765.64,4146.67,4141.03,0
12_30_35,124,3813.85,3883.59,4037.95,4023.08,4058.97,3938.46,4118.97,4568.72,4052.31,4110.77,4094.36,3761.54,4133.33,4135.9,0
12_30_35,125,3816.92,3902.05,4044.1,4028.72,4071.28,3950.26,4121.54,4567.69,4056.92,4110.77,4100,3769.23,4135.9,4137.95,0
12_30_35,126,3826.67,3902.05,4049.23,4043.59,4062.56,3960,4124.62,4561.03,4062.56,4113.85,4111.79,3775.9,4136.41,4138.97,0
12_30_35,127,3830.77,3895.9,4053.33,4041.54,4073.33,3960.51,4123.59,4552.31,4059.49,4115.9,4111.79,3776.41,4135.38,4142.05,0
12_30_35,128,3818.46,3892.31,4048.72,4020.51,4073.85,3956.41,4115.9,4542.05,4042.05,4105.13,4102.56,3770.77,4120,4140,0
12_30_35,0,3811.28,3877.95,4046.67,4016.92,4061.54,3952.31,4108.21,4535.9,4032.82,4105.64,4094.87,3769.23,4103.59,4134.87,0
12_30_35,1,3821.03,3872.82,4056.92,4027.69,4047.18,3943.59,4108.21,4541.03,4045.64,4125.64,4096.41,3778.97,4124.62,4140,0
12_30_35,2,3823.08,3880.51,4056.92,4026.15,4024.1,3933.33,4105.64,4538.46,4049.23,4115.9,4100.51,3783.08,4140,4144.62,0
12_30_35,3,3812.82,3883.59,4049.23,4022.05,4023.08,3935.9,4097.95,4526.15,4037.95,4089.23,4099.49,3776.92,4111.79,4130.26,0
12_30_35,4,3801.03,3878.46,4044.62,4021.03,4042.56,3939.49,4094.87,4517.95,4030.26,4087.18,4093.85,3768.72,4082.56,4110.77,0
12_30_35,5,3788.72,3870.77,4030.77,4007.69,4028.72,3928.72,4085.64,4502.56,4013.33,4084.62,4070.77,3752.82,4076.92,4097.44,0
12_30_35,6,3778.46,3860.51,4020,3999.49,3986.67,3921.03,4072.82,4481.03,3991.28,4063.59,4058.97,3735.9,4061.54,4089.74,0
12_30_35,7,3776.41,3849.23,4025.13,4009.74,3987.69,3930.26,4075.9,4473.85,3997.44,4062.56,4072.82,3732.82,4045.64,4089.23,0
12_30_35,8,3779.49,3844.1,4030.26,4012.31,4018.46,3944.62,4085.64,4475.38,4008.72,4071.79,4070.77,3733.85,4051.28,4087.69,0
12_30_35,9,3786.15,3857.95,4031.79,4006.67,4021.03,3950.77,4082.56,4473.85,4002.56,4067.69,4051.79,3727.18,4063.59,4082.56,0
12_30_35,10,3789.74,3868.72,4034.87,4005.64,4004.62,3947.18,4075.9,4469.23,4005.13,4069.23,4054.87,3725.64,4074.36,4078.97,0
12_30_35,11,3783.59,3855.9,4034.36,4006.15,3998.97,3941.54,4076.41,4461.03,4015.9,4077.44,4065.13,3726.67,4072.82,4077.95,0
12_30_35,12,3778.97,3844.1,4034.36,4007.69,3993.33,3942.05,4080,4454.87,4012.82,4070.77,4062.56,3725.64,4060.51,4077.95,0
12_30_35,13,3768.72,3835.9,4025.13,3999.49,3975.38,3931.28,4072.82,4441.54,3987.18,4044.62,4051.28,3712.82,4043.08,4064.62,0
12_30_35,14,3742.56,3811.28,4001.03,3972.31,3965.13,3904.1,4053.33,4414.36,3954.36,4020,4025.64,3686.15,4023.08,4036.92,0
12_30_35,15,3729.74,3797.44,3984.62,3950.77,3958.97,3890.77,4042.05,4397.95,3937.44,4004.1,4008.21,3675.38,4011.79,4028.21,0
12_30_35,16,3745.13,3810.26,3989.23,3960.51,3947.18,3897.44,4047.69,4398.97,3941.54,4002.56,4016.41,3687.69,4012.82,4038.97,0
12_30_35,17,3753.33,3816.41,3993.85,3972.82,3941.54,3900,4049.23,4389.74,3945.64,4010.26,4017.95,3696.41,4018.46,4036.92,0
12_30_35,18,3750.26,3803.08,3989.23,3962.05,3936.41,3894.36,4038.97,4363.59,3935.9,4000,4004.1,3688.72,4006.67,4025.64,0
12_30_35,19,3777.44,3789.23,3989.23,3953.33,3916.92,3889.23,4030.26,4352.82,3926.67,3982.56,4004.1,3685.13,3992.31,4027.18,0
12_30_35,20,3817.95,3791.28,3998.46,3964.62,3912.31,3889.74,4031.28,4358.46,3926.67,3990.77,4018.46,3699.49,3999.49,4032.31,0
12_30_35,21,3825.64,3802.56,4003.08,3973.85,3934.36,3896.41,4029.74,4354.36,3927.69,4004.62,4014.36,3705.13,4008.21,4026.15,0
12_30_35,22,3817.44,3801.03,4003.08,3971.28,3928.72,3893.33,4023.08,4340.51,3923.08,3990.26,4006.67,3700,3997.44,4023.59,0
12_30_35,23,3825.64,3792.82,4009.23,3973.33,3909.23,3882.05,4018.97,4334.36,3917.95,3978.97,4024.1,3711.28,3991.79,4041.54,0
12_30_35,24,3828.21,3801.03,4014.87,3975.9,3930.26,3881.03,4014.87,4328.72,3912.82,3986.15,4030.26,3726.67,4004.1,4048.72,0
12_30_35,25,3817.44,3814.36,4015.9,3977.44,3953.85,3890.77,4013.85,4316.92,3908.72,3992.31,4018.46,3726.67,4006.15,4036.41,0
12_30_35,26,3828.72,3818.97,4018.46,3989.23,3942.05,3898.97,4021.03,4312.31,3916.92,4006.67,4029.23,3733.33,4005.64,4040.51,0
12_30_35,27,3842.05,3815.38,4017.95,3992.31,3931.28,3895.9,4022.05,4307.18,3915.9,4012.31,4038.97,3741.54,4011.28,4051.79,0
12_30_35,28,3834.36,3813.85,4017.95,3976.92,3945.64,3886.67,4013.85,4300.51,3911.79,3994.36,4030.26,3737.44,4011.28,4042.05,0
12_30_35,29,3831.79,3821.03,4025.64,3977.44,3939.49,3887.69,4019.49,4303.08,3926.15,3989.74,4043.08,3741.54,4005.64,4034.87,0
12_30_35,30,3827.69,3809.23,4021.03,3989.23,3898.46,3893.33,4018.46,4294.36,3919.49,3997.44,4051.28,3738.97,3994.87,4034.87,0
12_30_35,31,3814.36,3790.77,4013.85,3984.62,3901.54,3891.28,4006.15,4273.85,3893.85,3988.21,4027.69,3727.69,3993.33,4033.85,0
12_30_35,32,3835.38,3816.41,4028.72,3984.62,3956.41,3892.82,4011.28,4275.38,3905.13,3996.92,4036.41,3751.79,4014.87,4048.21,0
12_30_35,33,3864.1,3851.28,4044.62,3997.95,3951.28,3891.28,4017.95,4284.62,3921.03,4023.08,4065.13,3779.49,4022.56,4062.56,0
12_30_35,34,3853.85,3839.49,4038.97,3996.92,3904.1,3877.95,4007.18,4270.77,3899.49,4010.77,4048.72,3774.87,4010.77,4057.95,0
12_30_35,35,3840,3819.49,4027.69,3987.18,3910.77,3878.97,4003.08,4258.46,3888.21,3983.59,4028.72,3771.79,4004.62,4045.13,0
12_30_35,36,3841.03,3816.92,4023.59,3985.13,3926.15,3890.77,4008.72,4264.1,3901.03,3983.59,4039.49,3767.69,3996.92,4032.82,0
12_30_35,37,3841.54,3815.38,4028.72,3985.13,3905.64,3891.79,4004.1,4264.1,3903.59,3989.74,4050.26,3749.23,4002.05,4040.51,0
12_30_35,38,3843.08,3824.1,4035.38,3989.74,3903.08,3903.59,4003.59,4255.9,3906.67,3996.92,4057.44,3752.82,4029.74,4061.54,0
12_30_35,39,3836.41,3831.79,4028.21,3992.31,3916.92,3921.54,4006.15,4250.77,3912.31,4009.23,4057.44,3762.56,4035.9,4051.79,0
12_30_35,40,3822.56,3826.67,4016.41,3986.15,3907.69,3921.54,3998.46,4246.15,3907.18,4004.62,4049.23,3749.74,4016.92,4028.72,0
12_30_35,41,3824.62,3828.72,4023.59,3991.28,3893.33,3916.41,3994.36,4242.56,3907.18,3996.92,4060.51,3753.33,4013.85,4034.87,0
12_30_35,42,3840,3840,4032.31,4000,3901.03,3923.59,3998.97,4244.1,3911.28,4006.67,4075.9,3771.79,4023.08,4048.72,0
12_30_35,43,3853.33,3836.92,4026.15,3995.9,3914.36,3931.79,3998.46,4238.97,3906.67,4003.08,4063.08,3767.18,4020,4045.64,0
12_30_35,44,3862.05,3827.18,4020.51,3990.77,3911.79,3925.64,3991.79,4225.13,3901.54,3994.36,4046.15,3760,4013.33,4037.95,0
12_30_35,45,3866.67,3836.92,4026.67,3994.36,3912.82,3911.28,3990.77,4223.08,3903.59,4008.72,4055.9,3774.87,4015.9,4039.49,0
12_30_35,46,3871.79,3853.85,4027.69,3997.95,3920.51,3910.26,3991.79,4222.05,3901.54,4017.95,4066.67,3785.13,4023.59,4044.62,0
12_30_35,47,3869.74,3851.79,4019.49,3995.9,3915.38,3911.28,3986.67,4205.13,3882.56,3996.41,4051.28,3775.38,4016.92,4040,0
12_30_35,48,3865.13,3842.05,4017.95,3991.79,3904.62,3899.49,3985.64,4194.87,3875.9,3978.97,4041.03,3769.23,4000.51,4027.18,0
12_30_35,49,3873.33,3848.21,4024.62,4000.51,3898.46,3896.41,3989.74,4201.54,3892.82,3987.18,4056.41,3782.56,4001.54,4030.26,0
12_30_35,50,3885.64,3860,4030.77,4015.38,3896.41,3909.23,3990.26,4204.1,3901.54,3994.36,4064.1,3797.44,4014.87,4046.15,0
12_30_35,51,3888.72,3866.67,4034.87,4014.87,3905.13,3911.28,3988.21,4201.03,3895.38,3996.41,4057.44,3798.46,4021.03,4050.26,0
12_30_35,52,3889.74,3869.23,4037.44,4012.82,3910.77,3901.54,3990.26,4197.44,3893.33,3999.49,4057.44,3804.1,4020.51,4047.18,0
12_30_35,53,3891.28,3869.74,4037.44,4021.03,3905.13,3898.46,3990.77,4190.26,3898.46,3999.49,4057.95,3812.82,4020.51,4047.69,0
12_30_35,54,3893.33,3873.33,4036.92,4022.05,3905.13,3897.95,3989.74,4179.49,3895.9,3997.44,4052.31,3814.87,4020.51,4048.21,0
12_30_35,55,3897.44,3881.54,4041.03,4020.51,3908.72,3890.26,3991.79,4171.28,3887.18,3997.95,4058.97,3823.59,4020.51,4047.69,0
12_30_35,56,3895.38,3883.08,4044.1,4021.54,3909.23,3883.08,3992.31,4163.59,3879.49,3992.31,4067.18,3832.31,4023.59,4052.82,0
12_30_35,57,3895.9,3873.33,4040,4016.41,3908.21,3878.46,3986.67,4158.46,3878.97,3989.23,4064.1,3835.9,4023.59,4057.44,0
12_30_35,58,3909.23,3881.54,4042.56,4016.92,3905.64,3870.26,3986.67,4154.87,3883.59,3996.92,4067.69,3846.67,4027.69,4061.54,0
12_30_35,59,3924.1,3908.72,4054.36,4032.82,3904.1,3864.1,3991.79,4149.74,3882.56,3993.85,4075.9,3864.62,4044.62,4077.44,0
12_30_35,60,3933.33,3917.44,4054.87,4039.49,3899.49,3859.49,3985.64,4156.41,3874.87,3976.92,4071.28,3867.69,4045.64,4091.28,0
12_30_35,61,3940.51,3913.33,4045.13,4034.36,3890.77,3848.72,3974.36,4165.64,3863.59,3970.26,4065.64,3861.03,4030.77,4090.77,0
12_30_35,62,3953.33,3929.74,4050.26,4043.08,3896.92,3844.1,3971.79,4158.97,3861.54,3974.87,4072.31,3863.59,4036.92,4096.92,0
12_30_35,63,3971.79,3953.85,4065.13,4057.95,3912.31,3851.28,3977.95,4154.36,3874.87,3984.62,4082.56,3877.44,4061.03,4112.82,0
12_30_35,64,3985.13,3955.9,4066.67,4057.95,3904.62,3850.26,3981.54,4163.08,3885.64,3990.26,4083.08,3888.72,4066.15,4117.95,0
12_30_35,65,3982.56,3955.38,4060,4051.28,3889.74,3841.54,3981.03,4167.18,3882.56,3978.46,4076.92,3882.56,4051.79,4112.82,0
12_30_35,66,3981.03,3969.74,4059.49,4051.79,3900.51,3849.74,3985.13,4168.21,3880,3964.1,4068.72,3877.95,4042.05,4111.28,0
12_30_35,67,3991.28,3980.51,4063.08,4058.97,3910.77,3863.08,3989.23,4169.23,3881.54,3966.15,4062.05,3882.56,4036.92,4110.77,0
12_30_35,68,3993.33,3977.44,4064.62,4058.46,3906.67,3866.15,3988.21,4164.1,3880,3968.72,4058.46,3882.56,4028.72,4105.13,0
12_30_35,69,3985.64,3978.97,4062.05,4048.72,3906.67,3862.05,3981.54,4157.95,3878.97,3955.9,4060.51,3879.49,4021.54,4101.03,0
12_30_35,70,3989.23,3992.31,4058.97,4052.31,3907.69,3864.62,3983.08,4159.49,3889.23,3951.79,4072.82,3887.69,4027.69,4103.08,0
12_30_35,71,4003.08,4003.59,4061.54,4064.1,3916.92,3873.85,3987.69,4169.23,3897.95,3973.33,4081.03,3903.59,4044.62,4109.74,0
12_30_35,72,4008.21,4019.49,4064.62,4064.1,3933.85,3871.79,3982.05,4179.49,3888.72,3982.56,4075.9,3909.23,4048.21,4111.28,0
12_30_35,73,4005.13,4036.41,4062.56,4062.05,3936.92,3867.18,3976.92,4179.49,3878.46,3963.08,4070.26,3904.1,4034.36,4104.62,0
12_30_35,74,4010.77,4041.03,4064.62,4068.72,3922.05,3869.74,3984.1,4182.56,3889.74,3940.51,4075.38,3906.67,4031.79,4105.13,0
12_30_35,75,4017.44,4038.46,4073.85,4074.87,3911.28,3874.87,3991.28,4204.1,3906.67,3938.46,4081.03,3922.05,4041.03,4114.36,0
12_30_35,76,4012.31,4041.54,4074.36,4077.44,3916.92,3878.97,3989.74,4230.77,3903.59,3946.67,4072.31,3922.05,4031.79,4107.69,0
12_30_35,77,4004.1,4045.13,4067.18,4078.46,3922.05,3880,3989.74,4244.1,3897.95,3950.26,4070.26,3913.85,4020,4096.41,0
12_30_35,78,4004.62,4046.15,4068.21,4082.05,3931.28,3880.51,3989.74,4242.05,3906.15,3944.1,4087.69,3930.77,4035.9,4105.13,0
12_30_35,79,4009.74,4048.72,4073.33,4090.26,3948.72,3886.67,3987.69,4231.79,3918.46,3947.18,4095.9,3947.18,4050.77,4110.26,0
12_30_35,80,4010.77,4053.85,4074.87,4090.26,3960,3896.92,3990.77,4228.72,3922.56,3974.36,4086.67,3941.54,4045.13,4096.41,0
12_30_35,81,4008.21,4065.64,4074.36,4085.13,3954.36,3900,3989.23,4236.92,3917.44,3973.85,4078.97,3943.59,4038.97,4086.15,0
12_30_35,82,4004.62,4075.9,4074.36,4089.23,3940.51,3899.49,3984.62,4249.74,3912.82,3939.49,4083.08,3962.56,4040.51,4081.54,0
12_30_35,83,4004.62,4074.87,4081.03,4095.38,3944.1,3901.54,3985.64,4260,3923.08,3940.51,4097.44,3978.46,4051.28,4075.9,0
12_30_35,84,4010.77,4080,4091.28,4100.51,3953.33,3907.18,3990.26,4270.77,3939.49,3972.82,4117.44,3995.38,4072.31,4085.13,0
12_30_35,85,4014.87,4095.9,4092.82,4108.72,3952.82,3910.77,3990.26,4284.1,3936.41,3968.72,4121.03,4007.18,4078.97,4092.82,0
12_30_36,86,4006.67,4093.33,4086.15,4105.13,3948.72,3908.21,3988.21,4293.85,3922.56,3947.69,4105.13,4001.03,4065.64,4083.08,0
12_30_36,87,3994.36,4075.9,4084.62,4096.41,3953.85,3908.21,3987.18,4295.38,3925.64,3956.41,4102.56,3999.49,4069.23,4073.85,0
12_30_36,88,3995.38,4076.92,4087.18,4100,3957.95,3910.77,3991.79,4300,3934.36,3964.1,4112.31,4012.82,4086.15,4073.33,0
12_30_36,89,3998.46,4080.51,4087.69,4108.21,3953.33,3909.23,4001.03,4306.67,3930.77,3959.49,4111.28,4021.54,4092.82,4073.33,0
12_30_36,90,3996.92,4069.74,4089.74,4110.77,3958.46,3912.31,4008.72,4314.36,3933.85,3964.62,4112.82,4023.08,4107.18,4076.41,0
12_30_36,91,3985.13,4052.31,4085.13,4105.13,3945.64,3911.79,4005.13,4312.31,3945.13,3970.26,4116.92,4017.95,4120.51,4070.26,0
12_30_36,92,3963.59,4048.72,4080,4099.49,3961.03,3906.67,3998.97,4302.56,3943.08,3976.41,4112.82,4013.85,4122.56,4055.38,0
12_30_36,93,3955.38,4065.13,4084.1,4102.05,4001.54,3907.18,4007.18,4298.97,3944.62,3988.21,4118.97,4025.64,4138.46,4056.92,0
12_30_36,94,3948.72,4051.79,4081.03,4102.56,3966.67,3907.18,4011.28,4289.74,3946.67,3965.13,4127.18,4027.18,4147.18,4054.87,0
12_30_36,95,3925.64,4014.36,4067.18,4080.51,3952.82,3909.23,4004.62,4273.85,3936.41,3942.05,4117.95,4012.31,4141.03,4031.79,0
12_30_36,96,3910.26,4028.21,4069.74,4073.85,4018.97,3914.87,4008.72,4277.95,3950.26,3979.49,4117.95,4022.05,4166.15,4033.33,0
12_30_36,97,3912.31,4063.59,4086.67,4101.54,4012.82,3910.77,4018.46,4283.08,3977.44,4003.08,4139.49,4048.72,4190.77,4061.54,0
12_30_36,98,3912.31,4054.36,4090.77,4109.74,3976.92,3905.13,4013.85,4250.77,3962.05,3979.49,4146.67,4050.77,4180.51,4068.21,0
12_30_36,99,3916.92,4039.49,4084.62,4089.74,4020.51,3910.77,4009.74,4217.95,3937.95,3978.46,4132.31,4045.13,4184.62,4063.08,0
12_30_36,100,3927.69,4048.72,4089.74,4090.26,4031.28,3915.38,4017.95,4226.15,3957.44,3999.49,4128.72,4053.33,4208.72,4068.21,0
12_30_36,101,3933.85,4051.28,4095.9,4108.21,3976.41,3909.23,4018.46,4240,3977.44,4001.03,4139.49,4055.9,4214.36,4069.74,0
12_30_36,102,3938.97,4051.79,4087.18,4112.31,3966.67,3898.97,4011.28,4231.28,3965.13,3988.72,4145.13,4049.74,4207.18,4062.05,0
12_30_36,103,3934.87,4051.79,4075.9,4107.18,3987.18,3892.31,4014.36,4231.79,3956.41,3974.87,4139.49,4043.08,4200,4051.28,0
12_30_36,104,3924.1,4038.46,4075.9,4101.54,3991.79,3895.38,4021.03,4248.21,3960,3975.9,4137.95,4039.49,4197.44,4038.97,0
12_30_36,105,3923.08,4038.97,4078.46,4098.46,3991.79,3892.31,4017.95,4247.69,3961.54,3996.41,4141.54,4041.03,4203.08,4039.49,0
12_30_36,106,3928.72,4057.95,4077.44,4107.18,3991.79,3885.13,4010.26,4229.74,3954.36,3984.1,4135.38,4036.41,4196.41,4048.21,0
12_30_36,107,3925.64,4060.51,4077.44,4115.38,3996.41,3890.26,4015.38,4217.44,3949.23,3966.67,4121.03,4027.18,4186.15,4043.08,0
12_30_36,108,3914.36,4043.59,4076.92,4111.28,3995.38,3890.77,4023.08,4218.46,3956.41,3985.13,4121.03,4028.21,4198.97,4033.85,0
12_30_36,109,3908.72,4042.56,4074.36,4105.13,3980.51,3877.44,4017.95,4216.92,3960.51,3995.9,4128.21,4028.21,4202.05,4031.79,0
12_30_36,110,3912.82,4053.33,4075.9,4107.69,3969.74,3875.9,4013.33,4208.72,3956.41,3994.87,4126.15,4022.56,4190.26,4028.21,0
12_30_36,111,3913.85,4047.69,4080,4111.79,3978.97,3882.05,4020.51,4195.38,3955.38,3995.38,4123.08,4028.21,4190.26,4026.67,0
12_30_36,112,3911.79,4045.64,4083.59,4112.31,4004.1,3874.36,4023.59,4183.59,3958.97,3988.21,4122.56,4033.33,4187.18,4025.64,0
12_30_36,113,3913.85,4046.15,4082.56,4109.74,3983.08,3860,4020.51,4180,3958.46,3989.23,4118.97,4025.13,4172.82,4016.41,0
12_30_36,114,3909.23,4024.62,4075.38,4106.15,3952.31,3860,4023.59,4185.64,3959.49,4008.21,4120.51,4025.64,4175.38,4010.26,0
12_30_36,115,3901.03,4011.28,4072.31,4101.03,3988.72,3874.36,4030.26,4200.51,3962.05,4017.44,4124.1,4036.92,4189.74,4015.9,0
12_30_36,116,3907.18,4029.74,4078.46,4105.13,4010.77,3877.95,4034.36,4216.92,3961.03,4012.31,4120,4041.54,4188.21,4017.95,0
12_30_36,117,3916.92,4047.69,4074.36,4112.82,3990.26,3877.44,4036.41,4218.46,3955.9,4008.72,4119.49,4040,4184.1,4010.26,0
12_30_36,118,3902.05,4032.31,4057.44,4103.08,4002.05,3895.38,4035.9,4204.62,3954.87,4001.54,4122.05,4034.36,4181.03,4000,0
12_30_36,119,3884.62,4014.87,4052.82,4092.82,4005.13,3901.54,4036.41,4198.97,3969.23,4007.18,4119.49,4030.77,4174.87,3989.23,0
12_30_36,120,3889.74,4021.54,4058.97,4102.56,3963.59,3879.49,4036.41,4203.59,3976.92,4014.87,4120,4036.92,4177.44,3989.23,0
12_30_36,121,3898.46,4032.82,4062.05,4110.26,3964.62,3870.77,4037.95,4206.67,3966.15,4012.31,4128.21,4049.23,4184.1,4001.03,0
12_30_36,122,3900,4040,4066.67,4109.74,4002.05,3888.21,4045.64,4211.79,3970.26,4017.44,4140,4060,4187.69,4009.23,0
12_30_36,123,3901.54,4046.15,4065.13,4112.31,4006.15,3900.51,4045.64,4212.31,3978.46,4010.77,4138.46,4057.95,4180,3997.95,0
12_30_36,124,3900.51,4042.05,4060,4107.69,3989.74,3894.87,4034.36,4204.62,3966.67,4002.56,4124.62,4047.69,4164.62,3985.13,0
12_30_36,125,3905.64,4045.13,4068.21,4107.18,3979.49,3881.54,4034.87,4203.08,3971.28,4027.69,4126.15,4053.33,4172.31,3995.38,0
12_30_36,126,3924.62,4067.18,4080,4122.56,3992.31,3883.08,4047.69,4204.62,3988.21,4053.33,4142.05,4073.33,4207.18,4014.36,0
12_30_36,127,3924.1,4068.72,4077.44,4123.08,3990.26,3898.97,4048.72,4192.82,3980.51,4046.67,4143.08,4074.87,4228.21,4011.79,0
12_30_36,128,3906.15,4048.72,4068.72,4109.74,3971.28,3898.46,4041.54,4175.9,3972.31,4032.31,4124.62,4061.54,4218.46,3997.44,0
12_30_36,0,3915.9,4058.46,4069.23,4112.31,4000,3896.41,4042.05,4171.28,3975.38,4033.85,4116.41,4064.1,4214.36,4002.05,0
12_30_36,1,3943.08,4082.05,4078.97,4122.05,4041.03,3900.51,4048.72,4172.31,3975.9,4047.18,4129.23,4080,4229.23,4019.49,0
12_30_36,2,3945.64,4078.46,4080.51,4120.51,4020,3867.69,4050.26,4162.56,3974.36,4049.74,4134.87,4081.54,4234.36,4020,0
12_30_36,3,3933.85,4065.13,4071.28,4113.33,3993.85,3824.62,4046.67,4144.1,3966.15,4031.79,4117.44,4072.31,4217.95,4004.62,0
12_30_36,4,3940.51,4072.31,4071.28,4111.79,3994.36,3818.46,4048.72,4139.49,3968.72,4034.87,4114.36,4081.54,4213.33,4006.15,0
12_30_36,5,3947.18,4079.49,4078.97,4114.36,3984.62,3825.64,4054.36,4140,3993.33,4063.59,4133.33,4093.85,4227.18,4020.51,0
12_30_36,6,3940.51,4072.82,4074.87,4111.79,3989.23,3822.05,4050.77,4123.08,3981.03,4062.05,4132.31,4085.64,4224.1,4018.97,0
12_30_36,7,3949.23,4078.97,4074.36,4113.33,3998.97,3815.38,4043.59,4106.67,3943.08,4038.46,4121.03,4083.08,4213.33,4016.92,0
12_30_36,8,3960,4090.77,4077.95,4117.44,3979.49,3813.33,4042.56,4102.05,3939.49,4022.05,4120,4091.28,4216.92,4023.08,0
12_30_36,9,3953.33,4087.18,4074.36,4111.79,3973.33,3814.36,4043.59,4105.64,3956.41,4010.26,4121.03,4092.82,4215.9,4022.05,0
12_30_36,10,3955.38,4086.15,4078.46,4112.82,3982.05,3818.46,4047.69,4120.51,3965.13,4024.1,4135.38,4100,4217.44,4027.18,0
12_30_36,11,3958.97,4094.87,4081.03,4118.46,3985.13,3826.15,4045.13,4123.59,3963.59,4041.54,4142.05,4103.59,4217.95,4031.28,0
12_30_36,12,3945.13,4090.26,4072.31,4108.72,3983.59,3830.26,4036.92,4110.26,3960,4040.51,4122.05,4088.21,4204.62,4017.95,0
12_30_36,13,3950.26,4090.77,4078.46,4106.15,3978.46,3823.08,4043.59,4115.9,3964.1,4043.59,4121.54,4093.85,4206.67,4021.03,0
12_30_36,14,3972.31,4105.64,4092.31,4116.41,3977.95,3824.1,4052.82,4129.74,3983.59,4063.08,4143.08,4118.97,4223.59,4040,0
12_30_36,15,3971.79,4108.72,4089.23,4114.36,3981.03,3832.31,4046.15,4116.92,3990.77,4086.67,4136.92,4120,4220,4041.03,0
12_30_36,16,3966.67,4103.08,4085.64,4106.67,3973.33,3822.05,4040,4103.08,3970.26,4087.69,4115.9,4111.28,4211.28,4036.41,0
12_30_36,17,3972.82,4103.59,4090.26,4107.18,3960.51,3815.38,4044.62,4102.56,3945.64,4060,4111.28,4113.33,4213.33,4040,0
12_30_36,18,3974.36,4107.18,4089.74,4111.79,3962.56,3827.69,4043.59,4093.85,3941.54,4043.59,4115.38,4113.33,4205.13,4038.97,0
12_30_36,19,3976.92,4121.03,4088.72,4114.87,3982.56,3833.85,4040.51,4089.23,3956.41,4065.13,4120.51,4117.95,4197.95,4038.46,0
12_30_36,20,3985.13,4136.92,4090.26,4112.82,3994.36,3831.28,4043.59,4098.97,3967.18,4088.21,4128.21,4128.21,4210.77,4048.21,0
12_30_36,21,3990.26,4138.46,4089.74,4107.18,3980.51,3830.77,4044.62,4106.67,3967.69,4092.31,4135.38,4134.87,4216.41,4057.95,0
12_30_36,22,3997.95,4143.59,4091.79,4112.31,3973.33,3836.92,4046.67,4107.69,3969.23,4102.56,4143.08,4144.1,4215.9,4063.59,0
12_30_36,23,4005.13,4151.28,4093.33,4117.95,3989.74,3846.67,4048.21,4104.62,3980,4114.36,4140,4151.28,4217.95,4064.1,0
12_30_36,24,4004.1,4141.54,4089.74,4109.74,3985.13,3840.51,4042.05,4093.33,3980,4117.95,4125.64,4141.54,4208.21,4055.9,0
12_30_36,25,3997.44,4134.36,4087.18,4104.62,3971.28,3826.15,4036.41,4083.08,3960,4107.69,4118.46,4133.33,4197.95,4049.74,0
12_30_36,26,3992.31,4143.08,4081.54,4108.72,3983.08,3837.95,4038.97,4082.56,3960.51,4100.51,4125.13,4136.41,4205.13,4049.74,0
12_30_36,27,3985.13,4138.46,4070.26,4107.69,3988.72,3852.31,4039.49,4073.33,3974.36,4114.87,4127.69,4135.9,4208.72,4043.59,0
12_30_36,28,3980.51,4127.69,4067.18,4102.05,3984.62,3838.97,4035.9,4063.59,3964.1,4123.08,4120.51,4130.26,4197.44,4032.31,0
12_30_36,29,3991.28,4142.05,4077.44,4111.79,3994.36,3830.26,4047.18,4074.87,3956.92,4118.46,4127.18,4134.87,4197.44,4038.97,0
12_30_36,30,4001.54,4157.95,4077.44,4121.54,4001.54,3844.1,4056.41,4081.54,3970.26,4122.56,4137.44,4146.67,4201.54,4048.72,0
12_30_36,31,3981.03,4133.85,4055.38,4106.67,3997.95,3862.56,4037.44,4053.85,3953.85,4102.56,4109.23,4131.79,4175.9,4022.56,0
12_30_36,32,3965.13,4110.77,4045.13,4096.92,3999.49,3864.62,4026.15,4038.97,3935.9,4083.59,4085.64,4113.33,4156.41,4001.54,0
12_30_36,33,3991.28,4134.87,4061.03,4112.82,4007.18,3856.41,4046.67,4061.03,3965.64,4126.15,4107.69,4133.85,4174.36,4026.67,0
12_30_36,34,4012.82,4164.62,4072.31,4129.23,4015.9,3854.36,4060,4073.33,3989.74,4164.1,4123.59,4156.41,4190.77,4050.26,0
12_30_36,35,3995.9,4158.97,4061.03,4125.13,4016.92,3863.08,4050.26,4054.36,3962.05,4122.56,4105.13,4142.05,4170.26,4035.9,0
12_30_36,36,3982.56,4153.33,4051.28,4113.33,4010.26,3868.21,4046.15,4035.9,3937.44,4089.74,4094.87,4127.18,4149.74,4022.05,0
12_30_36,37,4000.51,4174.36,4057.44,4114.87,4016.41,3863.59,4054.36,4040,3953.85,4124.62,4105.64,4136.92,4161.03,4034.87,0
12_30_36,38,4013.85,4187.18,4062.56,4119.49,4027.18,3862.56,4056.41,4045.13,3971.79,4145.64,4110.26,4144.62,4169.74,4046.15,0
12_30_36,39,4007.69,4176.41,4060,4112.31,4019.49,3863.08,4052.82,4032.31,3956.41,4127.69,4105.13,4138.46,4159.49,4038.97,0
12_30_36,40,3998.97,4168.21,4052.82,4103.08,4011.28,3864.1,4045.64,4017.95,3937.95,4111.79,4094.87,4126.15,4145.13,4028.21,0
12_30_36,41,4002.05,4170.77,4049.74,4106.15,4015.9,3870.77,4045.13,4018.46,3948.72,4121.54,4093.33,4120,4147.18,4028.21,0
12_30_36,42,4007.18,4174.87,4053.85,4105.64,4011.79,3871.79,4051.79,4019.49,3965.13,4144.1,4101.54,4125.64,4156.92,4030.77,0
12_30_36,43,3996.41,4168.72,4047.18,4096.41,4001.03,3866.15,4047.18,4004.62,3950.26,4126.67,4093.85,4121.03,4143.59,4017.95,0
12_30_36,44,3993.33,4163.59,4042.56,4098.97,4008.72,3869.23,4040,3994.36,3934.87,4096.41,4086.67,4115.9,4131.79,4011.79,0
12_30_36,45,4012.82,4173.33,4051.79,4109.74,4033.33,3881.54,4050.26,3999.49,3943.08,4117.44,4093.85,4129.23,4147.18,4023.08,0
12_30_36,46,4028.72,4185.64,4056.41,4114.87,4034.87,3885.13,4060,4005.13,3955.38,4146.15,4096.41,4141.54,4155.38,4031.28,0
12_30_36,47,4023.08,4176.92,4051.79,4108.21,4016.41,3885.64,4053.33,4004.62,3960,4133.33,4093.33,4138.46,4139.49,4029.74,0
12_30_36,48,4016.41,4161.03,4053.33,4097.95,4022.56,3886.15,4049.74,3999.49,3956.41,4123.08,4093.33,4134.36,4133.85,4026.15,0
12_30_36,49,4025.13,4176.92,4058.97,4100.51,4038.97,3880.51,4053.33,3994.36,3949.23,4135.9,4096.41,4140.51,4142.56,4027.69,0
12_30_36,50,4033.33,4200.51,4057.95,4108.21,4031.28,3880,4048.72,3987.18,3938.97,4128.72,4089.74,4137.44,4133.85,4032.31,0
12_30_36,51,4037.95,4205.13,4061.54,4109.23,4018.46,3881.03,4043.08,3981.03,3926.67,4103.08,4076.92,4125.13,4116.41,4032.82,0
12_30_36,52,4044.62,4208.72,4073.85,4108.21,4026.15,3878.97,4049.23,3983.08,3932.31,4104.62,4073.85,4128.72,4109.23,4030.26,0
12_30_36,53,4048.21,4211.79,4076.92,4111.79,4041.54,3885.64,4056.41,3986.15,3954.87,4139.49,4081.54,4140.51,4111.79,4031.79,0
12_30_36,54,4041.03,4204.1,4069.23,4107.69,4038.97,3885.13,4057.44,3986.15,3960.51,4158.97,4083.08,4135.9,4117.95,4030.77,0
12_30_36,55,4035.38,4194.87,4063.59,4096.92,4024.1,3876.92,4050.26,3981.03,3958.46,4142.56,4076.41,4124.62,4116.41,4022.05,0
12_30_36,56,4031.79,4191.28,4060,4096.41,4012.31,3886.15,4041.54,3971.28,3960.51,4133.85,4072.82,4121.03,4108.21,4014.36,0
12_30_36,57,4031.79,4183.59,4056.92,4104.62,4020,3894.36,4047.18,3967.69,3944.1,4145.64,4071.79,4120,4104.62,4014.36,0
12_30_36,58,4039.49,4183.59,4058.46,4102.56,4036.41,3884.1,4056.92,3972.31,3924.62,4141.54,4069.74,4119.49,4104.1,4019.49,0
12_30_36,59,4046.15,4198.46,4063.08,4095.38,4033.33,3881.54,4057.44,3975.9,3945.64,4135.38,4080.51,4126.67,4109.23,4027.18,0
12_30_36,60,4049.23,4209.23,4071.28,4103.59,4023.08,3886.15,4056.41,3975.9,3970.26,4146.15,4096.41,4133.33,4116.41,4034.87,0
