TIME, ED_COUNTER, AF3, F7, F3, FC5, T7, P7, O1, O2, P8, T8, FC6, F4, F8, AF4, LABEL
11_58_3,119,4082.56,4092.31,4088.72,4089.23,4094.36,4091.79,4091.79,4092.31,4107.18,4093.33,4134.36,4123.08,4091.28,4085.13,0
11_58_3,120,4076.41,4083.59,4085.64,4090.26,4098.97,4086.15,4092.31,4090.77,4092.31,4081.54,4124.1,4116.92,4084.62,4076.41,0
11_58_3,121,4072.82,4077.95,4082.05,4091.28,4103.59,4079.49,4092.31,4081.03,4087.18,4078.97,4119.49,4107.18,4074.87,4071.28,0
11_58_3,122,4070.26,4082.56,4084.1,4083.59,4099.49,4081.54,4088.72,4075.9,4093.33,4090.77,4120.51,4105.13,4072.82,4072.31,0
11_58_3,123,4074.87,4082.05,4089.74,4082.05,4093.33,4084.1,4090.26,4090.77,4098.97,4092.82,4125.13,4107.69,4079.49,4074.87,0
11_58_3,124,4076.41,4076.92,4089.23,4087.18,4091.79,4086.15,4092.82,4102.56,4103.59,4084.1,4130.26,4108.21,4081.54,4075.38,0
11_58_3,125,4078.97,4084.1,4089.23,4086.67,4092.82,4086.67,4091.28,4099.49,4106.15,4077.95,4128.21,4108.72,4081.54,4080.51,0
11_58_3,126,4090.77,4096.92,4094.87,4089.23,4095.38,4084.62,4090.26,4104.1,4105.64,4078.46,4126.15,4111.79,4086.15,4090.26,0
11_58_3,127,4091.28,4089.74,4095.9,4090.77,4092.82,4081.03,4092.82,4110.77,4105.64,4082.56,4131.28,4113.33,4084.1,4091.28,0
11_58_3,128,4076.92,4074.87,4090.77,4083.59,4088.21,4082.05,4090.26,4102.56,4108.72,4084.1,4134.36,4109.74,4076.92,4081.54,0
11_58_3,0,4074.36,4076.92,4090.26,4083.08,4089.23,4081.03,4085.13,4095.9,4107.69,4087.69,4134.36,4106.15,4077.44,4076.92,0
11_58_3,1,4075.38,4081.03,4089.23,4081.54,4089.74,4073.85,4085.13,4098.46,4097.95,4091.79,4130.26,4105.64,4079.49,4078.97,0
11_58_3,2,4071.79,4075.38,4086.67,4075.9,4090.26,4078.46,4089.74,4094.87,4094.36,4090.77,4127.69,4106.15,4076.41,4076.41,0
11_58_3,3,4074.87,4074.36,4090.77,4084.1,4095.38,4090.77,4093.33,4094.87,4101.03,4086.15,4129.74,4105.64,4077.95,4075.9,0
11_58_3,4,4072.31,4078.46,4092.31,4088.21,4096.92,4088.72,4091.79,4103.59,4100.51,4078.46,4127.69,4102.56,4076.92,4075.38,0
11_58_3,5,4060.51,4075.9,4086.15,4074.87,4092.82,4080,4089.23,4096.41,4091.79,4070.26,4121.03,4096.92,4064.62,4067.18,0
11_58_3,6,4064.1,4073.85,4087.18,4069.74,4091.28,4086.15,4092.82,4082.56,4090.77,4070.77,4118.46,4090.26,4061.54,4064.62,0
11_58_3,7,4074.87,4080,4091.28,4080.51,4091.28,4088.21,4091.28,4085.13,4094.36,4074.36,4130.26,4092.82,4073.33,4072.82,0
11_58_3,8,4076.92,4082.56,4089.74,4085.64,4093.33,4078.97,4084.1,4096.41,4100,4078.46,4140,4102.56,4077.95,4081.54,0
11_58_3,9,4078.46,4083.08,4090.77,4089.74,4098.46,4078.46,4086.67,4103.59,4111.28,4092.82,4141.03,4112.31,4077.95,4086.67,0
11_58_3,10,4080,4084.62,4096.92,4091.79,4100.51,4075.9,4088.72,4109.74,4113.85,4101.54,4138.97,4111.79,4078.46,4086.15,0
11_58_3,11,4076.41,4082.05,4093.85,4084.62,4088.21,4070.26,4083.08,4107.69,4108.21,4093.85,4129.74,4100.51,4070.26,4077.44,0
11_58_3,12,4066.15,4072.31,4083.08,4073.85,4077.95,4071.79,4085.13,4099.49,4102.05,4082.05,4121.54,4087.18,4057.44,4067.69,0
11_58_3,13,4060,4069.74,4081.03,4068.21,4086.15,4076.41,4091.28,4096.41,4094.36,4075.9,4118.97,4079.49,4055.9,4062.56,0
11_58_3,14,4067.69,4082.56,4087.69,4074.36,4095.9,4078.97,4092.31,4089.23,4084.62,4069.74,4116.92,4076.92,4060,4065.64,0
11_58_3,15,4074.87,4085.13,4090.26,4082.05,4093.33,4078.46,4091.79,4077.44,4082.56,4056.92,4114.36,4072.31,4058.97,4072.82,0
11_58_3,16,4071.28,4076.92,4086.15,4079.49,4094.87,4083.08,4091.28,4077.95,4089.23,4057.95,4123.08,4074.87,4061.54,4074.87,0
11_58_3,17,4071.79,4083.59,4090.77,4080,4104.1,4095.9,4090.26,4097.44,4104.1,4086.15,4136.41,4091.79,4077.95,4082.05,0
11_58_3,18,4080,4098.97,4097.95,4092.82,4106.15,4103.08,4095.9,4123.59,4123.59,4112.31,4141.03,4100,4093.85,4093.85,0
11_58_3,19,4077.95,4095.38,4094.36,4094.87,4106.15,4092.82,4095.38,4125.13,4126.15,4112.31,4141.54,4091.28,4089.23,4092.31,0
11_58_3,20,4073.33,4085.64,4088.21,4080.51,4103.08,4078.46,4084.62,4102.56,4111.28,4099.49,4134.87,4086.67,4077.44,4080,0
11_58_3,21,4076.92,4087.69,4090.77,4074.36,4091.28,4072.82,4075.9,4085.64,4100,4094.36,4129.23,4092.31,4074.36,4078.46,0
11_58_3,22,4082.56,4090.26,4095.9,4081.54,4089.23,4072.82,4074.36,4082.56,4098.97,4097.44,4137.95,4096.92,4078.46,4088.72,0
11_58_3,22,4082.56,4090.26,4095.9,4081.54,4089.23,4072.82,4074.36,4082.56,4098.97,4097.44,4137.95,4096.92,4078.46,4088.72,0
11_58_3,23,4083.59,4090.26,4096.41,4084.1,4095.9,4074.87,4079.49,4085.13,4098.97,4096.41,4141.54,4098.46,4083.08,4093.33,0
11_58_3,24,4077.44,4091.28,4092.31,4082.05,4094.36,4075.9,4086.67,4089.23,4097.95,4081.54,4129.74,4090.77,4075.9,4085.64,0
11_58_4,25,4072.82,4090.77,4088.72,4083.59,4091.79,4078.97,4090.77,4085.64,4088.72,4068.72,4120.51,4077.44,4056.92,4071.79,0
11_58_4,26,4072.31,4089.23,4087.69,4083.08,4096.92,4085.13,4092.31,4073.85,4081.03,4070.26,4113.33,4071.28,4048.72,4065.64,0
11_58_4,27,4073.33,4089.74,4085.64,4082.56,4099.49,4089.74,4091.79,4075.38,4085.13,4070.77,4102.56,4072.82,4055.38,4068.21,0
11_58_4,28,4074.87,4088.21,4085.64,4090.26,4097.95,4093.33,4091.28,4087.69,4093.85,4071.79,4109.74,4078.46,4059.49,4073.85,0
11_58_4,29,4073.85,4080,4088.21,4090.77,4093.85,4094.36,4088.72,4096.41,4102.05,4082.05,4125.64,4082.05,4058.97,4076.92,0
11_58_4,30,4070.26,4078.46,4088.21,4077.95,4095.9,4093.33,4090.26,4103.59,4109.23,4092.82,4121.54,4078.97,4057.44,4072.31,0
11_58_4,31,4072.31,4086.15,4085.64,4073.33,4104.1,4095.9,4093.85,4109.74,4112.31,4093.85,4109.74,4071.79,4052.82,4064.1,0
11_58_4,32,4075.38,4089.23,4085.13,4083.08,4101.54,4090.77,4089.23,4104.62,4106.67,4088.21,4105.64,4063.08,4048.21,4058.46,0
11_58_4,33,4074.36,4087.69,4090.26,4089.74,4093.33,4076.41,4079.49,4088.72,4098.46,4088.72,4107.18,4063.59,4049.23,4063.59,0
11_58_4,34,4081.54,4088.21,4092.82,4090.77,4093.85,4071.79,4079.49,4081.54,4093.85,4089.74,4110.77,4078.97,4053.33,4073.33,0
11_58_4,35,4092.82,4095.38,4092.31,4092.82,4092.31,4073.85,4082.05,4088.21,4091.79,4080.51,4109.74,4090.26,4054.36,4078.46,0
11_58_4,36,4087.69,4096.41,4092.82,4089.74,4088.21,4068.21,4075.9,4088.21,4092.82,4074.87,4107.18,4084.62,4051.79,4074.36,0
11_58_4,37,4073.33,4085.64,4091.28,4081.03,4094.87,4065.13,4070.26,4077.44,4090.77,4074.36,4106.15,4075.38,4039.49,4060.51,0
11_58_4,38,4067.69,4077.44,4088.72,4077.95,4097.44,4073.33,4077.95,4074.87,4084.1,4064.62,4097.95,4068.21,4023.59,4049.23,0
11_58_4,39,4064.62,4075.9,4085.64,4076.92,4092.82,4083.08,4088.72,4081.03,4084.1,4059.49,4088.21,4062.56,4018.46,4046.15,0
11_58_4,40,4060,4072.82,4085.13,4072.31,4089.74,4091.79,4091.79,4087.69,4094.87,4072.82,4089.74,4060.51,4021.54,4040,0
11_58_4,41,4061.54,4072.31,4086.67,4071.28,4089.23,4100,4092.82,4091.28,4104.62,4078.97,4092.31,4061.54,4020,4033.85,0
11_58_4,42,4065.13,4078.46,4086.67,4078.46,4097.95,4100,4093.85,4091.79,4107.69,4080.51,4089.23,4064.62,4016.92,4039.49,0
11_58_4,43,4069.74,4081.03,4087.18,4083.08,4107.69,4094.36,4089.74,4095.38,4106.15,4089.23,4089.74,4069.23,4018.46,4046.67,0
11_58_4,44,4071.79,4079.49,4088.72,4079.49,4101.54,4083.59,4081.03,4094.87,4096.92,4078.97,4092.31,4069.74,4013.33,4044.62,0
11_58_4,45,4067.18,4076.92,4086.15,4075.9,4089.23,4070.26,4076.92,4081.54,4086.67,4055.38,4087.18,4065.13,4007.69,4041.03,0
11_58_4,46,4067.18,4067.18,4085.13,4077.95,4086.15,4065.13,4075.38,4072.31,4085.13,4058.46,4083.08,4066.15,4022.56,4046.15,0
11_58_4,47,4078.46,4068.21,4092.82,4083.59,4087.18,4068.72,4078.97,4080,4096.92,4078.97,4096.92,4081.03,4056.41,4064.1,0
11_58_4,48,4085.13,4083.59,4095.9,4084.62,4087.69,4079.49,4088.72,4085.64,4102.56,4081.54,4114.36,4093.85,4093.85,4078.46,0
11_58_4,49,4081.03,4086.15,4092.31,4082.56,4090.77,4091.79,4098.46,4086.67,4093.85,4078.46,4115.38,4093.33,4121.54,4074.87,0
11_58_4,50,4081.54,4082.56,4092.82,4082.05,4097.44,4100.51,4101.54,4095.38,4094.36,4091.28,4113.85,4091.79,4140.51,4069.23,0
11_58_4,51,4081.54,4086.67,4090.26,4080,4098.46,4099.49,4100,4107.69,4107.18,4099.49,4112.31,4092.82,4152.31,4068.21,0
11_58_4,52,4076.41,4084.62,4082.56,4076.92,4091.79,4097.95,4097.95,4111.79,4117.95,4093.33,4099.49,4083.08,4155.38,4057.44,0
11_58_4,53,4067.18,4073.85,4082.05,4073.85,4093.85,4103.59,4096.41,4106.15,4114.87,4086.67,4091.79,4072.82,4155.9,4045.13,0
11_58_4,54,4061.54,4068.21,4085.64,4077.44,4103.08,4106.15,4095.38,4105.64,4103.08,4078.46,4094.36,4080,4154.87,4044.62,0
11_58_4,55,4073.85,4078.97,4085.64,4088.72,4104.1,4100.51,4094.36,4113.33,4099.49,4069.74,4097.95,4092.82,4160,4051.79,0
11_58_4,56,4093.33,4095.9,4088.21,4094.36,4098.97,4088.72,4092.31,4106.67,4107.69,4079.49,4116.92,4104.1,4176.41,4066.15,0
11_58_4,57,4099.49,4100,4092.31,4092.31,4092.82,4082.05,4090.26,4089.74,4106.67,4092.31,4141.54,4117.95,4189.23,4083.59,0
11_58_4,58,4095.9,4091.79,4090.26,4091.28,4088.21,4081.54,4091.79,4089.23,4103.08,4092.82,4141.54,4122.56,4189.23,4086.15,0
11_58_4,59,4092.31,4086.15,4086.67,4088.21,4093.85,4082.05,4092.31,4096.41,4111.79,4096.41,4129.74,4114.87,4183.59,4076.92,0
11_58_4,60,4088.72,4086.67,4084.62,4082.05,4102.05,4084.1,4090.26,4091.28,4107.18,4098.46,4126.67,4111.28,4173.33,4071.79,0
11_58_4,61,4084.1,4089.74,4085.13,4083.59,4100,4084.62,4087.18,4087.69,4092.82,4086.67,4125.13,4111.28,4157.44,4070.77,0
11_58_4,62,4078.97,4086.67,4084.1,4084.62,4090.26,4079.49,4082.05,4089.74,4095.38,4078.97,4117.95,4104.1,4147.69,4063.08,0
11_58_4,63,4073.85,4071.79,4082.56,4074.36,4083.59,4073.85,4075.9,4077.95,4097.44,4078.46,4107.18,4097.95,4142.05,4052.31,0
11_58_4,64,4076.41,4072.31,4082.56,4076.92,4090.26,4082.05,4081.03,4070.26,4089.74,4074.36,4101.03,4100.51,4135.38,4052.82,0
11_58_4,65,4080.51,4088.21,4084.1,4087.69,4100.51,4093.33,4093.33,4084.62,4088.72,4073.85,4111.28,4106.15,4136.41,4061.03,0
11_58_4,66,4080.51,4092.31,4084.1,4084.62,4098.97,4092.31,4095.9,4094.87,4096.92,4074.87,4123.08,4109.23,4139.49,4063.08,0
11_58_4,67,4082.05,4090.77,4085.13,4085.64,4094.36,4087.18,4094.36,4091.79,4104.62,4078.97,4122.56,4111.79,4140,4064.1,0
11_58_4,68,4085.64,4091.28,4086.67,4091.28,4100.51,4088.72,4093.85,4093.33,4106.15,4090.77,4117.44,4113.33,4138.97,4068.72,0
11_58_4,69,4083.08,4089.23,4086.15,4083.08,4107.18,4087.69,4085.13,4088.21,4099.49,4091.28,4110.77,4110.77,4133.33,4066.15,0
11_58_4,70,4077.44,4086.67,4084.1,4077.44,4102.56,4076.92,4073.33,4069.74,4090.26,4075.9,4104.1,4102.56,4122.56,4058.46,0
11_58_4,71,4080.51,4089.74,4085.13,4084.1,4103.59,4073.33,4072.31,4066.15,4093.33,4075.9,4105.13,4104.1,4118.97,4062.05,0
11_58_4,72,4088.72,4095.38,4089.74,4086.15,4108.21,4079.49,4080.51,4081.54,4104.62,4091.28,4110.26,4116.41,4126.67,4073.33,0
11_58_4,73,4092.82,4096.41,4091.79,4087.69,4098.46,4078.97,4081.54,4093.85,4106.15,4092.31,4108.21,4123.59,4129.74,4077.44,0
11_58_4,74,4096.41,4102.05,4092.82,4092.31,4092.31,4074.87,4077.44,4091.28,4097.95,4086.67,4107.18,4122.56,4126.67,4078.46,0
11_58_4,75,4099.49,4108.21,4091.79,4092.31,4104.62,4081.54,4080,4079.49,4095.9,4089.23,4110.26,4122.56,4127.18,4081.54,0
11_58_4,76,4095.38,4101.03,4087.69,4090.26,4112.31,4091.28,4089.74,4081.03,4095.9,4082.05,4102.05,4117.44,4116.92,4075.9,0
11_58_4,77,4089.23,4094.36,4083.59,4090.77,4109.23,4094.87,4096.41,4090.77,4091.28,4069.74,4087.69,4104.62,4103.59,4071.28,0
11_58_4,78,4092.31,4095.9,4084.1,4093.85,4104.62,4095.9,4094.87,4084.1,4089.74,4074.36,4088.21,4103.59,4104.1,4078.97,0
11_58_4,79,4091.79,4088.21,4085.64,4088.72,4101.03,4093.33,4087.18,4070.77,4090.26,4080,4092.31,4107.18,4095.38,4077.95,0
11_58_4,80,4082.56,4078.97,4084.62,4075.38,4100,4087.69,4082.05,4075.9,4092.31,4072.82,4088.21,4105.64,4081.03,4067.69,0
11_58_4,81,4085.13,4086.67,4086.15,4077.44,4103.59,4082.56,4086.67,4089.74,4102.05,4077.44,4094.87,4112.31,4089.74,4076.92,0
11_58_4,82,4102.05,4103.59,4093.85,4091.28,4106.15,4076.92,4092.31,4096.41,4111.79,4094.36,4109.23,4124.1,4107.18,4094.36,0
11_58_4,83,4111.28,4108.72,4098.97,4094.36,4102.05,4074.36,4089.23,4095.9,4105.64,4096.41,4113.33,4130.26,4111.79,4096.92,0
11_58_4,84,4102.05,4097.44,4095.9,4089.74,4092.82,4073.85,4083.59,4082.56,4088.21,4076.92,4100.51,4125.13,4098.97,4086.15,0
11_58_4,85,4093.33,4096.41,4091.28,4091.79,4097.95,4076.92,4082.56,4073.33,4088.72,4064.1,4083.59,4112.31,4075.38,4076.41,0
11_58_4,86,4095.38,4107.69,4088.72,4092.82,4111.28,4085.64,4087.18,4088.72,4109.23,4081.54,4083.59,4106.67,4075.9,4075.38,0
11_58_4,87,4094.87,4104.1,4085.64,4087.18,4110.77,4091.28,4091.28,4099.49,4105.13,4096.41,4091.79,4107.69,4091.28,4075.9,0
11_58_4,88,4089.23,4091.28,4085.64,4088.21,4105.64,4091.28,4092.82,4086.15,4083.59,4082.56,4085.13,4101.54,4084.1,4071.28,0
11_58_4,89,4084.1,4093.33,4087.18,4085.13,4100.51,4088.21,4091.28,4077.95,4087.18,4072.31,4073.33,4089.74,4070.77,4064.1,0
11_58_4,90,4078.46,4094.36,4085.13,4074.36,4091.28,4081.54,4084.62,4077.44,4095.38,4071.28,4071.79,4088.72,4070.77,4060.51,0
11_58_4,91,4077.95,4089.74,4084.1,4077.44,4096.92,4076.41,4083.08,4065.64,4081.54,4065.13,4071.28,4097.95,4069.23,4065.13,0
11_58_4,92,4082.05,4092.31,4085.13,4087.69,4106.15,4077.95,4086.15,4060,4078.97,4065.64,4072.31,4106.15,4068.72,4073.33,0
11_58_4,93,4085.64,4094.87,4086.67,4084.62,4102.05,4078.46,4084.62,4069.23,4093.33,4074.36,4080,4107.69,4072.31,4072.82,0
11_58_4,94,4081.54,4087.18,4084.62,4076.92,4097.44,4077.44,4080.51,4080,4099.49,4078.97,4070.77,4098.97,4066.15,4063.59,0
11_58_4,95,4073.33,4083.08,4081.54,4077.95,4094.36,4074.36,4078.46,4089.74,4101.54,4080.51,4054.36,4091.28,4057.95,4060.51,0
11_58_4,96,4074.87,4090.26,4084.1,4085.64,4086.67,4068.21,4074.87,4096.41,4102.56,4081.03,4062.56,4091.79,4056.92,4066.67,0
11_58_4,97,4085.64,4099.49,4089.23,4090.26,4092.31,4070.26,4075.9,4092.82,4098.97,4084.62,4076.41,4094.36,4066.15,4074.87,0
11_58_4,98,4085.64,4096.92,4086.67,4080.51,4103.59,4076.41,4077.95,4078.97,4088.72,4079.49,4064.1,4090.26,4068.72,4072.82,0
11_58_4,99,4078.46,4091.28,4084.62,4075.38,4100,4073.85,4074.87,4066.67,4079.49,4056.92,4051.79,4088.21,4052.82,4061.54,0
11_58_4,100,4081.54,4095.9,4088.21,4084.62,4092.82,4074.36,4078.46,4068.72,4078.46,4051.28,4065.13,4100,4049.74,4062.56,0
11_58_4,101,4080,4093.85,4087.69,4081.03,4091.79,4078.97,4084.62,4067.69,4075.9,4060.51,4059.49,4100.51,4050.77,4063.08,0
11_58_4,102,4075.9,4087.69,4083.59,4072.82,4093.85,4076.92,4085.64,4059.49,4071.79,4061.03,4037.44,4087.69,4037.95,4053.33,0
11_58_4,103,4087.18,4092.31,4088.21,4085.13,4096.92,4077.44,4091.28,4073.85,4090.77,4072.82,4049.23,4095.9,4042.05,4062.05,0
11_58_4,104,4096.92,4100,4093.85,4093.85,4100.51,4084.1,4094.36,4084.62,4111.79,4092.82,4068.21,4109.74,4056.41,4081.54,0
11_58_4,105,4089.23,4101.03,4090.77,4087.69,4094.36,4083.08,4082.56,4064.62,4096.92,4091.79,4054.87,4096.41,4046.15,4076.92,0
11_58_4,106,4087.18,4105.64,4089.74,4089.23,4087.69,4080.51,4077.44,4066.67,4091.28,4089.23,4045.13,4089.74,4040.51,4067.69,0
11_58_4,107,4097.95,4107.69,4094.36,4093.85,4097.44,4089.23,4092.82,4103.59,4114.36,4102.56,4065.13,4113.33,4057.95,4085.64,0
11_58_4,108,4097.44,4098.46,4093.85,4088.21,4105.64,4091.28,4093.33,4106.15,4105.13,4089.74,4064.1,4117.44,4051.79,4092.82,0
11_58_4,109,4093.33,4103.08,4090.26,4086.15,4105.13,4083.08,4076.92,4078.97,4074.36,4055.38,4038.46,4098.46,4031.28,4076.41,0
11_58_4,110,4103.08,4115.9,4096.41,4094.36,4106.15,4082.05,4078.46,4075.38,4074.36,4051.79,4036.41,4097.95,4036.92,4078.46,0
11_58_4,111,4111.79,4114.87,4101.03,4099.49,4102.56,4085.64,4090.77,4077.44,4082.56,4074.87,4052.82,4107.18,4049.74,4094.87,0
11_58_4,112,4102.56,4106.15,4093.33,4092.82,4091.79,4084.62,4091.28,4069.23,4074.87,4080.51,4048.72,4102.56,4042.56,4090.26,0
11_58_4,113,4089.23,4102.56,4087.18,4081.54,4091.28,4086.15,4088.21,4065.64,4077.44,4071.28,4028.21,4088.72,4025.64,4071.28,0
11_58_4,114,4088.72,4104.1,4090.77,4084.62,4099.49,4096.41,4095.9,4072.31,4091.28,4076.41,4023.08,4084.1,4018.46,4068.21,0
11_58_4,115,4090.77,4106.15,4091.79,4090.26,4101.54,4100,4098.46,4081.03,4101.03,4089.23,4029.74,4088.21,4019.49,4073.85,0
11_58_4,116,4090.26,4109.74,4087.69,4084.62,4107.18,4092.82,4090.26,4088.72,4106.15,4093.85,4031.28,4090.26,4024.1,4074.36,0
11_58_4,117,4092.82,4113.33,4092.82,4084.1,4107.69,4090.26,4088.72,4104.62,4110.77,4092.31,4034.36,4096.41,4032.82,4077.95,0
11_58_4,118,4093.33,4110.77,4101.03,4090.77,4092.82,4088.21,4093.33,4111.28,4109.23,4087.18,4043.08,4107.69,4033.85,4085.13,0
11_58_4,119,4090.26,4109.23,4097.95,4091.79,4090.77,4081.54,4089.74,4094.87,4096.92,4082.56,4043.08,4108.21,4028.72,4089.74,0
11_58_4,120,4098.46,4117.44,4095.9,4092.31,4107.18,4078.97,4081.54,4086.15,4093.85,4087.18,4038.46,4098.97,4032.31,4091.28,0
11_58_4,121,4105.13,4125.64,4098.46,4092.82,4113.85,4083.08,4081.54,4096.92,4101.54,4090.26,4040,4095.38,4033.33,4091.28,0
11_58_4,122,4098.97,4121.54,4097.44,4093.33,4103.59,4087.18,4089.74,4093.85,4094.87,4081.03,4034.36,4093.33,4022.56,4087.18,0
11_58_4,123,4091.28,4109.74,4093.33,4091.28,4093.33,4091.28,4092.31,4077.95,4084.1,4073.85,4026.67,4090.26,4015.9,4082.56,0
11_58_4,124,4082.56,4097.95,4090.77,4078.46,4093.85,4093.33,4091.28,4080.51,4089.74,4073.85,4025.13,4086.15,4013.85,4078.97,0
11_58_4,125,4077.44,4098.97,4091.28,4075.38,4104.1,4094.36,4092.82,4085.13,4094.87,4074.36,4019.49,4078.46,4002.56,4071.79,0
11_58_4,126,4084.62,4111.79,4092.82,4086.15,4111.28,4097.44,4094.36,4075.38,4088.72,4080.51,4020,4077.44,4002.56,4075.38,0
11_58_4,127,4090.77,4112.82,4093.33,4088.72,4104.1,4095.9,4090.77,4074.36,4089.23,4087.18,4030.77,4084.62,4020,4088.72,0
11_58_4,128,4090.77,4107.18,4094.87,4085.13,4102.56,4092.82,4088.72,4097.44,4110.26,4097.95,4031.79,4090.26,4028.21,4094.36,0
11_58_4,0,4094.36,4112.82,4099.49,4089.74,4107.69,4092.82,4090.77,4114.36,4126.15,4108.21,4031.79,4093.33,4023.08,4091.79,0
11_58_4,1,4094.36,4115.9,4097.44,4094.36,4102.56,4090.77,4089.23,4105.13,4106.15,4101.03,4033.85,4089.74,4012.82,4087.69,0
11_58_4,2,4091.28,4108.21,4091.28,4093.33,4097.44,4088.72,4087.69,4089.74,4082.56,4083.08,4023.08,4081.03,4006.15,4085.64,0
11_58_4,3,4089.74,4107.18,4092.31,4089.74,4103.08,4089.23,4090.77,4087.69,4089.23,4078.46,4017.95,4078.46,4004.62,4082.56,0
11_58_4,4,4085.13,4112.82,4096.92,4088.21,4110.26,4088.21,4090.26,4093.33,4097.44,4085.13,4023.59,4078.97,4004.62,4076.92,0
11_58_4,5,4084.62,4111.79,4098.46,4089.23,4107.18,4090.26,4087.18,4089.74,4088.21,4085.64,4019.49,4078.46,4004.1,4074.87,0
11_58_4,6,4092.31,4112.31,4098.97,4090.26,4098.46,4096.41,4089.23,4082.56,4086.67,4086.15,4016.41,4080.51,4007.69,4083.59,0
11_58_4,7,4093.85,4119.49,4097.44,4094.36,4100,4097.95,4092.31,4087.18,4096.92,4090.26,4020,4080.51,4008.21,4085.64,0
11_58_4,8,4085.13,4115.38,4094.87,4091.79,4108.21,4093.85,4094.36,4094.87,4097.44,4084.62,4009.74,4074.36,3994.36,4074.36,0
11_58_4,9,4078.97,4104.1,4093.85,4084.62,4108.21,4091.28,4095.9,4088.72,4092.82,4076.92,4002.56,4072.82,3988.72,4070.77,0
11_58_4,10,4080,4105.13,4092.31,4090.26,4104.62,4090.77,4093.33,4077.95,4090.26,4073.33,4005.64,4074.36,3991.79,4075.9,0
11_58_4,11,4081.03,4112.82,4088.72,4092.82,4106.67,4090.26,4088.72,4077.95,4089.23,4069.23,4004.1,4070.77,3989.74,4073.85,0
11_58_4,12,4079.49,4107.69,4090.77,4080.51,4098.97,4091.79,4090.77,4091.28,4097.44,4076.41,4010.26,4067.69,3996.41,4072.31,0
11_58_4,13,4082.05,4103.08,4093.33,4077.95,4089.23,4092.31,4092.82,4105.64,4108.72,4093.33,4022.05,4072.31,4009.23,4077.95,0
11_58_4,14,4083.59,4108.21,4092.31,4085.13,4101.03,4095.9,4091.79,4106.67,4104.1,4090.26,4016.92,4075.9,4004.1,4080.51,0
11_58_4,15,4081.03,4108.21,4092.82,4079.49,4108.72,4097.44,4091.79,4105.64,4091.28,4072.31,4008.21,4074.87,3989.23,4074.36,0
11_58_4,16,4086.15,4105.64,4096.41,4078.97,4100,4089.74,4092.82,4103.08,4094.36,4074.87,4016.92,4080.51,3994.87,4076.41,0
11_58_4,17,4093.85,4110.26,4099.49,4091.79,4098.46,4083.59,4091.28,4092.82,4096.92,4086.15,4025.64,4090.77,4005.64,4088.72,0
11_58_4,18,4088.72,4111.28,4096.92,4091.28,4103.59,4085.13,4089.23,4088.72,4090.77,4080.51,4017.95,4087.69,3997.44,4084.62,0
11_58_4,19,4072.82,4099.49,4090.77,4079.49,4099.49,4086.15,4087.18,4087.18,4088.21,4070.77,4005.64,4072.31,3985.64,4065.64,0
11_58_5,20,4065.13,4094.87,4089.23,4079.49,4097.95,4087.69,4090.26,4076.92,4085.64,4073.85,4001.03,4064.1,3984.62,4057.44,0
11_58_5,21,4069.74,4098.97,4093.33,4081.03,4100,4091.28,4091.28,4069.74,4078.97,4077.44,4001.54,4068.21,3987.18,4059.49,0
11_58_5,22,4075.38,4098.46,4091.28,4073.33,4097.44,4090.77,4084.62,4074.36,4080.51,4075.38,4005.64,4072.31,3987.69,4060.51,0
11_58_5,23,4078.46,4099.49,4092.31,4076.92,4098.97,4089.74,4083.59,4086.15,4097.95,4083.08,4016.92,4073.85,3996.92,4068.21,0
11_58_5,24,4081.03,4107.18,4097.44,4092.31,4106.67,4093.33,4093.33,4102.05,4110.26,4098.97,4022.05,4077.95,4010.26,4077.44,0
11_58_5,25,4075.9,4108.72,4091.79,4093.33,4107.18,4091.79,4093.85,4108.21,4102.56,4092.82,4007.69,4074.87,4004.1,4067.18,0
11_58_5,26,4071.79,4104.62,4089.74,4086.15,4104.1,4088.21,4086.67,4108.72,4095.9,4080,4001.03,4067.69,3989.74,4058.97,0
11_58_5,27,4083.08,4104.1,4101.03,4089.74,4105.64,4090.26,4092.31,4110.77,4096.92,4084.62,4008.21,4078.46,3991.79,4069.23,0
11_58_5,28,4093.85,4110.77,4106.67,4095.38,4110.77,4086.15,4095.38,4091.79,4087.69,4089.74,4011.79,4092.82,4001.03,4080,0
11_58_5,29,4095.9,4117.44,4102.05,4094.87,4106.67,4073.33,4083.08,4063.59,4070.77,4081.03,4018.97,4091.28,4007.18,4086.67,0
11_58_5,30,4093.85,4110.26,4097.95,4089.23,4092.31,4075.9,4083.08,4069.74,4080,4086.15,4028.72,4089.23,4018.97,4088.21,0
11_58_5,31,4084.62,4093.85,4095.9,4079.49,4092.31,4093.85,4097.44,4091.79,4103.59,4105.64,4026.15,4092.31,4040.51,4080.51,0
11_58_5,32,4078.46,4091.79,4096.92,4078.97,4106.15,4099.49,4099.49,4094.36,4101.03,4103.08,4020.51,4087.69,4062.05,4075.38,0
11_58_5,33,4078.46,4095.9,4092.31,4084.62,4107.18,4095.9,4092.31,4097.44,4089.74,4084.1,4011.79,4074.87,4079.49,4071.28,0
11_58_5,34,4074.87,4089.74,4086.15,4075.9,4096.92,4097.95,4092.31,4100.51,4088.21,4074.87,3994.36,4063.08,4089.74,4057.95,0
11_58_5,35,4075.38,4089.23,4089.23,4073.85,4091.79,4096.41,4087.18,4082.56,4081.03,4069.23,3991.28,4063.59,4104.62,4057.44,0
11_58_5,36,4086.15,4099.49,4093.33,4089.74,4093.85,4083.08,4074.36,4064.1,4072.82,4066.15,4004.1,4077.95,4124.1,4071.79,0
11_58_5,37,4099.49,4107.69,4093.85,4095.38,4102.05,4075.38,4071.28,4073.85,4086.15,4078.46,4016.92,4095.9,4141.03,4082.05,0
11_58_5,38,4108.21,4109.74,4096.41,4088.21,4104.62,4080,4076.41,4092.82,4097.95,4098.46,4028.21,4107.69,4153.85,4087.18,0
11_58_5,39,4102.56,4102.56,4092.31,4083.08,4097.95,4077.95,4076.92,4089.23,4088.72,4097.44,4026.67,4102.05,4151.28,4081.03,0
11_58_5,40,4091.79,4096.92,4087.18,4078.97,4092.82,4069.74,4075.38,4080.51,4086.15,4084.62,4017.95,4089.74,4140,4071.79,0
11_58_5,41,4087.69,4092.82,4085.64,4073.33,4083.08,4071.79,4077.44,4079.49,4085.64,4080.51,4020.51,4089.74,4137.95,4072.82,0
11_58_5,42,4080.51,4079.49,4082.56,4067.69,4076.41,4076.92,4076.92,4068.72,4073.33,4078.97,4014.87,4088.21,4130.26,4064.62,0
11_58_5,43,4071.79,4076.41,4081.03,4067.18,4091.28,4076.92,4073.33,4051.28,4072.82,4070.77,3993.85,4075.38,4111.79,4047.69,0
11_58_5,44,4072.82,4089.23,4084.62,4073.33,4104.62,4084.1,4073.85,4047.18,4080.51,4064.62,3989.74,4073.85,4104.62,4049.74,0
11_58_5,45,4078.46,4093.33,4085.13,4078.46,4093.85,4092.31,4076.41,4057.44,4076.41,4064.1,4001.54,4086.67,4108.72,4060.51,0
11_58_5,46,4078.46,4090.77,4083.59,4073.33,4086.15,4086.15,4074.87,4071.79,4074.36,4063.08,4002.56,4089.74,4107.69,4060.51,0
11_58_5,47,4076.41,4090.26,4082.56,4066.15,4091.79,4081.03,4074.36,4086.67,4090.26,4070.77,4003.59,4083.59,4104.62,4057.95,0
11_58_5,48,4081.03,4092.82,4083.59,4070.26,4094.36,4084.1,4077.44,4094.87,4102.56,4080.51,4013.85,4090.26,4105.13,4064.62,0
11_58_5,49,4090.26,4094.87,4087.69,4081.03,4090.77,4082.56,4078.46,4093.85,4093.85,4080,4014.87,4103.59,4107.18,4072.82,0
11_58_5,50,4092.31,4094.36,4091.28,4082.56,4091.28,4071.28,4074.36,4092.82,4085.13,4082.56,4010.77,4104.1,4107.69,4074.87,0
11_58_5,51,4091.28,4094.36,4092.31,4076.92,4092.31,4065.64,4068.21,4087.69,4091.28,4098.46,4024.1,4103.59,4113.85,4078.97,0
11_58_5,52,4093.33,4098.46,4092.31,4079.49,4084.1,4070.77,4065.13,4067.69,4084.1,4096.41,4030.77,4109.74,4114.36,4080,0
11_58_5,53,4090.77,4093.33,4088.72,4080,4078.97,4075.9,4069.74,4050.26,4058.46,4068.72,4011.79,4106.15,4095.9,4068.21,0
11_58_5,54,4089.23,4093.33,4085.64,4076.92,4088.72,4075.38,4077.44,4054.87,4052.82,4054.87,3995.9,4096.41,4081.54,4058.46,0
11_58_5,55,4091.28,4106.67,4087.18,4080.51,4097.95,4078.46,4080.51,4059.49,4069.23,4066.15,4000,4092.82,4085.13,4060,0
11_58_5,56,4090.26,4103.08,4088.21,4082.05,4095.38,4088.72,4082.05,4063.59,4084.1,4078.46,4009.74,4095.9,4092.82,4062.05,0
11_58_5,57,4088.72,4094.36,4089.74,4077.95,4095.38,4093.85,4085.64,4092.31,4100.51,4085.64,4017.44,4103.59,4091.79,4065.13,0
11_58_5,58,4088.21,4102.56,4090.26,4080,4104.1,4094.87,4090.26,4117.95,4109.23,4096.92,4024.1,4107.18,4090.77,4071.79,0
11_58_5,59,4094.87,4109.23,4092.82,4087.69,4109.23,4089.23,4085.64,4117.44,4107.18,4110.26,4033.33,4110.77,4095.38,4081.03,0
11_58_5,60,4104.1,4109.23,4096.92,4091.79,4105.64,4080,4076.92,4109.74,4106.67,4111.28,4037.95,4121.03,4100,4090.77,0
11_58_5,61,4101.54,4106.67,4095.9,4088.21,4090.77,4072.31,4073.33,4093.33,4092.31,4094.87,4024.62,4118.46,4087.69,4086.15,0
11_58_5,62,4090.26,4097.95,4090.26,4080,4077.95,4066.67,4070.26,4070.26,4068.21,4072.82,4007.69,4106.15,4066.67,4072.31,0
11_58_5,63,4081.54,4088.72,4088.21,4074.36,4075.38,4064.62,4066.67,4063.59,4062.56,4063.08,4005.13,4104.1,4055.38,4066.15,0
11_58_5,64,4080,4088.21,4087.18,4073.85,4081.03,4063.59,4065.64,4066.15,4071.28,4068.21,4006.15,4106.67,4053.33,4065.64,0
11_58_5,65,4085.64,4095.9,4088.21,4078.97,4089.23,4060,4066.67,4064.62,4073.85,4073.85,4011.79,4105.64,4055.9,4067.18,0
11_58_5,66,4091.28,4102.56,4092.82,4084.1,4091.79,4057.95,4069.74,4060,4071.79,4073.85,4025.13,4105.13,4063.08,4074.87,0
11_58_5,67,4086.15,4102.05,4092.31,4082.56,4083.59,4065.13,4075.38,4053.33,4072.31,4078.46,4023.08,4103.08,4071.28,4072.82,0
11_58_5,68,4077.44,4097.44,4086.67,4078.46,4078.97,4070.26,4076.41,4054.87,4073.85,4080.51,4004.62,4095.38,4067.18,4060.51,0
11_58_5,69,4074.87,4095.38,4084.62,4078.46,4090.26,4073.33,4075.9,4071.28,4081.03,4077.44,4004.62,4088.72,4058.97,4057.44,0
11_58_5,69,4074.87,4095.38,4084.62,4078.46,4090.26,4073.33,4075.9,4071.28,4081.03,4077.44,4004.62,4088.72,4058.97,4057.44,0
11_58_5,70,4076.41,4092.82,4084.62,4077.44,4095.38,4082.56,4078.97,4086.67,4092.82,4078.97,4018.46,4094.36,4061.54,4058.97,0
11_58_5,71,4083.08,4092.31,4085.64,4074.87,4088.72,4086.15,4079.49,4091.28,4092.31,4081.54,4021.54,4105.64,4066.15,4061.54,0
11_58_5,72,4090.26,4098.46,4091.79,4078.97,4087.18,4081.54,4075.9,4096.41,4089.23,4082.56,4023.08,4110.26,4069.23,4070.77,0
11_58_5,73,4091.79,4102.05,4094.36,4085.13,4088.72,4074.36,4073.33,4101.54,4102.56,4092.82,4032.31,4110.77,4075.38,4077.44,0
11_58_5,74,4089.74,4100,4089.74,4084.1,4088.72,4068.72,4072.31,4097.44,4096.92,4098.46,4034.36,4111.79,4076.41,4074.36,0
11_58_5,75,4086.67,4092.82,4087.18,4077.95,4091.28,4067.18,4074.87,4086.67,4068.72,4085.13,4029.23,4108.72,4070.26,4068.72,0
11_58_5,76,4082.56,4089.74,4091.28,4078.97,4089.23,4067.18,4074.36,4075.38,4063.59,4074.36,4027.69,4104.1,4065.64,4066.67,0
11_58_5,77,4080,4096.92,4092.31,4084.1,4086.15,4066.67,4068.21,4065.13,4076.92,4076.41,4029.23,4105.13,4066.67,4066.67,0
11_58_5,78,4077.44,4093.33,4089.74,4081.03,4089.23,4065.13,4067.18,4057.44,4074.87,4076.41,4028.72,4107.18,4071.28,4067.69,0
11_58_5,79,4073.33,4084.62,4089.23,4074.36,4086.67,4065.13,4074.36,4054.87,4068.21,4073.33,4028.72,4103.59,4069.23,4066.67,0
11_58_5,80,4072.82,4086.15,4089.74,4073.33,4076.41,4068.72,4078.46,4061.03,4077.95,4078.97,4029.74,4099.49,4069.23,4067.69,0
11_58_5,81,4074.87,4090.77,4087.69,4074.87,4078.46,4075.38,4077.44,4077.44,4090.26,4080.51,4027.18,4104.1,4070.26,4070.77,0
11_58_5,82,4075.9,4096.41,4088.21,4075.38,4095.9,4080,4080,4098.97,4094.87,4073.85,4022.05,4108.21,4060.51,4067.69,0
11_58_5,83,4077.95,4104.1,4091.28,4078.97,4103.59,4079.49,4083.59,4106.67,4091.28,4078.97,4021.03,4098.46,4052.82,4060,0
11_58_5,84,4080.51,4101.54,4091.79,4081.03,4095.38,4078.97,4080.51,4104.1,4090.26,4089.74,4021.54,4092.31,4058.46,4061.54,0
11_58_5,85,4084.1,4097.44,4093.33,4084.1,4086.67,4073.85,4076.41,4109.23,4098.46,4096.92,4029.23,4101.03,4067.69,4071.28,0
11_58_5,86,4090.26,4106.15,4096.92,4092.31,4092.31,4065.13,4075.38,4110.26,4099.49,4102.05,4049.74,4113.85,4074.36,4080.51,0
11_58_5,87,4091.79,4109.23,4097.44,4093.33,4102.56,4066.67,4077.44,4095.38,4083.08,4098.97,4060,4117.44,4080,4083.08,0
11_58_5,88,4085.64,4098.97,4093.85,4084.62,4098.46,4071.79,4076.92,4083.08,4075.38,4091.79,4048.21,4108.72,4078.46,4080.51,0
11_58_5,89,4078.97,4094.87,4091.28,4078.97,4090.26,4068.72,4069.23,4070.26,4074.36,4087.69,4036.92,4097.44,4071.28,4073.85,0
11_58_5,90,4073.33,4090.26,4087.18,4073.85,4084.62,4064.62,4063.08,4042.56,4062.56,4079.49,4030.26,4091.79,4062.56,4065.64,0
11_58_5,91,4066.67,4081.54,4084.62,4065.64,4081.03,4063.59,4069.74,4039.49,4062.05,4069.23,4022.05,4088.21,4051.79,4057.95,0
11_58_5,92,4064.62,4080,4084.1,4067.69,4080,4060,4076.92,4065.64,4075.9,4075.9,4028.72,4090.26,4052.31,4055.9,0
11_58_5,93,4070.77,4085.13,4088.21,4078.97,4087.69,4062.05,4076.92,4082.56,4081.03,4088.21,4043.08,4103.59,4060.51,4064.62,0
11_58_5,94,4079.49,4094.36,4095.38,4087.18,4101.54,4078.46,4086.67,4095.38,4092.82,4092.31,4041.03,4111.28,4061.03,4075.38,0
11_58_5,95,4081.54,4105.64,4094.87,4094.36,4102.56,4090.26,4094.87,4115.38,4112.31,4092.82,4035.38,4101.03,4055.9,4075.9,0
11_58_5,96,4073.33,4102.56,4084.62,4090.26,4091.79,4083.59,4083.08,4118.46,4108.21,4091.28,4033.85,4087.18,4056.92,4065.13,0
11_58_5,97,4066.67,4085.64,4084.62,4074.36,4088.21,4072.31,4071.28,4100.51,4091.28,4093.33,4034.87,4086.67,4058.97,4060.51,0
11_58_5,98,4074.87,4087.69,4095.9,4075.9,4100.51,4073.33,4072.31,4086.15,4088.21,4099.49,4045.13,4098.46,4060.51,4072.82,0
11_58_5,99,4091.28,4107.18,4102.56,4093.33,4106.67,4078.46,4074.36,4085.64,4089.23,4110.26,4065.64,4110.26,4081.03,4090.77,0
11_58_5,100,4096.92,4111.28,4100.51,4099.49,4102.56,4076.41,4075.38,4087.69,4087.18,4110.77,4069.23,4112.82,4095.38,4097.95,0
11_58_5,101,4087.69,4105.13,4096.41,4093.85,4100,4073.33,4077.44,4084.1,4084.62,4092.82,4046.67,4102.56,4073.33,4085.13,0
11_58_5,102,4077.95,4105.13,4090.77,4087.69,4092.82,4075.9,4080,4072.31,4077.95,4081.54,4031.28,4091.79,4052.82,4071.79,0
11_58_5,103,4076.41,4101.03,4088.72,4084.62,4091.79,4084.1,4086.15,4066.15,4072.82,4088.72,4035.9,4089.74,4060,4073.85,0
11_58_5,104,4076.92,4092.31,4089.74,4085.64,4104.1,4093.33,4093.85,4074.87,4081.54,4094.36,4040,4092.31,4063.08,4074.87,0
11_58_5,105,4073.85,4089.74,4086.67,4085.13,4106.15,4091.28,4093.33,4089.23,4093.85,4087.69,4035.9,4090.26,4050.26,4067.69,0
11_58_5,106,4070.77,4090.26,4087.69,4081.54,4091.28,4082.56,4084.62,4100,4093.33,4090.26,4034.87,4086.15,4047.69,4066.67,0
11_58_5,107,4077.44,4090.77,4094.87,4085.13,4086.67,4085.13,4081.54,4114.87,4097.44,4105.64,4044.1,4091.79,4057.95,4074.36,0
11_58_5,108,4088.72,4095.38,4100,4093.85,4100,4093.85,4087.69,4129.74,4109.23,4114.36,4058.46,4105.64,4067.18,4085.64,0
11_58_5,109,4090.26,4097.95,4100,4095.38,4104.62,4087.69,4084.62,4113.85,4104.1,4112.31,4065.64,4111.28,4070.26,4091.28,0
11_58_5,110,4083.59,4093.85,4100.51,4094.36,4100,4075.9,4073.85,4085.13,4091.79,4103.08,4052.82,4101.03,4062.05,4083.08,0
11_58_5,111,4080,4088.21,4095.9,4092.31,4093.33,4074.87,4072.82,4074.36,4085.64,4091.79,4036.92,4084.1,4051.28,4073.33,0
11_58_5,112,4075.38,4082.05,4090.77,4084.1,4084.1,4074.87,4073.85,4062.56,4069.74,4082.05,4033.33,4076.92,4048.72,4073.85,0
11_58_5,113,4075.9,4077.44,4090.77,4080.51,4084.62,4068.21,4070.77,4049.74,4055.9,4076.92,4030.77,4081.54,4049.74,4075.9,0
11_58_5,114,4077.95,4077.95,4091.79,4082.05,4092.31,4064.1,4071.28,4050.26,4063.08,4075.38,4023.59,4081.03,4041.54,4066.15,0
11_58_5,115,4068.21,4077.95,4088.21,4077.44,4091.79,4068.72,4079.49,4061.03,4073.85,4082.05,4026.15,4076.92,4038.97,4058.97,0
11_58_5,116,4062.56,4076.92,4088.72,4075.9,4092.31,4083.59,4090.77,4077.44,4083.59,4102.05,4040,4085.13,4053.33,4067.18,0
11_58_5,117,4073.33,4078.46,4092.31,4086.15,4098.97,4093.85,4094.87,4096.92,4094.87,4109.23,4046.67,4092.31,4064.62,4075.38,0
11_58_5,118,4076.92,4079.49,4092.31,4087.69,4094.36,4084.62,4085.64,4095.38,4089.74,4091.28,4040.51,4083.08,4057.44,4070.26,0
11_58_5,119,4070.77,4078.46,4088.72,4074.87,4089.74,4072.82,4078.46,4076.92,4075.9,4076.92,4032.31,4071.79,4049.23,4064.62,0
11_58_5,120,4067.18,4074.87,4087.18,4070.26,4094.87,4073.85,4078.46,4073.85,4073.85,4077.44,4028.72,4069.74,4049.23,4063.59,0
11_58_5,121,4063.08,4068.21,4086.67,4075.38,4091.28,4074.36,4073.33,4074.36,4074.87,4075.9,4031.28,4070.26,4047.18,4058.97,0
11_58_5,122,4062.56,4066.67,4091.28,4076.92,4088.21,4075.38,4076.92,4069.74,4075.9,4077.95,4034.36,4076.41,4044.62,4058.97,0
11_58_5,123,4077.95,4073.33,4096.92,4080.51,4096.92,4084.1,4086.67,4078.97,4088.21,4102.05,4042.05,4088.72,4052.31,4068.72,0
11_58_5,124,4090.77,4081.03,4097.95,4088.72,4097.95,4086.15,4085.64,4098.97,4101.03,4124.1,4059.49,4094.87,4070.26,4080.51,0
11_58_5,125,4085.13,4077.44,4098.97,4085.64,4092.82,4081.54,4082.05,4102.05,4100.51,4121.03,4065.13,4096.41,4080,4087.18,0
11_58_5,126,4073.85,4065.13,4095.38,4075.9,4091.79,4078.97,4080.51,4079.49,4083.59,4102.56,4049.74,4091.79,4065.64,4078.46,0
11_58_5,127,4072.31,4062.56,4089.23,4071.28,4090.77,4075.38,4075.38,4056.92,4066.67,4089.23,4036.41,4078.97,4047.69,4065.64,0
11_58_5,128,4077.95,4073.33,4090.77,4069.74,4090.26,4076.92,4077.44,4057.95,4073.85,4087.69,4034.36,4076.41,4049.74,4068.21,0
11_58_5,0,4087.69,4084.62,4098.46,4076.92,4092.31,4087.69,4091.28,4080.51,4090.26,4091.79,4038.97,4086.15,4063.59,4081.03,0
11_58_5,1,4096.41,4090.77,4101.54,4086.67,4091.79,4092.31,4096.92,4103.59,4099.49,4107.69,4055.38,4094.36,4076.41,4093.85,0
11_58_5,2,4097.44,4093.85,4099.49,4082.05,4090.26,4086.67,4093.33,4111.79,4107.69,4125.64,4061.54,4098.46,4081.03,4096.92,0
11_58_5,3,4087.69,4090.26,4093.85,4074.36,4090.77,4083.59,4092.31,4109.23,4103.59,4115.38,4044.1,4091.79,4064.1,4082.56,0
11_58_5,4,4074.87,4081.03,4089.74,4076.92,4092.82,4079.49,4088.72,4106.67,4090.77,4089.74,4025.64,4072.31,4037.44,4062.56,0
11_58_5,5,4071.28,4074.36,4090.77,4076.92,4095.38,4074.87,4080.51,4101.54,4087.69,4090.77,4023.08,4069.23,4032.31,4057.44,0
11_58_5,6,4074.36,4077.44,4092.31,4072.31,4092.31,4073.85,4073.85,4078.97,4081.03,4101.03,4020.51,4076.41,4036.41,4060.51,0
11_58_5,7,4076.92,4087.18,4094.87,4077.95,4089.74,4075.38,4072.31,4063.59,4069.23,4090.26,4013.85,4072.31,4027.69,4057.44,0
11_58_5,8,4084.62,4095.9,4100.51,4087.69,4098.97,4082.05,4080,4078.97,4080,4089.74,4026.15,4077.44,4035.9,4063.59,0
11_58_5,9,4093.33,4103.59,4097.95,4092.31,4107.18,4089.23,4090.26,4092.31,4097.44,4108.72,4043.08,4094.36,4066.15,4080.51,0
11_58_5,10,4095.38,4111.79,4092.31,4094.36,4105.64,4090.77,4094.36,4096.92,4098.97,4110.77,4041.03,4090.26,4080,4081.54,0
11_58_5,11,4091.79,4108.72,4091.28,4092.31,4098.97,4091.79,4095.9,4109.74,4105.13,4105.13,4035.38,4075.38,4088.21,4069.74,0
11_58_5,12,4082.56,4093.85,4091.28,4083.59,4086.67,4091.79,4095.38,4115.38,4115.9,4113.33,4035.38,4071.28,4113.33,4064.1,0
11_58_5,13,4076.92,4086.67,4091.28,4078.46,4085.64,4087.18,4092.31,4105.64,4107.18,4110.77,4024.62,4066.15,4131.79,4062.05,0
11_58_5,14,4078.46,4088.21,4088.72,4079.49,4100,4084.1,4090.26,4098.97,4088.21,4090.77,4011.28,4056.41,4134.87,4055.38,0
11_58_5,15,4071.28,4077.44,4082.56,4073.33,4101.54,4082.56,4088.72,4090.26,4077.44,4078.97,4013.85,4059.49,4144.1,4050.26,0
11_58_5,16,4065.13,4064.62,4081.54,4064.1,4092.31,4084.1,4090.26,4081.03,4075.9,4082.56,4019.49,4070.26,4154.87,4052.82,0
11_58_5,17,4078.46,4080.51,4087.18,4072.82,4094.87,4092.31,4094.87,4088.72,4079.49,4085.64,4022.05,4081.54,4158.46,4062.05,0
11_58_6,18,4097.44,4096.92,4089.23,4090.26,4093.85,4089.74,4094.87,4094.36,4089.23,4088.72,4030.77,4094.87,4167.69,4072.82,0
11_58_6,19,4104.62,4092.31,4093.33,4092.82,4084.1,4073.33,4089.74,4087.69,4098.97,4101.54,4044.62,4106.15,4181.54,4083.08,0
11_58_6,28,4102.56,4089.74,4101.03,4097.95,4108.21,4090.77,4106.67,4122.05,4105.64,4099.49,4043.59,4114.87,4147.18,4074.87,0
11_58_6,29,4117.44,4103.59,4102.56,4107.18,4099.49,4087.18,4105.64,4120.51,4116.41,4114.87,4052.31,4124.1,4153.85,4081.54,0
11_58_6,30,4124.1,4105.13,4101.03,4099.49,4086.67,4077.95,4103.08,4118.97,4119.49,4128.21,4062.05,4125.64,4162.05,4088.21,0
11_58_6,31,4124.62,4098.97,4100.51,4095.38,4085.13,4077.44,4103.59,4117.95,4111.28,4125.13,4069.23,4127.69,4168.21,4098.46,0
11_58_6,32,4115.9,4092.82,4096.41,4093.85,4087.69,4076.92,4098.97,4100.51,4099.49,4112.82,4063.59,4126.67,4155.38,4093.33,0
11_58_6,33,4095.9,4078.97,4088.21,4082.05,4082.05,4076.41,4096.41,4090.77,4099.49,4109.74,4051.79,4112.82,4137.95,4071.79,0
11_58_6,34,4076.41,4065.64,4082.05,4071.79,4085.13,4087.18,4098.46,4097.95,4097.44,4103.08,4034.87,4093.33,4123.59,4050.77,0
11_58_6,35,4070.77,4062.56,4080,4072.82,4099.49,4094.87,4092.31,4090.26,4082.56,4087.18,4021.54,4084.62,4111.79,4036.92,0
11_58_6,36,4072.82,4060,4080.51,4072.31,4103.59,4091.28,4087.18,4079.49,4082.56,4084.1,4027.69,4086.15,4110.77,4035.9,0
11_58_6,37,4074.87,4062.05,4083.59,4072.31,4101.03,4092.82,4092.31,4089.74,4100,4095.9,4041.54,4094.36,4116.92,4045.64,0
11_58_6,38,4079.49,4071.79,4088.21,4078.46,4105.64,4093.33,4092.82,4101.03,4098.97,4097.44,4047.18,4104.62,4118.46,4055.38,0
11_58_6,39,4082.56,4070.77,4092.82,4081.03,4108.21,4084.62,4089.74,4104.62,4083.59,4093.33,4049.23,4109.74,4112.82,4058.46,0
11_58_6,40,4081.54,4067.69,4092.31,4080,4098.97,4081.54,4094.36,4106.67,4091.79,4096.92,4050.77,4107.69,4104.1,4055.9,0
11_58_6,41,4086.67,4075.38,4090.26,4082.05,4093.33,4090.77,4106.67,4109.23,4111.79,4105.64,4055.9,4110.77,4110.26,4064.62,0
11_58_6,42,4098.97,4076.92,4094.87,4087.69,4092.31,4091.28,4110.26,4109.23,4107.69,4113.85,4067.69,4122.05,4126.15,4079.49,0
11_58_6,43,4106.67,4080,4101.54,4091.28,4082.05,4077.95,4100.51,4106.15,4099.49,4121.03,4076.41,4128.21,4126.67,4084.1,0
11_58_6,44,4110.26,4091.28,4104.62,4093.85,4082.56,4078.46,4099.49,4114.87,4113.33,4126.15,4077.44,4129.23,4125.13,4085.13,0
11_58_6,45,4106.15,4091.28,4098.97,4095.38,4099.49,4091.28,4108.72,4127.18,4122.05,4122.56,4075.9,4126.67,4128.21,4082.05,0
11_58_6,46,4092.31,4081.54,4091.79,4089.23,4109.23,4095.38,4107.18,4119.49,4108.21,4113.33,4069.74,4116.92,4119.49,4067.18,0
11_58_6,47,4078.97,4077.44,4089.74,4081.54,4098.97,4092.82,4094.87,4106.15,4101.03,4103.08,4058.97,4106.67,4106.67,4052.82,0
11_58_6,48,4074.87,4074.87,4086.15,4082.56,4089.23,4091.79,4088.21,4111.79,4107.69,4094.87,4048.72,4102.05,4096.41,4046.15,0
11_58_6,49,4076.41,4072.31,4084.62,4083.08,4099.49,4091.79,4091.28,4111.79,4101.03,4093.33,4045.13,4097.44,4092.31,4040,0
11_58_6,50,4076.41,4074.87,4089.74,4073.33,4110.77,4092.31,4093.33,4097.44,4089.23,4094.36,4049.74,4097.44,4097.95,4044.62,0
11_58_6,51,4080.51,4084.1,4093.33,4075.9,4105.13,4092.31,4096.92,4097.95,4098.46,4100,4060.51,4106.15,4105.13,4058.46,0
11_58_6,52,4091.28,4089.74,4091.79,4091.79,4091.28,4088.72,4104.62,4109.74,4110.26,4108.72,4070.26,4112.82,4112.31,4062.56,0
11_58_6,53,4094.87,4087.18,4094.36,4091.28,4088.21,4087.18,4108.21,4110.26,4104.1,4109.74,4071.79,4113.33,4120.51,4066.15,0
11_58_6,54,4093.33,4090.26,4096.92,4076.41,4098.97,4087.69,4104.62,4108.21,4103.59,4109.23,4074.87,4117.44,4125.13,4075.9,0
11_58_6,55,4098.97,4098.46,4096.41,4079.49,4108.21,4088.72,4103.08,4112.82,4115.38,4118.97,4084.1,4123.59,4125.13,4078.97,0
11_58_6,56,4104.62,4097.44,4097.44,4094.87,4106.15,4090.26,4098.97,4108.21,4107.69,4118.97,4088.21,4123.59,4126.15,4075.9,0
11_58_6,57,4101.03,4093.33,4098.46,4100,4108.72,4092.31,4093.33,4101.03,4095.38,4103.59,4087.69,4118.46,4127.18,4077.44,0
11_58_6,58,4089.23,4084.1,4093.85,4086.67,4107.69,4092.82,4092.82,4108.72,4103.59,4101.03,4080.51,4110.26,4118.97,4073.85,0
11_58_6,59,4074.87,4069.74,4087.18,4065.13,4092.31,4089.23,4093.85,4114.36,4108.21,4107.18,4069.74,4100,4109.74,4060.51,0
11_58_6,60,4070.77,4068.72,4085.13,4061.54,4092.31,4093.33,4098.46,4114.36,4106.67,4110.26,4071.79,4097.95,4110.77,4057.95,0
11_58_6,61,4075.9,4081.03,4089.74,4074.36,4108.21,4104.62,4107.69,4123.08,4116.92,4113.85,4085.64,4104.1,4114.36,4068.72,0
11_58_6,62,4077.95,4092.31,4092.82,4078.97,4110.77,4105.13,4108.21,4122.05,4117.95,4116.41,4092.31,4106.67,4112.31,4072.31,0
11_58_6,63,4076.92,4090.77,4091.79,4071.79,4107.18,4092.82,4096.41,4099.49,4097.95,4114.36,4090.26,4106.67,4111.28,4067.69,0
11_58_6,63,4076.92,4090.77,4091.79,4071.79,4107.18,4092.82,4096.41,4099.49,4097.95,4114.36,4090.26,4106.67,4111.28,4067.69,0
11_58_6,64,4077.44,4078.46,4091.79,4067.18,4103.08,4083.59,4090.26,4089.74,4087.18,4110.77,4084.1,4108.72,4106.15,4064.62,0
11_58_6,65,4075.38,4071.28,4090.77,4068.21,4091.28,4083.08,4094.36,4095.38,4094.36,4103.59,4072.82,4107.18,4093.85,4061.03,0
11_58_6,66,4072.31,4074.36,4087.18,4065.13,4088.72,4081.03,4092.31,4090.77,4099.49,4096.41,4067.18,4102.05,4087.18,4056.41,0
11_58_6,67,4074.36,4084.1,4086.15,4067.69,4102.05,4080,4086.67,4092.82,4101.03,4095.38,4072.31,4103.59,4085.64,4058.46,0
11_58_6,68,4082.05,4091.79,4091.28,4082.56,4109.74,4092.82,4097.44,4115.9,4104.1,4098.46,4080,4108.21,4081.54,4066.15,0
11_58_6,69,4088.72,4091.79,4094.87,4087.18,4105.64,4108.21,4113.33,4127.69,4109.23,4112.82,4081.03,4109.74,4082.05,4071.28,0
11_58_6,70,4090.77,4098.46,4094.36,4082.56,4103.08,4105.64,4107.69,4111.28,4114.36,4128.21,4076.92,4109.23,4091.28,4079.49,0
11_58_6,71,4095.38,4108.72,4096.41,4088.21,4108.21,4092.31,4094.87,4103.08,4108.72,4122.56,4080,4109.74,4094.36,4090.26,0
11_58_6,72,4096.92,4097.44,4097.95,4088.72,4111.79,4091.28,4097.95,4113.33,4096.41,4107.69,4080.51,4111.28,4079.49,4087.69,0
11_58_6,73,4087.18,4081.54,4092.82,4072.82,4103.59,4092.31,4099.49,4109.74,4091.79,4093.33,4064.1,4104.1,4059.49,4072.82,0
11_58_6,74,4074.87,4084.62,4086.67,4066.15,4093.85,4087.69,4092.31,4094.87,4090.26,4083.08,4048.72,4094.36,4051.28,4064.1,0
11_58_6,75,4077.44,4090.77,4089.74,4072.82,4097.95,4087.18,4091.28,4100.51,4092.82,4091.79,4053.33,4096.92,4054.36,4068.72,0
11_58_6,76,4088.72,4095.9,4096.92,4083.59,4105.64,4091.28,4093.33,4109.23,4099.49,4107.18,4062.56,4107.18,4056.92,4074.36,0
11_58_6,77,4094.36,4100.51,4096.41,4089.23,4106.15,4092.82,4093.85,4095.38,4097.44,4101.03,4058.97,4108.72,4060,4076.92,0
11_58_6,78,4087.69,4092.31,4093.85,4080,4102.05,4090.26,4092.31,4082.56,4086.67,4096.92,4049.74,4098.46,4059.49,4075.9,0
11_58_6,79,4083.59,4088.21,4092.82,4076.92,4103.08,4091.28,4094.87,4094.36,4091.28,4106.15,4045.64,4091.79,4049.74,4072.82,0
11_58_6,80,4090.26,4095.9,4093.33,4085.64,4106.67,4093.33,4102.05,4112.31,4105.13,4102.56,4049.23,4101.03,4047.18,4074.36,0
11_58_6,81,4090.26,4096.92,4093.33,4083.08,4102.56,4097.44,4106.67,4114.36,4104.62,4098.97,4052.82,4110.77,4049.74,4077.44,0
11_58_6,82,4082.05,4090.77,4091.28,4076.41,4101.03,4105.64,4105.13,4109.23,4094.36,4107.18,4048.72,4103.08,4042.56,4077.95,0
11_58_6,83,4081.54,4090.26,4088.72,4081.54,4105.64,4102.05,4098.97,4103.08,4086.67,4105.64,4037.95,4092.82,4033.85,4073.33,0
11_58_6,84,4083.59,4091.79,4087.18,4085.64,4108.21,4089.23,4092.82,4095.9,4088.21,4090.77,4022.56,4089.23,4029.23,4065.64,0
11_58_6,85,4077.44,4091.28,4087.18,4081.54,4105.13,4089.23,4089.74,4090.26,4083.59,4081.03,4012.82,4083.59,4012.31,4056.41,0
11_58_6,86,4076.41,4091.79,4088.72,4080,4101.54,4090.26,4087.69,4084.1,4073.33,4079.49,4013.85,4083.59,4001.03,4057.44,0
11_58_6,87,4079.49,4090.77,4091.79,4079.49,4092.31,4081.03,4083.08,4077.44,4080.51,4078.97,4014.36,4083.59,4004.62,4062.05,0
11_58_6,88,4075.9,4091.28,4093.85,4077.95,4085.13,4082.56,4084.62,4083.08,4089.74,4077.44,4005.13,4077.95,4000.51,4057.44,0
11_58_6,89,4078.97,4090.26,4095.38,4079.49,4097.95,4093.33,4091.28,4094.36,4078.46,4081.03,3998.97,4080,3998.46,4061.54,0
11_58_6,90,4090.77,4091.28,4098.46,4086.67,4109.74,4093.33,4091.28,4093.85,4069.74,4088.21,4008.21,4094.87,4005.64,4075.38,0
11_58_6,91,4096.41,4104.62,4100.51,4097.44,4110.77,4092.31,4090.77,4095.9,4085.64,4091.79,4013.85,4101.54,4009.23,4078.97,0
11_58_6,92,4093.85,4107.69,4095.38,4095.38,4105.64,4097.95,4096.41,4104.62,4092.31,4087.18,4009.74,4099.49,4004.1,4079.49,0
11_58_6,93,4084.62,4082.56,4087.18,4078.97,4093.85,4093.85,4095.38,4100,4074.87,4069.74,4000.51,4093.33,3990.26,4076.41,0
11_58_6,94,4075.9,4072.31,4085.64,4071.79,4089.23,4081.03,4083.08,4082.56,4061.54,4059.49,3984.62,4080.51,3982.05,4062.56,0
11_58_6,95,4075.9,4087.69,4089.23,4075.9,4095.9,4080,4072.82,4074.87,4064.62,4071.79,3975.38,4071.79,3987.69,4060,0
11_58_6,96,4077.44,4086.15,4089.23,4075.38,4096.92,4087.18,4074.87,4083.59,4075.38,4082.56,3984.1,4076.41,3990.77,4073.33,0
11_58_6,97,4079.49,4076.41,4091.28,4075.9,4099.49,4092.31,4089.23,4100,4080.51,4085.13,3995.38,4090.26,3992.82,4078.97,0
11_58_6,98,4083.59,4080,4093.33,4080,4100,4088.72,4094.87,4100,4076.92,4092.31,3989.74,4094.87,3995.9,4074.87,0
11_58_6,99,4078.46,4077.95,4090.26,4074.87,4086.15,4086.67,4087.69,4086.15,4073.85,4086.15,3977.44,4083.59,3983.59,4067.69,0
11_58_6,100,4072.31,4073.33,4092.31,4071.79,4086.67,4097.95,4093.33,4092.82,4077.95,4073.85,3973.33,4078.46,3971.28,4065.13,0
11_58_6,101,4075.38,4075.38,4095.9,4076.41,4100.51,4107.69,4105.13,4111.28,4081.03,4076.92,3973.85,4081.54,3978.46,4073.33,0
11_58_6,102,4075.38,4070.26,4093.85,4075.38,4095.38,4098.97,4100,4111.79,4076.41,4078.46,3970.77,4080,3976.41,4075.38,0
11_58_6,103,4074.87,4076.92,4093.33,4075.9,4092.31,4088.21,4091.28,4104.62,4073.85,4073.85,3967.18,4080,3967.18,4069.23,0
11_58_6,104,4086.15,4092.82,4095.38,4081.03,4105.64,4091.79,4094.87,4112.31,4081.03,4086.15,3973.33,4090.77,3977.44,4082.56,0
11_58_6,105,4092.82,4083.08,4093.85,4077.95,4099.49,4094.36,4095.38,4114.87,4082.56,4099.49,3978.97,4095.38,3983.59,4095.38,0
11_58_6,106,4089.23,4073.85,4093.85,4073.33,4085.13,4091.28,4092.31,4099.49,4076.41,4095.9,3970.26,4089.23,3975.38,4085.13,0
11_58_6,107,4090.77,4085.13,4096.41,4078.46,4096.41,4093.85,4095.9,4090.77,4075.9,4093.33,3960.51,4089.74,3974.36,4084.1,0
11_58_6,108,4094.36,4090.26,4095.38,4083.59,4109.74,4094.87,4097.95,4090.26,4069.23,4087.69,3960.51,4095.9,3972.82,4094.87,0
11_58_6,109,4092.31,4083.08,4092.82,4076.41,4101.54,4090.26,4094.87,4089.23,4057.95,4069.23,3951.28,4090.26,3961.03,4086.67,0
11_58_6,110,4084.1,4070.26,4088.72,4064.1,4090.77,4087.69,4092.82,4090.26,4056.92,4054.87,3929.74,4077.44,3946.15,4071.79,0
11_58_6,111,4076.92,4060.51,4087.69,4062.05,4091.28,4094.36,4093.85,4095.9,4060,4051.28,3923.08,4072.82,3930.77,4071.79,0
11_58_6,112,4081.03,4066.67,4089.23,4066.15,4089.74,4097.44,4093.33,4102.05,4066.15,4050.77,3927.69,4074.36,3927.69,4074.36,0
11_58_6,113,4090.26,4076.41,4089.74,4069.23,4088.21,4091.79,4091.28,4107.69,4075.38,4056.92,3926.67,4078.97,3938.46,4080,0
11_58_6,114,4093.33,4074.87,4094.36,4073.85,4098.46,4095.9,4090.77,4102.56,4070.77,4071.79,3930.26,4088.72,3940.51,4093.33,0
11_58_6,115,4091.79,4074.36,4094.87,4075.38,4105.13,4104.1,4091.28,4087.18,4064.1,4078.97,3935.9,4093.85,3936.92,4092.82,0
11_58_6,116,4089.74,4076.41,4091.28,4066.67,4099.49,4097.95,4092.31,4094.36,4071.28,4078.46,3924.62,4090.26,3944.1,4081.03,0
11_58_6,117,4085.64,4076.41,4091.79,4060,4089.74,4089.23,4092.82,4109.23,4070.77,4072.31,3915.9,4088.21,3956.41,4080.51,0
11_58_6,118,4080,4070.77,4090.26,4058.97,4081.54,4091.79,4089.23,4097.95,4060,4056.92,3913.33,4083.08,3968.21,4081.03,0
11_58_6,119,4073.85,4059.49,4084.1,4055.9,4083.59,4095.9,4088.72,4086.67,4054.36,4038.46,3894.87,4072.82,3983.59,4071.28,0
11_58_6,120,4080.51,4063.59,4088.21,4055.38,4092.31,4096.92,4095.38,4091.79,4047.18,4020.51,3882.05,4070.77,4002.05,4070.26,0
11_58_6,121,4090.77,4071.28,4095.9,4058.46,4092.82,4096.92,4096.41,4087.69,4041.54,4008.72,3893.33,4080,4015.38,4074.36,0
11_58_6,122,4094.87,4071.28,4095.38,4063.59,4087.69,4098.46,4091.28,4092.31,4050.77,4014.87,3897.44,4089.74,4023.08,4074.36,0
11_58_6,123,4101.54,4084.1,4095.9,4068.72,4090.26,4097.95,4090.77,4116.92,4070.26,4034.36,3892.82,4092.82,4033.33,4083.08,0
11_58_6,124,4106.67,4090.26,4095.38,4067.18,4094.87,4093.33,4090.26,4118.46,4077.44,4037.95,3898.46,4093.33,4041.03,4092.82,0
11_58_6,125,4098.46,4070.26,4091.28,4057.95,4093.85,4091.79,4087.69,4108.21,4066.67,4024.62,3896.92,4095.9,4033.85,4088.21,0
11_58_6,126,4091.28,4055.9,4087.69,4051.28,4093.33,4100.51,4091.28,4109.74,4049.74,4015.38,3880.51,4095.38,4018.97,4078.97,0
11_58_6,127,4091.28,4062.56,4086.15,4050.77,4096.92,4105.13,4094.87,4098.46,4043.08,4009.23,3868.21,4090.26,4007.18,4074.36,0
11_58_6,128,4087.69,4061.03,4084.1,4052.82,4088.72,4097.95,4092.31,4084.62,4047.18,3996.41,3861.54,4086.67,3996.92,4067.18,0
11_58_6,0,4086.67,4059.49,4083.08,4053.33,4081.03,4098.46,4092.31,4088.21,4047.18,3985.13,3861.03,4088.72,3984.62,4060.51,0
11_58_6,1,4090.26,4071.79,4083.59,4054.36,4094.36,4103.59,4093.85,4092.82,4043.08,3984.1,3860,4090.26,3975.38,4058.46,0
11_58_6,2,4091.79,4077.44,4087.69,4060,4105.64,4102.56,4093.33,4096.41,4043.08,3988.72,3849.23,4090.26,3973.33,4065.13,0
11_58_6,3,4093.33,4077.44,4090.77,4062.56,4097.44,4096.92,4091.79,4105.64,4052.82,3991.28,3847.18,4093.33,3972.31,4074.36,0
11_58_6,4,4090.77,4073.85,4086.67,4052.31,4085.64,4092.31,4084.62,4105.13,4052.82,3985.13,3849.23,4094.36,3960,4069.23,0
11_58_6,5,4083.08,4063.59,4082.56,4042.56,4082.05,4090.77,4080.51,4096.92,4042.56,3974.87,3834.36,4091.28,3944.62,4059.49,0
11_58_6,6,4082.56,4056.41,4085.64,4047.18,4085.13,4090.26,4086.67,4089.23,4046.67,3972.31,3824.1,4089.23,3939.49,4060,0
11_58_6,7,4087.69,4060.51,4088.21,4050.77,4091.28,4094.36,4092.31,4088.21,4050.77,3972.82,3831.28,4090.77,3941.54,4063.59,0
11_58_6,8,4084.1,4061.03,4085.64,4045.64,4091.28,4094.87,4091.28,4096.92,4037.95,3970.77,3829.23,4090.26,3938.97,4060,0
11_58_6,9,4083.59,4058.46,4082.56,4047.69,4084.62,4094.87,4091.28,4094.87,4026.15,3967.69,3815.38,4088.21,3928.72,4055.38,0
11_58_6,10,4091.79,4065.64,4084.1,4054.36,4078.46,4098.97,4092.82,4090.26,4038.46,3973.85,3815.9,4091.79,3928.21,4063.59,0
11_58_6,11,4092.82,4066.15,4086.15,4048.72,4083.08,4098.97,4093.33,4095.9,4047.69,3976.92,3818.97,4093.85,3928.72,4069.23,0
11_58_6,12,4087.18,4056.92,4084.62,4039.49,4091.28,4091.28,4089.74,4085.13,4028.72,3962.05,3805.64,4090.26,3913.85,4061.54,0
11_58_6,13,4093.33,4059.49,4088.72,4047.69,4090.26,4088.72,4088.21,4077.44,4016.92,3950.77,3795.38,4095.9,3908.72,4062.05,0
11_58_6,14,4105.64,4075.38,4092.82,4057.95,4091.79,4096.41,4100,4093.33,4030.26,3956.41,3804.1,4106.15,3920,4077.44,0
11_58_6,15,4103.08,4076.92,4087.69,4054.87,4095.38,4097.95,4103.59,4098.46,4038.97,3959.49,3810.26,4102.05,3922.56,4082.05,0
11_58_7,16,4090.77,4063.59,4082.05,4053.85,4082.56,4091.28,4091.28,4094.36,4038.97,3961.03,3803.08,4093.33,3908.21,4072.82,0
11_58_7,17,4089.23,4063.59,4084.62,4056.92,4075.38,4090.26,4085.64,4103.08,4042.56,3971.28,3799.49,4092.82,3895.9,4067.69,0
11_58_7,18,4093.33,4070.77,4087.18,4054.87,4086.15,4092.31,4094.36,4115.38,4043.08,3975.9,3805.64,4091.28,3899.49,4068.72,0
11_58_7,19,4092.31,4066.15,4086.67,4051.28,4092.82,4099.49,4105.64,4117.95,4049.23,3985.13,3817.44,4090.26,3909.74,4072.82,0
11_58_7,20,4090.77,4059.49,4085.64,4049.74,4091.28,4107.18,4105.64,4109.23,4051.79,3996.41,3815.9,4090.77,3905.64,4073.33,0
11_58_7,29,4100.51,4061.54,4084.1,4043.59,4072.82,4088.21,4095.9,4111.79,4031.28,3988.21,3805.13,4079.49,3893.33,4077.44,0
11_58_7,30,4099.49,4060.51,4086.67,4048.21,4080,4097.95,4100,4124.1,4041.54,3991.28,3797.44,4074.36,3895.38,4074.87,0
11_58_7,31,4097.44,4062.56,4084.62,4047.18,4088.72,4101.54,4097.95,4118.97,4034.36,3986.15,3793.85,4076.41,3893.33,4075.38,0
11_58_7,32,4090.77,4057.44,4081.03,4042.56,4084.1,4096.41,4100,4105.64,4015.38,3973.33,3793.33,4074.87,3882.05,4068.21,0
11_58_7,33,4086.15,4054.36,4081.03,4042.56,4080.51,4093.85,4101.03,4093.33,4007.69,3962.05,3792.82,4066.67,3874.87,4062.05,0
11_58_7,34,4088.72,4058.97,4083.08,4040.51,4078.46,4093.33,4092.82,4083.59,4014.87,3966.67,3787.18,4064.1,3880,4062.05,0
11_58_7,35,4086.67,4055.38,4082.05,4035.9,4067.18,4088.21,4086.15,4074.87,4012.31,3964.1,3775.9,4064.1,3880,4058.97,0
11_58_7,36,4083.08,4046.67,4082.05,4035.9,4065.13,4085.13,4088.21,4078.97,4000,3948.72,3776.41,4064.62,3874.36,4056.92,0
11_58_7,37,4091.79,4051.79,4087.69,4043.08,4083.08,4090.77,4096.92,4097.44,4010.26,3952.31,3792.82,4071.79,3882.05,4066.67,0
11_58_7,38,4105.64,4063.08,4091.28,4049.23,4090.77,4095.9,4103.59,4107.18,4028.72,3961.03,3804.1,4077.95,3895.9,4077.95,0
11_58_7,39,4108.72,4064.62,4088.21,4049.23,4082.56,4094.87,4101.54,4108.72,4028.21,3946.15,3800.51,4077.44,3894.87,4076.92,0
11_58_7,40,4103.59,4059.49,4085.13,4047.69,4077.95,4092.82,4096.92,4111.79,4021.03,3926.67,3790.26,4074.87,3882.56,4070.26,0
11_58_7,41,4098.97,4055.38,4086.67,4047.18,4075.38,4090.26,4093.33,4107.18,4014.36,3916.92,3784.1,4069.23,3873.33,4065.64,0
11_58_7,42,4096.92,4052.82,4084.62,4042.56,4076.41,4085.13,4089.23,4095.9,4005.64,3908.72,3783.59,4068.21,3873.85,4065.13,0
11_58_7,43,4097.44,4046.15,4081.03,4036.41,4080.51,4087.69,4096.41,4094.87,4007.18,3904.62,3789.23,4073.85,3877.95,4066.67,0
11_58_7,44,4093.85,4039.49,4082.56,4038.46,4078.97,4096.92,4106.15,4094.87,4008.21,3895.9,3791.79,4070.26,3879.49,4067.18,0
11_58_7,45,4091.28,4042.05,4084.62,4043.59,4075.38,4096.41,4098.97,4087.69,4000.51,3889.23,3793.33,4065.13,3874.87,4064.62,0
11_58_7,46,4092.82,4042.05,4080.51,4040.51,4076.41,4087.18,4088.72,4082.05,3997.95,3891.79,3794.36,4064.62,3869.23,4060.51,0
11_58_7,47,4083.08,4032.82,4074.87,4031.28,4074.36,4085.64,4088.21,4076.41,4000,3885.13,3780,4053.85,3860.51,4050.77,0
11_58_7,48,4075.9,4030.77,4077.95,4031.28,4074.36,4091.79,4089.23,4078.97,4001.03,3877.44,3768.72,4046.15,3855.9,4046.15,0
11_58_7,49,4086.67,4040,4085.64,4041.03,4084.1,4095.9,4089.74,4090.26,4001.03,3891.28,3784.1,4057.95,3866.67,4056.92,0
11_58_7,50,4097.95,4049.23,4085.13,4048.72,4089.74,4092.82,4092.82,4093.33,4000,3897.95,3795.9,4064.62,3873.33,4064.1,0
11_58_7,51,4091.79,4047.69,4079.49,4045.64,4084.1,4089.23,4091.28,4095.38,4003.59,3885.13,3785.13,4052.31,3863.59,4056.41,0
11_58_7,52,4083.08,4040,4079.49,4039.49,4074.36,4089.74,4089.23,4104.62,4009.74,3885.64,3781.54,4044.62,3857.44,4051.28,0
11_58_7,53,4083.59,4036.92,4082.56,4035.38,4066.67,4091.28,4093.85,4111.79,4006.67,3897.95,3803.59,4054.36,3864.62,4057.44,0
11_58_7,54,4082.05,4034.87,4081.03,4032.31,4069.23,4090.26,4094.87,4107.69,3993.85,3901.03,3818.97,4061.54,3868.72,4061.03,0
11_58_7,55,4075.38,4028.72,4078.97,4030.26,4076.41,4089.74,4088.72,4087.69,3977.44,3890.26,3810.26,4050.26,3863.59,4051.79,0
11_58_7,56,4071.79,4027.18,4077.95,4033.33,4081.03,4092.82,4089.74,4069.74,3970.77,3883.08,3802.05,4038.97,3860.51,4042.56,0
11_58_7,57,4074.36,4029.74,4074.87,4034.87,4080,4095.9,4094.87,4072.31,3973.33,3885.64,3787.69,4041.03,3854.36,4041.54,0
11_58_7,58,4077.44,4024.62,4072.82,4029.74,4073.33,4095.38,4095.9,4081.03,3974.36,3891.79,3761.03,4049.74,3849.74,4048.72,0
11_58_7,59,4082.05,4026.15,4077.44,4028.21,4070.26,4091.79,4096.41,4082.56,3971.28,3893.33,3748.21,4053.85,3852.82,4057.44,0
11_58_7,60,4089.74,4038.46,4077.44,4032.82,4073.85,4089.23,4094.87,4088.72,3976.41,3891.79,3752.31,4052.31,3851.28,4060,0
11_58_7,61,4093.85,4042.05,4077.95,4038.46,4076.92,4088.21,4091.28,4093.85,3985.13,3897.44,3757.95,4054.87,3844.62,4061.03,0
11_58_7,62,4090.77,4031.79,4080.51,4034.87,4074.87,4089.74,4090.77,4090.26,3985.13,3905.64,3762.56,4060.51,3847.18,4064.1,0
11_58_7,63,4078.97,4021.03,4075.38,4023.59,4072.31,4091.28,4093.33,4096.92,3980.51,3909.23,3766.67,4051.79,3845.64,4056.92,0
11_58_7,64,4067.69,4013.33,4067.69,4022.05,4066.67,4090.26,4090.77,4105.13,3979.49,3903.59,3765.13,4035.38,3831.79,4041.54,0
11_58_7,65,4064.62,4012.82,4067.18,4024.1,4060.51,4091.28,4084.1,4098.97,3984.62,3902.56,3771.28,4030.26,3830.77,4036.41,0
11_58_7,66,4070.26,4022.05,4069.23,4022.56,4061.03,4091.28,4085.13,4094.87,3976.92,3910.77,3786.67,4034.87,3844.1,4042.05,0
11_58_7,67,4073.33,4025.64,4066.67,4023.59,4065.13,4085.64,4091.79,4090.26,3956.92,3912.82,3798.46,4038.97,3849.23,4046.15,0
11_58_7,68,4071.28,4020.51,4067.69,4028.72,4063.59,4085.13,4091.79,4079.49,3951.79,3908.21,3807.69,4039.49,3853.85,4048.72,0
11_58_7,69,4070.26,4018.97,4070.26,4027.69,4062.56,4092.31,4089.74,4072.31,3963.08,3910.26,3813.33,4037.44,3863.59,4051.79,0
11_58_7,70,4071.28,4021.54,4069.23,4028.21,4065.64,4093.33,4093.33,4075.38,3968.21,3919.49,3819.49,4038.97,3862.56,4052.31,0
11_58_7,71,4067.18,4019.49,4066.67,4028.72,4059.49,4084.1,4089.23,4075.38,3969.23,3922.05,3821.54,4036.92,3851.79,4044.1,0
11_58_7,72,4056.92,4010.77,4067.18,4022.05,4049.74,4079.49,4077.95,4071.28,3975.38,3915.38,3816.92,4024.1,3842.56,4031.28,0
11_58_7,73,4050.26,4007.18,4066.67,4023.59,4053.85,4085.64,4080,4072.82,3974.87,3907.18,3810.26,4014.87,3834.36,4024.1,0
11_58_7,74,4052.82,4013.85,4065.64,4028.72,4062.05,4092.31,4091.28,4083.08,3974.87,3908.21,3816.41,4018.46,3835.9,4027.69,0
11_58_7,75,4063.59,4020.51,4068.21,4027.18,4062.05,4089.74,4092.82,4096.41,3987.69,3924.1,3833.85,4028.72,3850.77,4037.44,0
11_58_7,76,4074.36,4020.51,4071.79,4025.13,4052.82,4088.72,4091.79,4106.67,4003.59,3940.51,3847.69,4039.49,3866.67,4051.28,0
11_58_7,77,4077.44,4023.08,4070.26,4029.74,4047.18,4093.85,4098.46,4112.82,4011.28,3946.15,3856.92,4044.62,3877.44,4060,0
11_58_7,78,4072.82,4024.62,4066.15,4031.79,4054.36,4095.9,4098.46,4109.74,4010.26,3940,3857.44,4038.46,3877.95,4054.87,0
11_58_7,79,4066.67,4021.03,4066.67,4029.74,4060.51,4094.87,4093.33,4094.36,4007.69,3932.31,3848.21,4028.21,3870.77,4046.15,0
11_58_7,80,4063.59,4018.97,4067.69,4028.72,4052.31,4093.33,4090.26,4076.41,4003.08,3925.64,3846.67,4023.59,3861.54,4044.1,0
11_58_7,81,4061.54,4018.46,4065.64,4026.67,4042.05,4090.26,4083.59,4061.54,3997.44,3920.51,3854.87,4023.59,3855.9,4042.56,0
11_58_7,82,4067.18,4023.08,4067.69,4031.28,4036.41,4090.77,4084.1,4063.59,4011.79,3928.72,3862.56,4033.33,3860.51,4043.59,0
11_58_7,83,4067.18,4022.56,4068.21,4037.44,4028.72,4090.77,4088.72,4076.41,4033.85,3941.03,3867.18,4036.41,3865.13,4045.64,0
11_58_7,84,4056.41,4012.31,4064.1,4027.69,4028.72,4088.72,4088.72,4083.59,4034.36,3944.1,3872.31,4025.13,3852.82,4037.95,0
11_58_7,85,4053.85,4008.21,4065.13,4015.9,4031.79,4091.79,4089.23,4086.15,4034.87,3945.64,3882.56,4025.64,3840.51,4036.41,0
11_58_7,86,4065.64,4013.85,4068.21,4021.03,4024.62,4094.87,4096.41,4096.92,4050.77,3950.26,3897.44,4039.49,3848.72,4048.72,0
11_58_7,87,4067.18,4013.85,4066.15,4025.64,4017.95,4093.33,4094.87,4103.59,4054.87,3945.64,3901.03,4036.92,3856.92,4052.82,0
11_58_7,88,4060,4005.13,4064.62,4018.97,4014.87,4093.33,4092.31,4100,4048.21,3937.95,3895.9,4022.56,3855.9,4046.15,0
11_58_7,89,4061.03,4001.54,4066.67,4020,4008.72,4095.38,4103.08,4097.44,4054.87,3941.03,3894.87,4018.97,3857.44,4045.64,0
11_58_7,90,4063.59,4006.15,4065.13,4027.69,4006.67,4094.36,4105.13,4093.85,4057.44,3939.49,3893.85,4018.46,3867.18,4045.64,0
11_58_7,91,4059.49,4010.77,4062.05,4029.74,4014.87,4091.28,4092.82,4085.64,4049.23,3927.69,3892.82,4014.87,3882.56,4040.51,0
11_58_7,92,4056.41,4013.33,4060.51,4026.67,4017.95,4090.77,4086.67,4071.79,4047.18,3927.69,3898.46,4011.28,3903.08,4036.41,0
11_58_7,93,4058.46,4018.46,4061.54,4027.69,4014.36,4093.33,4092.31,4066.67,4052.82,3938.46,3906.15,4007.69,3924.1,4033.33,0
11_58_7,94,4062.56,4021.03,4062.56,4034.36,4007.69,4094.87,4092.82,4074.87,4064.1,3944.62,3914.36,4012.82,3947.18,4035.38,0
11_58_7,95,4064.1,4016.41,4061.54,4036.41,3995.9,4093.85,4089.23,4081.03,4072.31,3948.72,3923.59,4024.62,3973.85,4042.56,0
11_58_7,96,4066.15,4019.49,4060.51,4034.87,3990.26,4096.41,4092.31,4084.1,4075.9,3955.9,3928.21,4030.26,3985.64,4044.62,0
11_58_7,97,4073.85,4031.28,4059.49,4037.95,3989.74,4096.41,4092.31,4096.41,4084.1,3957.44,3932.82,4028.72,3983.59,4045.13,0
11_58_7,98,4076.92,4026.67,4056.92,4037.44,3978.97,4091.28,4091.79,4112.82,4092.82,3955.9,3942.56,4029.23,3992.31,4049.23,0
11_58_7,99,4068.72,4012.31,4052.31,4028.21,3972.31,4097.95,4093.85,4112.31,4099.49,3960,3947.69,4028.72,4002.56,4048.72,0
11_58_7,100,4065.64,4013.85,4050.26,4029.23,3974.36,4107.18,4093.85,4100,4103.08,3961.54,3944.62,4029.74,3993.85,4045.13,0
11_58_7,101,4068.72,4015.38,4050.77,4030.77,3955.9,4102.56,4092.82,4093.85,4091.28,3960.51,3945.13,4032.31,3988.21,4045.13,0
11_58_7,102,4065.13,4002.05,4052.82,4023.59,3934.87,4091.79,4093.33,4091.28,4073.33,3956.41,3945.13,4031.28,3988.21,4042.56,0
11_58_7,103,4067.69,4005.13,4056.92,4026.15,3947.18,4089.74,4092.82,4082.56,4077.95,3954.87,3948.21,4032.82,3978.46,4041.54,0
11_58_7,104,4080.51,4021.03,4059.49,4037.95,3964.62,4094.36,4091.28,4074.36,4090.26,3964.62,3961.03,4043.08,3978.97,4051.79,0
11_58_7,105,4082.05,4017.95,4057.44,4038.46,3960,4096.41,4092.82,4079.49,4090.26,3975.9,3967.69,4045.64,3990.77,4057.95,0
11_58_7,106,4073.85,4006.15,4055.38,4030.26,3952.82,4094.87,4092.82,4087.18,4091.79,3979.49,3970.26,4041.54,3989.23,4050.26,0
11_58_7,107,4074.36,4009.23,4054.36,4033.33,3957.44,4094.36,4090.77,4088.72,4098.46,3981.54,3981.03,4042.05,3986.15,4048.72,0
11_58_7,108,4076.92,4015.38,4052.82,4038.97,3959.49,4093.85,4093.33,4087.69,4105.13,3981.54,3983.08,4040,3989.23,4056.41,0
11_58_7,109,4071.28,4009.23,4051.28,4030.77,3954.36,4087.18,4091.28,4086.67,4101.54,3978.46,3978.97,4034.87,3983.59,4053.85,0
11_58_7,110,4066.15,4000.51,4050.26,4022.56,3951.28,4084.62,4085.13,4085.64,4095.38,3978.97,3980,4031.79,3977.44,4044.1,0
11_58_7,111,4065.64,4002.56,4049.74,4025.64,3955.9,4090.26,4085.64,4090.26,4098.97,3981.54,3977.95,4028.72,3976.41,4042.05,0
11_58_7,112,4066.67,4005.64,4051.28,4029.23,3965.13,4092.31,4089.74,4101.03,4113.85,3983.59,3977.95,4030.26,3975.9,4045.13,0
11_58_7,113,4071.79,4006.67,4055.9,4029.74,3966.15,4092.31,4090.77,4111.79,4124.62,3992.31,3990.77,4038.46,3980.51,4049.74,0
11_58_7,114,4077.44,4011.28,4056.92,4032.82,3958.46,4095.38,4093.85,4111.79,4115.9,3990.77,3998.46,4038.97,3984.62,4051.79,0
11_58_7,115,4072.31,4008.72,4050.26,4030.26,3957.44,4094.36,4094.36,4088.72,4105.64,3978.97,3992.82,4029.23,3974.36,4045.13,0
11_58_7,116,4060,3998.97,4047.18,4026.67,3962.56,4083.08,4087.69,4055.38,4098.46,3972.31,3986.67,4022.56,3957.95,4034.36,0
11_58_7,117,4056.92,3999.49,4049.23,4027.18,3960,4073.33,4086.15,4052.31,4089.23,3962.56,3985.64,4022.05,3951.79,4031.28,0
11_58_7,118,4063.59,4006.15,4050.26,4029.23,3962.05,4078.46,4091.28,4072.82,4092.82,3957.44,3994.36,4024.62,3957.44,4038.97,0
11_58_7,119,4073.33,4012.31,4051.79,4038.46,3980.51,4090.26,4092.82,4084.1,4112.31,3975.9,4010.26,4031.28,3969.23,4050.77,0
11_58_7,120,4080.51,4020,4055.38,4047.69,3984.1,4093.33,4093.33,4097.44,4133.85,4002.05,4022.05,4043.59,3975.9,4061.03,0
11_58_7,121,4080,4025.13,4054.36,4045.64,3974.36,4089.74,4093.33,4114.36,4137.44,4002.56,4030.26,4047.18,3973.33,4061.03,0
11_58_7,122,4072.31,4017.44,4051.79,4037.44,3979.49,4090.77,4092.82,4106.67,4121.54,3984.1,4025.64,4036.41,3970.26,4053.85,0
11_58_7,123,4064.1,4004.62,4050.77,4036.41,3990.26,4092.82,4092.31,4090.77,4110.77,3971.79,4010.26,4027.18,3969.23,4047.18,0
11_58_7,124,4065.13,4009.74,4049.74,4037.95,3992.82,4090.77,4091.28,4088.72,4121.54,3974.36,4007.18,4027.18,3974.87,4047.69,0
11_58_7,125,4070.77,4020.51,4048.72,4034.36,3989.23,4089.23,4091.28,4088.21,4125.64,3982.05,4020,4028.21,3984.1,4055.38,0
11_58_7,126,4074.87,4021.03,4051.28,4036.92,3983.08,4088.21,4090.26,4087.69,4121.03,3981.54,4028.72,4029.74,3987.18,4057.95,0
11_58_7,127,4077.44,4023.08,4056.41,4048.72,3986.67,4091.28,4091.79,4087.18,4133.33,3985.64,4040,4037.44,3998.46,4063.08,0
11_58_7,128,4077.95,4030.26,4056.41,4049.23,4001.03,4101.03,4101.54,4088.72,4137.95,4000.51,4053.85,4047.18,4016.41,4073.33,0
11_58_7,0,4076.41,4028.72,4053.33,4042.05,4006.15,4107.69,4110.77,4093.85,4124.62,4006.67,4047.69,4044.62,4011.28,4067.69,0
11_58_7,1,4073.33,4025.13,4049.74,4045.13,3998.46,4095.9,4101.03,4090.77,4125.64,4000,4040,4035.38,4000,4056.41,0
11_58_7,2,4069.74,4023.08,4047.18,4047.69,3991.79,4080.51,4087.69,4085.13,4138.97,3998.46,4055.9,4034.87,4011.79,4060.51,0
11_58_7,3,4064.1,4018.46,4047.69,4043.08,3988.72,4084.62,4090.26,4089.74,4137.95,4003.08,4059.49,4037.44,4015.38,4059.49,0
11_58_7,4,4062.56,4016.92,4049.23,4041.03,3990.77,4091.28,4092.82,4092.82,4131.28,4002.05,4044.62,4033.85,4003.08,4049.23,0
11_58_7,5,4072.31,4020,4053.33,4046.67,3998.97,4092.82,4091.28,4100,4147.69,4004.1,4050.26,4034.87,4007.18,4055.38,0
11_58_7,6,4078.46,4023.08,4055.9,4051.79,4005.13,4096.92,4093.85,4112.82,4160,4006.67,4062.56,4038.97,4012.31,4062.56,0
11_58_7,7,4074.87,4025.64,4050.26,4047.18,4002.56,4096.92,4094.36,4106.15,4142.05,4008.72,4060,4033.85,4008.72,4058.46,0
11_58_7,8,4073.85,4028.21,4047.18,4041.54,3996.41,4092.82,4090.77,4092.31,4138.46,4021.03,4064.1,4030.26,4016.41,4062.56,0
11_58_7,9,4075.9,4031.28,4052.31,4043.59,3999.49,4097.44,4093.85,4090.77,4154.87,4028.21,4072.31,4029.23,4021.03,4067.69,0
11_58_7,10,4069.23,4026.15,4052.31,4045.64,4005.64,4095.9,4094.36,4075.9,4135.38,4007.69,4065.64,4020,4006.67,4060,0
11_58_7,11,4063.59,4017.44,4048.21,4043.59,4004.1,4080.51,4086.15,4060,4110.26,3985.13,4057.95,4011.79,3996.92,4055.38,0
11_58_7,12,4069.74,4023.08,4051.28,4046.15,4002.56,4077.44,4085.64,4075.38,4128.21,3993.33,4064.1,4015.9,4001.03,4059.49,0
11_58_7,12,4069.74,4023.08,4051.28,4046.15,4002.56,4077.44,4085.64,4075.38,4128.21,3993.33,4064.1,4015.9,4001.03,4059.49,0
11_58_7,13,4076.41,4039.49,4056.41,4054.36,4008.72,4088.72,4092.31,4091.28,4145.13,4010.26,4070.77,4020,4004.1,4061.54,0
11_58_7,14,4081.03,4045.64,4057.44,4062.05,4011.28,4092.31,4094.87,4090.77,4141.03,4009.74,4074.87,4022.05,4007.69,4068.21,0
11_58_7,15,4084.1,4043.08,4057.44,4060,4002.56,4089.23,4093.85,4093.85,4150.26,4014.36,4084.1,4026.67,4010.26,4075.38,0
11_58_7,16,4084.62,4045.13,4056.92,4052.31,4003.08,4089.74,4094.36,4095.9,4163.59,4034.36,4091.28,4026.67,4013.85,4076.41,0
11_58_7,17,4082.56,4046.67,4057.95,4051.79,4013.33,4091.28,4095.38,4091.79,4152.31,4036.92,4091.28,4021.03,4011.79,4075.38,0
11_58_8,18,4076.92,4040.51,4055.9,4055.38,4015.38,4090.77,4093.85,4091.79,4136.41,4020,4088.21,4018.46,3998.46,4068.21,0
11_58_8,19,4072.31,4036.92,4052.82,4052.31,4007.18,4091.79,4089.74,4090.26,4142.05,4016.92,4089.23,4019.49,3994.87,4060.51,0
11_58_8,20,4071.79,4035.9,4051.79,4041.03,4002.56,4092.82,4088.21,4090.26,4149.74,4028.72,4092.31,4022.05,4004.1,4061.54,0
11_58_8,21,4069.23,4031.28,4052.82,4030.77,4007.18,4092.31,4091.79,4095.9,4149.74,4031.28,4092.31,4022.05,3998.97,4062.56,0
11_58_8,22,4060.51,4025.64,4052.82,4025.64,4013.33,4091.28,4090.77,4088.72,4145.13,4022.56,4089.23,4016.41,3986.67,4055.38,0
11_58_8,23,4063.08,4029.74,4054.36,4027.18,4014.36,4091.79,4091.79,4079.49,4138.46,4025.13,4092.82,4015.9,3994.36,4058.46,0
11_58_8,24,4074.87,4035.9,4056.41,4026.67,4012.31,4092.82,4101.54,4084.1,4140,4040.51,4105.13,4022.56,4003.59,4069.74,0
11_58_8,25,4077.95,4035.38,4057.44,4020.51,4014.36,4093.33,4106.15,4093.33,4152.82,4047.69,4111.79,4025.64,4001.03,4070.77,0
11_58_8,26,4075.38,4033.33,4056.41,4019.49,4012.31,4092.31,4100,4105.13,4160.51,4043.08,4106.15,4022.56,4001.03,4066.15,0
11_58_8,27,4075.38,4035.38,4053.85,4022.56,4006.67,4090.77,4094.87,4112.82,4163.59,4042.05,4106.67,4021.54,3994.87,4066.67,0
11_58_8,28,4076.41,4041.03,4053.33,4021.54,4010.26,4092.31,4093.85,4109.23,4170.77,4049.23,4112.82,4026.15,3986.67,4072.31,0
11_58_8,29,4078.46,4043.08,4054.87,4021.03,4017.95,4095.38,4092.82,4106.67,4167.69,4047.18,4109.74,4029.74,3991.79,4075.9,0
11_58_8,30,4080.51,4043.08,4054.87,4020,4022.05,4094.36,4093.85,4107.69,4169.23,4043.59,4110.77,4028.21,3998.97,4076.41,0
11_58_8,31,4077.95,4045.13,4053.33,4014.36,4016.41,4092.82,4095.9,4101.03,4177.95,4053.85,4118.97,4027.18,3991.79,4075.38,0
11_58_8,32,4075.38,4045.13,4054.36,4011.79,4007.18,4095.9,4097.44,4094.36,4169.74,4063.59,4114.87,4027.69,3990.26,4074.87,0
11_58_8,33,4075.38,4039.49,4053.33,4009.23,4006.15,4097.44,4096.92,4093.85,4162.56,4057.95,4107.18,4027.69,3997.44,4076.41,0
11_58_8,34,4075.38,4037.44,4050.26,4006.67,4011.28,4091.79,4092.82,4094.36,4171.28,4053.33,4113.85,4028.21,3997.44,4075.38,0
11_58_8,35,4078.46,4047.18,4053.33,4014.36,4016.92,4087.69,4094.87,4100.51,4177.95,4060,4121.03,4029.23,3993.33,4074.87,0
11_58_8,36,4081.54,4052.82,4057.95,4023.08,4017.44,4090.77,4100.51,4105.64,4176.92,4061.03,4122.56,4033.33,3994.36,4077.44,0
11_58_8,37,4080.51,4051.79,4057.44,4022.56,4014.36,4093.33,4097.44,4106.67,4180.51,4058.46,4127.69,4041.03,3995.9,4082.05,0
11_58_8,38,4080,4049.23,4054.36,4020,4008.72,4090.77,4091.28,4108.72,4189.23,4063.59,4127.69,4041.03,3992.31,4084.1,0
11_58_8,39,4079.49,4046.15,4053.33,4018.46,4011.79,4090.77,4096.41,4107.69,4186.67,4068.21,4121.03,4032.82,3990.77,4079.49,0
11_58_8,40,4078.46,4043.59,4054.36,4011.79,4016.92,4096.41,4101.03,4097.95,4171.79,4057.44,4115.38,4029.23,3986.67,4071.79,0
11_58_8,41,4074.87,4031.79,4054.36,4005.13,4008.72,4094.36,4092.31,4085.13,4160.51,4036.92,4109.23,4027.18,3975.38,4063.59,0
11_58_8,42,4067.18,4015.9,4053.33,4002.05,4000,4082.56,4085.64,4084.62,4168.21,4034.87,4107.18,4024.62,3966.15,4058.97,0
11_58_8,43,4067.18,4024.1,4053.33,4006.67,4002.05,4082.05,4089.23,4092.82,4175.9,4047.69,4114.87,4026.67,3967.69,4062.56,0
11_58_8,44,4073.33,4042.05,4053.33,4014.36,4005.13,4091.79,4092.82,4087.18,4165.64,4047.18,4121.54,4029.23,3977.95,4069.23,0
11_58_8,45,4072.82,4035.9,4050.77,4021.54,4004.1,4093.33,4091.79,4077.95,4161.03,4043.08,4122.05,4030.77,3989.23,4069.74,0
11_58_8,46,4071.79,4033.33,4053.33,4028.21,4008.72,4092.82,4096.41,4097.95,4176.41,4058.97,4131.28,4035.9,3995.38,4070.77,0
11_58_8,47,4081.03,4052.31,4058.97,4031.28,4013.85,4096.41,4098.46,4108.21,4180,4074.36,4142.56,4043.08,3993.33,4076.92,0
11_58_8,48,4083.08,4052.31,4057.44,4027.18,4008.72,4095.38,4090.77,4085.13,4166.15,4065.13,4141.54,4045.64,3988.21,4078.97,0
11_58_8,49,4076.92,4037.44,4056.92,4026.15,4004.1,4091.28,4089.23,4088.21,4169.74,4057.95,4140,4043.59,3991.79,4075.9,0
11_58_8,50,4077.44,4041.54,4059.49,4036.41,4004.1,4095.9,4096.41,4114.36,4187.69,4065.13,4144.62,4044.1,3997.95,4075.9,0
11_58_8,51,4078.97,4046.67,4059.49,4040,4007.69,4102.05,4097.44,4110.77,4183.59,4063.08,4142.56,4044.62,3990.77,4075.38,0
11_58_8,52,4075.9,4041.03,4056.92,4030.26,4013.33,4098.46,4089.74,4094.36,4169.74,4056.41,4138.46,4043.59,3981.54,4073.85,0
11_58_8,53,4075.38,4040.51,4058.97,4028.21,4018.46,4092.82,4091.79,4092.31,4165.64,4061.54,4138.97,4042.56,3986.15,4074.36,0
11_58_8,54,4078.97,4044.1,4060,4036.92,4017.95,4099.49,4099.49,4091.28,4161.54,4067.18,4140.51,4044.62,3989.74,4075.9,0
11_58_8,55,4076.41,4044.62,4057.95,4039.49,4009.23,4102.56,4097.95,4086.15,4156.92,4068.21,4142.05,4044.1,3988.72,4075.9,0
11_58_8,56,4072.31,4043.59,4056.41,4033.85,4003.08,4097.95,4093.33,4080.51,4154.36,4066.15,4143.08,4043.59,3997.95,4074.87,0
11_58_8,57,4074.36,4042.56,4057.44,4035.9,4009.23,4103.08,4097.95,4077.44,4154.87,4061.03,4143.59,4045.13,4007.69,4076.41,0
11_58_8,58,4074.87,4047.18,4056.41,4046.15,4015.38,4107.69,4102.56,4093.85,4161.54,4062.05,4140.51,4042.05,4019.49,4073.33,0
11_58_8,59,4068.72,4042.56,4051.79,4041.54,4009.23,4096.41,4095.38,4107.69,4163.08,4064.1,4135.9,4035.38,4044.62,4067.69,0
11_58_8,60,4066.15,4031.28,4049.23,4027.18,4002.56,4089.23,4089.23,4101.54,4153.33,4063.59,4141.54,4037.44,4070.26,4068.21,0
11_58_8,61,4075.9,4041.54,4054.36,4036.92,4003.59,4093.33,4091.28,4095.9,4152.31,4070.77,4151.79,4046.15,4090.26,4074.87,0
11_58_8,62,4078.97,4050.77,4054.87,4048.21,4003.08,4090.77,4089.74,4095.38,4157.44,4079.49,4155.9,4048.72,4107.18,4080,0
11_58_8,63,4069.23,4031.28,4049.74,4028.72,4001.54,4088.21,4084.1,4089.74,4151.79,4076.41,4154.36,4043.59,4112.82,4077.95,0
11_58_8,64,4065.64,4023.59,4048.72,4015.38,4005.13,4093.85,4087.18,4086.67,4148.72,4067.69,4150.26,4040,4109.23,4073.85,0
11_58_8,65,4074.87,4042.05,4050.77,4032.82,4004.1,4098.46,4097.44,4090.77,4151.79,4061.54,4150.26,4050.26,4112.31,4076.41,0
11_58_8,66,4083.59,4048.21,4051.79,4044.62,4001.54,4100.51,4100.51,4092.31,4146.67,4060.51,4156.92,4058.97,4117.44,4082.05,0
11_58_8,67,4078.46,4035.9,4052.82,4035.9,4007.18,4100,4096.92,4084.1,4135.9,4063.08,4152.82,4049.23,4111.79,4078.97,0
11_58_8,68,4067.69,4031.79,4051.79,4027.69,4011.79,4093.33,4089.23,4070.26,4133.85,4059.49,4137.95,4038.46,4100,4072.31,0
11_58_8,69,4065.64,4034.36,4047.69,4026.15,4010.77,4085.64,4080,4061.54,4139.49,4058.97,4137.95,4045.13,4093.33,4073.33,0
11_58_8,70,4071.28,4036.92,4048.72,4033.33,4013.33,4089.23,4083.59,4072.82,4138.97,4062.05,4150.77,4055.9,4090.26,4076.41,0
11_58_8,71,4075.9,4045.13,4056.41,4043.08,4023.08,4098.97,4094.87,4090.77,4133.33,4065.13,4161.54,4056.41,4089.74,4080.51,0
11_58_8,72,4082.05,4058.46,4062.56,4046.15,4031.79,4106.15,4098.97,4101.54,4140.51,4073.33,4167.69,4061.03,4098.97,4087.18,0
11_58_8,73,4091.28,4063.08,4062.05,4051.79,4031.79,4108.72,4098.46,4109.74,4157.44,4086.67,4171.79,4073.85,4109.23,4097.95,0
11_58_8,74,4094.87,4058.46,4062.05,4058.97,4022.05,4102.56,4097.95,4110.77,4153.85,4088.21,4178.46,4080,4104.1,4105.64,0
11_58_8,75,4098.97,4060,4068.21,4056.41,4017.95,4092.82,4094.87,4102.05,4137.95,4083.08,4185.64,4081.03,4096.41,4107.18,0
11_58_8,76,4105.13,4066.15,4069.74,4053.85,4016.41,4088.72,4091.79,4093.33,4141.54,4083.59,4186.67,4088.72,4095.9,4109.74,0
11_58_8,77,4095.9,4058.46,4062.56,4054.87,4007.69,4089.74,4090.26,4087.69,4139.49,4075.9,4169.74,4082.56,4083.59,4101.03,0
11_58_8,78,4071.79,4042.05,4053.85,4042.05,4009.23,4090.26,4086.15,4076.41,4109.74,4052.31,4141.54,4053.85,4055.9,4073.85,0
11_58_8,79,4064.62,4041.03,4049.74,4033.33,4020.51,4092.82,4086.67,4067.69,4099.49,4036.92,4126.67,4041.54,4047.18,4059.49,0
11_58_8,80,4081.03,4053.85,4056.92,4049.74,4027.69,4099.49,4091.79,4078.97,4130.77,4061.54,4141.03,4057.95,4065.64,4079.49,0
11_58_8,81,4092.31,4062.05,4065.64,4060,4028.72,4106.67,4095.38,4093.33,4144.1,4090.26,4166.67,4074.36,4085.64,4096.41,0
11_58_8,82,4093.33,4061.54,4062.56,4051.28,4023.59,4106.15,4092.82,4087.69,4124.1,4083.59,4174.87,4077.95,4092.82,4093.33,0
11_58_8,83,4093.33,4058.46,4060,4046.15,4012.31,4091.28,4085.13,4081.54,4117.95,4070.77,4165.64,4075.9,4086.15,4093.33,0
11_58_8,84,4097.95,4063.08,4065.64,4054.36,4009.74,4077.44,4077.95,4094.87,4129.23,4078.46,4164.1,4080,4082.05,4103.08,0
11_58_8,85,4104.1,4073.85,4068.72,4063.59,4018.46,4082.05,4081.03,4112.82,4135.9,4091.79,4171.28,4087.69,4089.74,4109.23,0
11_58_8,86,4102.05,4072.31,4065.13,4064.1,4017.95,4092.31,4086.15,4117.95,4144.62,4095.38,4173.85,4086.67,4089.23,4109.74,0
11_58_8,87,4089.74,4054.36,4060.51,4054.87,4004.62,4091.28,4085.64,4108.21,4140.51,4087.69,4166.15,4077.44,4071.28,4101.03,0
11_58_8,88,4077.44,4041.54,4054.87,4043.59,4004.1,4087.18,4085.13,4087.69,4113.85,4071.79,4150.26,4065.64,4054.36,4084.62,0
11_58_8,89,4073.85,4045.64,4055.38,4048.21,4010.77,4095.9,4092.82,4072.82,4105.13,4068.72,4143.08,4061.54,4051.79,4080,0
11_58_8,90,4077.44,4053.85,4060.51,4058.97,3990.77,4106.67,4097.44,4073.85,4124.1,4081.54,4150.26,4070.26,4062.56,4091.28,0
11_58_8,91,4083.59,4052.31,4061.54,4056.92,3955.9,4101.03,4093.85,4072.31,4128.21,4086.15,4159.49,4076.41,4070.77,4095.38,0
11_58_8,92,4088.72,4048.21,4059.49,4052.82,3942.05,4091.28,4091.28,4072.82,4122.56,4085.64,4162.05,4074.36,4068.21,4092.31,0
11_58_8,93,4089.74,4054.87,4059.49,4057.95,3941.54,4094.36,4090.26,4092.82,4135.9,4090.26,4163.59,4074.87,4069.23,4092.82,0
11_58_8,94,4089.23,4063.08,4060,4063.59,3932.31,4097.44,4085.64,4114.36,4147.69,4093.85,4163.08,4073.85,4077.95,4093.33,0
11_58_8,95,4088.72,4063.08,4059.49,4064.1,3920.51,4092.31,4080.51,4111.79,4141.54,4093.85,4150.77,4066.15,4078.97,4089.74,0
11_58_8,96,4091.79,4062.56,4058.46,4062.05,3914.87,4090.77,4083.08,4095.9,4131.79,4092.31,4140,4069.23,4072.82,4090.77,0
11_58_8,97,4093.85,4061.54,4058.97,4059.49,3905.13,4086.67,4086.67,4086.15,4129.23,4090.26,4138.97,4075.9,4067.18,4089.74,0
11_58_8,98,4085.13,4054.36,4059.49,4060.51,3891.79,4079.49,4084.62,4078.46,4127.69,4083.08,4133.85,4068.72,4055.9,4080.51,0
11_58_8,99,4080.51,4049.74,4058.97,4062.56,3894.87,4084.1,4085.64,4074.36,4121.03,4078.97,4124.62,4063.59,4044.1,4078.97,0
11_58_8,100,4087.69,4052.31,4057.44,4062.05,3907.69,4093.33,4089.74,4080.51,4120.51,4083.08,4121.54,4065.64,4040.51,4085.13,0
11_58_8,101,4088.21,4055.38,4053.33,4058.46,3908.72,4090.77,4090.26,4088.21,4128.72,4088.21,4114.87,4062.05,4042.05,4082.56,0
11_58_8,102,4083.59,4051.79,4053.85,4058.46,3905.64,4094.36,4092.31,4094.36,4134.36,4084.1,4110.26,4058.97,4046.67,4080,0
11_58_8,103,4089.74,4052.82,4060,4068.72,3909.74,4108.21,4097.95,4105.13,4145.13,4090.26,4121.54,4069.23,4055.9,4088.21,0
11_58_8,104,4094.36,4064.62,4061.03,4072.31,3911.28,4107.69,4098.97,4112.31,4157.95,4104.62,4124.1,4077.44,4061.54,4093.85,0
11_58_8,105,4091.79,4065.13,4056.41,4062.56,3902.56,4098.46,4093.33,4104.1,4150.26,4095.38,4106.15,4072.82,4057.95,4088.72,0
11_58_8,106,4088.21,4053.85,4055.9,4061.03,3893.85,4095.38,4091.28,4091.79,4134.36,4082.05,4093.85,4065.64,4054.36,4081.54,0
11_58_8,107,4084.62,4052.82,4057.95,4067.18,3893.85,4096.41,4092.31,4087.69,4135.38,4091.28,4091.79,4066.15,4059.49,4077.95,0
11_58_8,108,4082.56,4057.44,4056.92,4063.59,3888.21,4093.85,4089.74,4085.13,4137.95,4099.49,4089.74,4069.74,4067.18,4081.03,0
11_58_8,109,4089.23,4063.59,4061.03,4066.15,3856.92,4090.77,4082.56,4080.51,4135.9,4090.26,4090.77,4073.85,4074.87,4089.23,0
11_58_8,110,4102.56,4074.87,4068.21,4086.15,3819.49,4088.72,4084.62,4075.38,4135.38,4086.67,4095.9,4080.51,4081.03,4096.41,0
11_58_8,111,4107.69,4074.36,4069.74,4089.23,3802.56,4088.72,4091.79,4073.33,4128.21,4093.33,4096.41,4080.51,4080.51,4096.92,0
11_58_8,112,4096.41,4064.1,4067.69,4071.28,3800,4089.23,4091.28,4077.44,4120.51,4090.77,4091.79,4076.41,4073.85,4091.28,0
11_58_8,113,4086.67,4062.56,4064.62,4061.03,3801.03,4090.26,4094.87,4094.36,4134.36,4090.26,4093.85,4078.97,4074.87,4089.74,0
11_58_8,114,4091.28,4067.69,4062.05,4069.23,3797.95,4098.97,4106.15,4120.51,4157.95,4098.46,4100.51,4080.51,4076.92,4092.31,0
11_58_8,115,4092.31,4070.26,4061.03,4078.46,3796.41,4108.21,4105.64,4122.56,4150.77,4099.49,4097.44,4072.82,4069.23,4090.26,0
11_58_8,116,4083.08,4064.1,4058.97,4075.38,3801.03,4111.28,4101.03,4096.41,4121.54,4088.72,4087.18,4066.15,4065.64,4085.13,0
11_58_8,117,4080.51,4060,4060,4071.28,3799.49,4109.74,4103.59,4086.67,4121.54,4086.15,4089.74,4068.72,4069.74,4085.13,0
11_58_8,118,4090.77,4075.9,4066.15,4084.1,3791.79,4107.69,4101.03,4094.36,4141.03,4096.92,4106.15,4076.41,4081.03,4096.41,0
11_58_8,119,4102.56,4086.67,4071.28,4094.36,3784.1,4107.69,4097.95,4091.28,4139.49,4108.72,4120.51,4089.23,4095.38,4111.28,0
11_58_8,120,4099.49,4077.44,4071.79,4086.15,3772.31,4107.18,4104.1,4095.9,4131.79,4110.77,4119.49,4093.85,4088.72,4109.74,0
11_58_8,121,4093.85,4078.97,4070.77,4084.1,3764.1,4102.05,4103.59,4104.1,4134.36,4107.18,4110.26,4082.56,4073.33,4099.49,0
11_58_8,122,4097.95,4085.13,4069.23,4089.23,3770.77,4093.85,4095.9,4094.87,4128.72,4106.67,4107.69,4074.87,4077.44,4098.97,0
11_58_8,123,4091.28,4070.26,4067.18,4080.51,3771.79,4087.18,4093.33,4085.13,4120.51,4096.41,4108.21,4076.41,4071.28,4094.87,0
11_58_8,124,4077.95,4061.54,4065.13,4074.36,3765.64,4083.59,4093.33,4086.67,4117.95,4082.05,4105.64,4075.38,4051.79,4085.13,0
11_58_8,125,4082.05,4068.72,4066.15,4078.97,3772.31,4088.21,4092.31,4083.59,4116.92,4084.62,4104.62,4073.33,4056.92,4087.18,0
11_58_8,126,4091.28,4068.72,4066.67,4078.46,3775.38,4094.87,4092.31,4082.05,4128.21,4091.79,4106.67,4076.41,4066.67,4093.33,0
11_58_8,127,4083.59,4062.56,4064.62,4074.36,3773.33,4093.33,4092.82,4091.79,4132.82,4087.69,4104.1,4076.41,4060,4090.77,0
11_58_8,128,4076.92,4067.18,4063.59,4074.36,3786.67,4097.44,4096.41,4101.54,4125.13,4091.28,4108.21,4074.87,4058.97,4086.67,0
11_58_8,0,4074.36,4067.69,4062.56,4075.9,3800,4105.13,4099.49,4098.97,4124.1,4091.79,4106.15,4066.67,4056.41,4079.49,0
11_58_8,1,4069.23,4062.05,4058.97,4076.41,3801.03,4101.03,4093.85,4083.59,4116.92,4074.36,4090.26,4053.85,4044.62,4070.77,0
11_58_8,2,4072.82,4069.23,4061.03,4075.9,3807.18,4095.9,4091.28,4083.59,4112.31,4076.92,4090.77,4061.54,4049.74,4078.97,0
11_58_8,3,4080.51,4076.92,4067.18,4079.49,3816.92,4095.9,4095.9,4096.41,4120,4095.9,4106.15,4077.44,4055.9,4088.72,0
11_58_8,4,4084.62,4079.49,4070.26,4087.69,3818.97,4087.69,4094.36,4083.08,4110.26,4089.23,4113.33,4077.95,4055.38,4088.72,0
11_58_8,5,4088.72,4083.08,4071.28,4092.31,3820.51,4073.85,4081.03,4060,4086.67,4077.44,4121.03,4077.44,4070.26,4092.82,0
11_58_8,6,4089.23,4079.49,4070.26,4087.18,3826.67,4074.36,4075.9,4061.03,4091.28,4087.18,4126.67,4079.49,4079.49,4096.41,0
11_58_8,7,4082.56,4076.41,4067.18,4081.03,3832.82,4087.69,4089.23,4080,4108.72,4094.36,4121.54,4074.36,4067.69,4088.21,0
11_58_8,8,4076.92,4073.85,4067.18,4078.97,3834.36,4093.33,4097.95,4098.97,4112.82,4086.15,4119.49,4074.36,4065.13,4082.05,0
11_58_8,9,4072.82,4064.62,4065.13,4075.38,3834.87,4084.62,4088.72,4102.05,4110.26,4074.87,4113.33,4073.33,4068.72,4077.95,0
11_58_8,10,4071.79,4063.08,4060.51,4073.33,3843.59,4080.51,4084.1,4091.79,4102.05,4070.77,4107.18,4063.08,4060,4072.31,0
11_58_8,11,4074.87,4072.82,4062.05,4080.51,3857.95,4089.74,4092.31,4089.74,4102.05,4073.85,4117.95,4064.1,4056.92,4078.46,0
11_58_8,12,4077.44,4074.87,4067.18,4089.74,3869.74,4094.87,4095.38,4096.92,4115.38,4083.08,4121.54,4075.38,4065.13,4090.77,0
11_58_8,13,4082.56,4071.28,4068.72,4092.31,3875.9,4092.31,4093.33,4093.85,4110.26,4092.82,4112.31,4075.9,4066.67,4089.74,0
11_58_8,14,4089.74,4078.46,4071.28,4089.23,3873.85,4091.28,4091.79,4086.67,4091.28,4093.33,4115.9,4074.87,4060.51,4087.69,0
11_58_8,15,4095.38,4090.26,4075.38,4096.92,3876.92,4088.21,4089.23,4081.54,4087.69,4086.15,4125.13,4084.1,4061.03,4099.49,0
11_58_8,16,4095.38,4094.36,4072.82,4105.13,3889.74,4081.03,4088.21,4072.31,4091.28,4088.21,4123.08,4086.15,4064.62,4104.1,0
11_58_9,17,4094.87,4091.28,4071.79,4104.1,3894.87,4080.51,4088.72,4073.85,4091.79,4096.92,4121.54,4084.1,4065.13,4098.46,0
11_58_9,18,4095.9,4092.31,4075.38,4102.56,3898.97,4086.15,4090.77,4094.87,4095.38,4098.97,4125.64,4091.28,4071.28,4101.03,0
11_58_9,19,4092.31,4092.31,4073.85,4099.49,3908.21,4086.67,4091.79,4107.18,4096.41,4096.41,4126.67,4089.74,4089.74,4102.05,0
11_58_9,20,4082.56,4076.92,4066.67,4090.77,3900,4077.44,4088.72,4097.44,4091.79,4093.85,4124.62,4075.9,4106.15,4093.33,0
11_58_9,21,4074.87,4067.18,4065.13,4085.13,3892.31,4077.95,4089.23,4089.23,4091.28,4088.72,4120.51,4070.77,4106.67,4087.69,0
11_58_9,22,4082.05,4081.03,4067.69,4092.31,3911.79,4092.82,4096.41,4093.33,4088.21,4090.26,4120.51,4075.9,4108.72,4089.74,0
11_58_9,23,4098.46,4093.85,4070.26,4102.05,3925.64,4096.41,4094.87,4091.79,4080,4097.44,4128.21,4077.44,4127.69,4097.95,0
11_58_9,24,4105.13,4090.26,4072.31,4105.64,3918.46,4088.72,4090.77,4086.15,4077.44,4100.51,4135.9,4083.08,4142.05,4106.15,0
11_58_9,25,4106.67,4094.36,4073.85,4108.72,3922.56,4092.31,4097.44,4084.62,4080.51,4100,4139.49,4092.31,4140.51,4109.23,0
11_58_9,26,4109.74,4100.51,4070.77,4108.21,3931.28,4091.28,4095.9,4077.44,4073.33,4098.46,4139.49,4092.31,4142.56,4107.18,0
11_58_9,27,4103.59,4087.18,4066.67,4098.46,3924.62,4075.9,4080.51,4067.18,4062.56,4084.62,4138.46,4084.62,4143.08,4100,0
11_58_9,28,4098.46,4081.54,4067.69,4097.44,3926.67,4076.92,4078.46,4068.21,4065.64,4077.95,4138.46,4085.64,4134.36,4096.92,0
11_58_9,29,4107.18,4093.33,4071.28,4108.21,3943.59,4092.31,4090.26,4082.05,4078.46,4098.97,4144.62,4094.36,4138.97,4108.21,0
11_58_9,30,4109.74,4091.79,4070.26,4108.21,3954.36,4094.36,4091.28,4090.77,4077.44,4106.67,4144.1,4092.82,4138.46,4109.74,0
11_58_9,31,4104.62,4090.77,4068.21,4102.56,3956.41,4089.23,4088.21,4090.26,4069.23,4087.18,4134.36,4086.15,4122.05,4099.49,0
11_58_9,32,4107.69,4102.56,4073.85,4107.18,3955.9,4094.36,4098.46,4089.23,4072.31,4082.56,4140.51,4089.23,4122.56,4101.54,0
11_58_9,33,4109.23,4098.46,4076.41,4109.74,3959.49,4099.49,4107.69,4095.9,4076.92,4097.44,4153.85,4093.33,4138.97,4109.74,0
11_58_9,34,4106.67,4086.67,4073.85,4105.64,3968.21,4095.9,4104.62,4105.13,4079.49,4103.59,4157.95,4094.87,4142.05,4112.31,0
11_58_9,35,4112.31,4090.26,4072.82,4107.18,3975.38,4092.82,4103.59,4097.44,4080.51,4102.56,4158.46,4101.03,4136.92,4116.41,0
11_58_9,36,4116.41,4103.08,4075.38,4117.95,3981.54,4093.33,4103.59,4078.46,4068.72,4103.59,4156.92,4104.62,4141.03,4120,0
11_58_9,37,4112.82,4106.15,4072.31,4121.54,3986.67,4095.38,4098.97,4078.97,4058.46,4106.67,4154.36,4102.05,4150.26,4122.56,0
11_58_9,38,4113.33,4098.46,4071.79,4115.38,3983.08,4096.41,4101.03,4093.85,4067.69,4112.31,4162.56,4105.13,4154.36,4123.08,0
11_58_9,39,4121.03,4098.46,4079.49,4117.44,3985.64,4097.44,4102.56,4091.28,4075.38,4115.9,4175.9,4110.26,4154.87,4126.67,0
11_58_9,40,4125.13,4109.23,4084.62,4125.13,4004.1,4099.49,4097.95,4088.72,4069.23,4120,4184.62,4116.41,4159.49,4133.85,0
11_58_9,41,4123.08,4114.36,4081.03,4121.54,4011.28,4098.46,4097.44,4105.13,4072.31,4126.15,4188.72,4120,4165.64,4138.46,0
11_58_9,42,4122.56,4105.64,4077.44,4117.95,4004.1,4091.28,4096.41,4114.36,4082.05,4124.1,4180.51,4114.36,4158.97,4133.85,0
11_58_9,43,4122.56,4107.69,4077.44,4122.05,4005.13,4089.23,4096.41,4112.31,4080,4118.97,4168.72,4107.69,4150.77,4127.69,0
11_58_9,44,4117.95,4114.87,4076.92,4124.1,4006.67,4100,4104.62,4115.9,4072.31,4123.59,4173.85,4106.67,4158.97,4127.18,0
11_58_9,45,4109.74,4106.15,4073.33,4117.95,4005.64,4103.08,4103.59,4108.21,4069.23,4128.72,4170.77,4100.51,4161.03,4124.1,0
11_58_9,46,4105.13,4099.49,4070.77,4112.82,4015.9,4094.87,4091.79,4093.33,4059.49,4118.46,4155.38,4088.72,4143.59,4117.44,0
11_58_9,47,4109.23,4106.67,4072.82,4118.46,4021.54,4088.21,4090.77,4086.67,4049.74,4112.31,4159.49,4088.72,4134.36,4117.95,0
11_58_9,48,4113.33,4109.23,4077.95,4120.51,4015.9,4087.18,4094.36,4077.44,4055.38,4124.1,4173.33,4094.87,4138.46,4120,0
11_58_9,49,4112.31,4107.69,4080.51,4117.95,4024.62,4091.28,4094.87,4070.77,4060.51,4126.15,4170.26,4093.85,4133.33,4120,0
11_58_9,50,4105.64,4111.79,4077.44,4116.92,4030.26,4089.74,4095.38,4079.49,4052.82,4115.9,4161.54,4090.26,4126.67,4116.92,0
11_58_9,51,4098.97,4108.72,4069.74,4114.87,4017.95,4081.54,4092.82,4086.67,4048.72,4114.36,4162.05,4088.72,4123.08,4108.21,0
11_58_9,52,4102.05,4102.56,4070.77,4114.36,4022.56,4080,4090.77,4092.82,4061.03,4127.69,4169.23,4090.26,4121.03,4106.67,0
11_58_9,53,4109.74,4107.69,4078.97,4123.08,4039.49,4080,4088.21,4107.69,4073.33,4138.46,4177.95,4093.33,4132.31,4123.08,0
11_58_9,54,4108.21,4109.74,4075.9,4124.62,4038.46,4073.85,4085.64,4118.46,4071.28,4133.85,4175.9,4090.26,4138.46,4124.62,0
11_58_9,55,4100,4105.13,4069.23,4116.41,4037.95,4073.85,4087.69,4113.85,4062.05,4125.64,4162.05,4078.97,4124.62,4106.67,0
11_58_9,56,4094.87,4102.05,4069.23,4117.95,4043.59,4080,4092.82,4097.44,4056.41,4120.51,4156.41,4073.85,4115.9,4102.05,0
11_58_9,57,4093.85,4100.51,4068.72,4117.95,4040.51,4078.97,4092.31,4080.51,4049.74,4111.79,4155.9,4074.87,4119.49,4105.64,0
11_58_9,58,4091.28,4096.92,4066.67,4110.26,4040.51,4080,4089.74,4074.87,4043.08,4106.67,4154.87,4071.79,4118.46,4104.1,0
11_58_9,59,4089.23,4095.9,4071.28,4113.33,4050.26,4084.1,4088.72,4071.28,4046.67,4120,4161.03,4073.85,4118.97,4104.62,0
11_58_9,60,4098.46,4110.77,4075.9,4129.23,4061.03,4082.56,4089.23,4072.31,4048.72,4134.36,4171.79,4084.62,4133.33,4111.28,0
11_58_9,61,4110.26,4124.1,4074.36,4129.74,4064.62,4081.03,4088.72,4079.49,4041.03,4130.26,4173.33,4086.67,4143.08,4114.36,0
11_58_9,62,4105.64,4117.44,4070.77,4113.33,4056.92,4083.08,4084.62,4070.77,4031.79,4120.51,4167.69,4078.46,4137.44,4109.23,0
11_58_9,63,4096.92,4109.23,4068.72,4112.82,4050.26,4078.97,4081.54,4057.95,4029.74,4122.05,4167.69,4075.38,4128.72,4107.69,0
11_58_9,64,4093.33,4110.26,4068.21,4123.08,4058.46,4077.44,4081.03,4073.33,4043.59,4130.26,4168.72,4073.33,4123.59,4107.18,0
11_58_9,65,4090.77,4113.33,4068.21,4125.13,4069.74,4085.64,4084.62,4103.08,4064.1,4134.87,4170.77,4069.74,4125.13,4096.92,0
11_58_9,66,4089.23,4118.46,4071.28,4120,4076.41,4092.31,4091.79,4118.46,4071.28,4146.15,4173.33,4071.28,4135.38,4091.79,0
11_58_9,67,4089.74,4117.95,4074.87,4121.03,4077.95,4094.87,4095.9,4118.46,4065.13,4154.87,4171.79,4071.28,4140,4098.46,0
11_58_9,68,4082.56,4107.69,4070.26,4124.1,4067.18,4092.31,4091.79,4102.56,4050.77,4142.56,4168.21,4061.54,4128.21,4093.85,0
11_58_9,69,4073.85,4103.59,4065.13,4120,4058.97,4082.05,4086.67,4082.05,4029.74,4122.05,4158.97,4055.38,4117.44,4082.56,0
11_58_9,70,4078.97,4107.18,4068.72,4113.33,4070.77,4077.95,4090.26,4074.87,4025.13,4121.03,4155.38,4056.41,4116.41,4085.13,0
11_58_9,71,4088.21,4108.21,4072.82,4111.79,4080.51,4084.62,4090.77,4073.85,4033.85,4136.41,4166.67,4058.97,4123.08,4092.82,0
11_58_9,72,4084.1,4108.21,4072.82,4113.85,4075.9,4082.05,4081.54,4063.08,4027.69,4134.87,4173.85,4058.97,4124.1,4093.33,0
11_58_9,73,4074.36,4106.15,4072.82,4111.28,4074.87,4075.38,4080.51,4055.9,4022.05,4122.56,4168.21,4055.38,4115.9,4089.74,0
11_58_9,74,4077.95,4104.1,4073.33,4111.28,4077.95,4084.1,4093.85,4068.21,4030.26,4124.1,4164.62,4054.36,4110.77,4088.72,0
11_58_9,75,4088.21,4108.21,4075.38,4115.9,4078.46,4091.79,4097.44,4080.51,4037.44,4140,4169.74,4060,4120,4096.41,0
11_58_9,76,4091.79,4116.41,4080,4126.67,4085.13,4086.15,4088.72,4085.13,4047.18,4157.44,4179.49,4070.26,4133.33,4106.67,0
11_58_9,77,4097.44,4122.05,4081.03,4135.9,4092.82,4086.15,4087.69,4095.9,4056.92,4164.1,4193.33,4076.92,4137.44,4112.31,0
11_58_9,78,4105.64,4123.08,4081.54,4131.28,4094.87,4095.9,4093.33,4110.77,4054.36,4160.51,4193.85,4078.46,4137.95,4113.85,0
11_58_9,79,4104.62,4121.03,4084.62,4126.15,4104.1,4098.46,4096.92,4112.31,4047.69,4156.92,4185.13,4078.97,4135.38,4113.85,0
11_58_9,80,4095.38,4112.31,4083.59,4126.67,4108.72,4097.95,4101.03,4102.05,4046.67,4159.49,4187.18,4077.44,4129.23,4111.79,0
11_58_9,81,4082.05,4098.97,4073.85,4117.95,4095.9,4101.54,4105.64,4092.31,4038.46,4154.87,4181.03,4064.1,4115.9,4098.46,0
11_58_9,82,4073.33,4095.38,4069.23,4109.23,4086.15,4098.97,4107.18,4082.05,4021.03,4145.13,4167.18,4050.26,4104.1,4083.08,0
11_58_9,83,4072.82,4103.08,4074.36,4114.87,4097.95,4093.85,4104.62,4073.33,4012.82,4145.64,4167.18,4051.28,4110.77,4082.56,0
11_58_9,84,4080.51,4106.67,4077.44,4123.59,4106.67,4094.87,4100,4074.36,4017.44,4150.26,4172.82,4057.95,4120.51,4090.26,0
11_58_9,85,4087.69,4107.18,4080.51,4127.18,4106.15,4095.38,4095.9,4088.21,4031.28,4158.46,4176.92,4063.08,4121.54,4094.87,0
11_58_9,86,4093.33,4110.77,4085.13,4127.69,4105.64,4091.79,4091.79,4092.31,4036.92,4167.18,4184.1,4066.67,4123.08,4101.54,0
11_58_9,87,4092.82,4108.72,4083.08,4122.56,4098.97,4088.72,4089.74,4085.13,4028.72,4167.69,4188.21,4068.21,4125.13,4106.15,0
11_58_9,88,4084.62,4101.54,4075.38,4117.95,4091.79,4083.08,4086.67,4087.18,4028.21,4165.13,4187.18,4067.69,4121.54,4103.08,0
11_58_9,89,4077.44,4103.59,4077.44,4118.97,4102.56,4080,4084.1,4095.38,4040,4167.69,4188.72,4063.59,4121.03,4098.46,0
11_58_9,90,4078.46,4108.21,4081.03,4122.56,4113.85,4085.64,4087.18,4103.08,4044.62,4177.44,4184.62,4058.46,4126.15,4092.82,0
11_58_9,91,4084.62,4104.62,4079.49,4122.56,4107.18,4093.85,4095.38,4109.74,4043.08,4185.13,4177.44,4056.41,4123.08,4092.31,0
11_58_9,92,4089.74,4109.23,4082.05,4123.08,4110.26,4102.56,4099.49,4104.62,4043.59,4186.15,4179.49,4060,4122.56,4102.56,0
11_58_9,93,4097.95,4125.64,4089.23,4133.33,4122.56,4107.18,4100.51,4091.79,4035.9,4178.97,4185.13,4066.15,4133.33,4110.77,0
11_58_9,94,4098.46,4123.08,4087.18,4137.44,4117.95,4101.03,4097.95,4089.23,4023.08,4165.64,4183.59,4065.64,4127.69,4108.72,0
11_58_9,95,4084.1,4104.1,4079.49,4123.59,4114.36,4096.41,4097.95,4092.82,4018.46,4158.97,4170.77,4054.36,4105.13,4097.44,0
11_58_9,96,4081.03,4105.64,4078.97,4119.49,4123.59,4095.9,4100.51,4092.82,4019.49,4165.64,4161.54,4046.67,4105.64,4090.26,0
11_58_9,97,4089.74,4119.49,4081.54,4130.26,4125.13,4090.26,4094.36,4087.69,4019.49,4167.18,4164.62,4050.77,4120.51,4095.9,0
11_58_9,98,4092.82,4121.03,4083.59,4137.95,4117.95,4088.21,4088.72,4083.08,4018.46,4167.69,4178.97,4057.44,4122.05,4105.64,0
11_58_9,99,4097.44,4121.03,4086.67,4141.54,4118.97,4093.33,4092.31,4088.72,4021.54,4188.21,4190.77,4062.56,4131.28,4114.36,0
11_58_9,100,4101.54,4124.62,4086.15,4137.95,4126.15,4091.79,4090.77,4093.33,4026.15,4200.51,4187.18,4060,4143.08,4116.92,0
11_58_9,101,4097.44,4124.1,4084.1,4131.28,4133.33,4091.79,4089.74,4095.9,4030.77,4190.26,4185.64,4061.03,4137.95,4114.87,0
11_58_9,102,4103.59,4127.18,4087.18,4140.51,4139.49,4101.54,4096.92,4113.85,4043.59,4195.38,4201.54,4074.36,4142.05,4121.03,0
11_58_9,103,4110.26,4126.15,4086.67,4144.1,4140.51,4100,4096.41,4127.18,4045.13,4213.85,4205.64,4073.85,4155.9,4125.13,0
11_58_9,104,4094.87,4114.87,4081.03,4134.36,4136.92,4089.74,4089.23,4107.18,4026.67,4205.64,4185.64,4053.33,4142.56,4109.23,0
11_58_9,105,4085.13,4112.82,4083.08,4137.44,4126.15,4090.26,4090.77,4082.05,4016.41,4185.13,4169.74,4044.62,4123.08,4094.36,0
11_58_9,106,4091.28,4114.87,4085.64,4140,4119.49,4092.31,4092.31,4073.85,4014.87,4180,4169.23,4046.67,4123.59,4098.97,0
11_58_9,107,4088.21,4104.62,4082.56,4124.1,4127.69,4090.77,4094.87,4071.28,4007.18,4184.1,4175.38,4045.64,4125.64,4104.1,0
11_58_9,108,4088.72,4106.15,4086.15,4122.56,4136.92,4094.87,4105.13,4084.1,4014.87,4192.31,4182.56,4051.79,4128.72,4108.21,0
11_58_9,109,4103.08,4124.62,4094.36,4145.13,4138.46,4100.51,4108.72,4112.82,4039.49,4200,4191.28,4066.67,4144.1,4120,0
11_58_9,110,4113.85,4132.82,4095.9,4152.82,4137.44,4098.46,4098.97,4124.1,4046.15,4208.21,4202.05,4072.31,4166.67,4132.31,0
11_58_9,111,4108.72,4127.18,4091.28,4143.08,4128.72,4093.85,4093.33,4106.15,4033.85,4210.26,4203.08,4064.62,4184.62,4127.69,0
11_58_9,112,4093.85,4115.9,4084.62,4133.33,4116.92,4090.77,4091.28,4076.41,4015.38,4196.92,4182.56,4049.23,4187.18,4107.69,0
11_58_9,113,4086.15,4114.36,4082.05,4130.26,4128.21,4089.23,4083.59,4067.69,4012.82,4182.05,4166.67,4042.05,4191.28,4098.97,0
11_58_9,114,4092.31,4119.49,4083.59,4135.38,4141.03,4090.77,4083.08,4087.69,4030.26,4182.56,4176.41,4046.67,4209.74,4107.69,0
11_58_9,115,4092.82,4112.82,4082.05,4136.92,4131.79,4090.26,4090.77,4100.51,4033.85,4186.67,4179.49,4046.67,4217.95,4103.59,0
11_58_9,116,4090.77,4109.74,4084.1,4134.87,4130.77,4094.87,4093.85,4096.92,4026.15,4183.59,4166.67,4044.1,4215.38,4092.31,0
11_58_9,117,4104.1,4123.08,4087.69,4143.08,4136.41,4098.97,4093.33,4098.97,4025.13,4182.05,4165.13,4049.23,4217.95,4098.97,0
11_58_9,118,4109.74,4126.15,4085.64,4146.67,4125.64,4092.82,4092.82,4088.21,4019.49,4172.31,4169.74,4048.72,4209.74,4101.54,0
11_58_9,119,4096.41,4117.44,4082.56,4136.41,4123.08,4092.31,4095.38,4067.69,4010.26,4158.97,4165.13,4040.51,4201.54,4090.77,0
11_58_9,120,4092.82,4119.49,4084.1,4134.87,4140,4105.64,4102.56,4079.49,4021.03,4169.23,4166.67,4043.08,4214.87,4092.82,0
11_58_9,121,4094.87,4116.41,4081.03,4138.97,4140.51,4109.23,4104.1,4100.51,4032.31,4188.21,4173.33,4046.15,4223.08,4096.41,0
11_58_9,122,4086.15,4104.62,4076.92,4134.36,4133.85,4098.97,4094.36,4098.97,4024.1,4187.18,4170.26,4041.54,4211.28,4089.74,0
11_58_9,123,4094.36,4114.36,4087.18,4143.08,4148.21,4100,4096.92,4100.51,4030.26,4182.56,4175.9,4053.85,4215.38,4100,0
11_58_9,124,4119.49,4131.28,4096.92,4157.95,4153.85,4107.18,4108.72,4114.87,4047.18,4191.79,4193.85,4076.92,4230.77,4120.51,0
11_58_9,124,4119.49,4131.28,4096.92,4157.95,4153.85,4107.18,4108.72,4114.87,4047.18,4191.79,4193.85,4076.92,4230.77,4120.51,0
11_58_9,125,4118.46,4122.56,4090.77,4149.23,4140.51,4101.54,4104.1,4110.26,4036.41,4188.21,4191.28,4073.33,4222.56,4117.95,0
11_58_9,126,4094.87,4104.62,4081.03,4134.36,4133.85,4094.87,4091.79,4090.77,4015.38,4172.31,4169.23,4049.74,4203.08,4101.03,0
11_58_9,127,4086.67,4102.56,4082.05,4135.9,4142.05,4103.08,4095.9,4086.15,4022.05,4170.77,4162.56,4041.03,4200,4089.74,0
11_58_9,128,4092.82,4108.72,4084.62,4140.51,4153.33,4111.79,4102.05,4092.82,4035.38,4174.87,4170.26,4048.72,4202.56,4090.77,0
11_58_9,0,4093.85,4106.67,4085.64,4138.46,4152.82,4103.08,4092.31,4090.77,4021.03,4172.82,4169.23,4053.33,4197.95,4097.44,0
11_58_9,1,4095.9,4108.21,4088.21,4134.87,4141.03,4096.92,4086.67,4085.13,4016.41,4179.49,4171.28,4057.95,4202.56,4103.59,0
11_58_9,2,4106.67,4118.97,4091.28,4140.51,4137.44,4099.49,4091.79,4088.72,4033.85,4191.28,4183.08,4064.1,4214.87,4113.33,0
11_58_9,3,4118.46,4124.62,4093.85,4148.21,4149.23,4095.9,4093.85,4091.79,4031.28,4188.21,4192.31,4069.23,4217.44,4120,0
11_58_9,4,4120.51,4123.08,4095.38,4143.08,4149.23,4090.77,4098.46,4092.82,4015.38,4178.97,4193.33,4072.31,4213.85,4117.95,0
11_58_9,5,4111.28,4116.92,4092.31,4140,4146.15,4093.33,4106.15,4096.92,4022.05,4180.51,4188.21,4069.23,4217.44,4116.92,0
11_58_9,6,4107.18,4115.9,4091.79,4148.21,4150.77,4099.49,4107.69,4107.69,4043.08,4192.82,4186.67,4067.69,4223.08,4122.05,0
11_58_9,7,4110.77,4121.03,4093.85,4149.74,4147.18,4104.62,4105.64,4114.36,4048.72,4193.85,4188.21,4069.74,4217.95,4117.95,0
11_58_9,8,4103.59,4115.9,4089.74,4138.97,4142.56,4108.21,4104.62,4102.05,4038.46,4181.54,4179.49,4064.62,4201.03,4105.13,0
11_58_9,9,4095.9,4111.79,4087.18,4140,4151.79,4107.18,4101.03,4091.28,4031.28,4185.64,4163.59,4053.85,4192.31,4102.05,0
11_58_9,10,4105.64,4122.56,4092.31,4149.74,4158.46,4106.67,4097.44,4102.56,4039.49,4204.1,4171.79,4058.97,4203.08,4108.72,0
11_58_10,11,4107.18,4125.64,4095.9,4147.69,4152.82,4103.08,4096.92,4107.18,4043.59,4205.13,4185.64,4069.23,4206.15,4112.82,0
11_58_10,12,4095.38,4115.9,4091.28,4137.44,4150.77,4097.44,4100.51,4095.38,4033.33,4195.38,4180,4063.08,4192.31,4107.18,0
11_58_10,13,4097.44,4120,4090.26,4135.38,4153.33,4097.44,4107.18,4090.26,4027.69,4197.44,4175.38,4059.49,4189.23,4105.13,0
11_58_10,14,4102.56,4125.64,4090.26,4140.51,4150.77,4094.87,4104.62,4089.23,4034.36,4200.51,4177.95,4063.08,4192.82,4104.62,0
11_58_10,15,4090.26,4115.9,4087.18,4140.51,4146.15,4092.31,4096.92,4084.1,4038.46,4199.49,4171.79,4060,4185.64,4098.46,0
11_58_10,16,4091.28,4117.44,4087.18,4143.08,4158.97,4100,4098.46,4089.74,4037.44,4200,4166.67,4057.95,4183.08,4100,0
11_58_10,17,4106.15,4128.21,4091.28,4153.33,4170.26,4105.13,4100,4103.59,4039.49,4202.05,4172.31,4062.05,4188.21,4107.69,0
11_58_10,18,4102.56,4127.18,4090.77,4157.95,4155.38,4097.44,4092.31,4105.64,4041.03,4203.08,4172.31,4055.9,4186.15,4105.13,0
11_58_10,19,4091.28,4123.59,4089.23,4148.21,4153.33,4100.51,4091.28,4097.95,4036.92,4203.59,4169.23,4046.67,4184.1,4101.03,0
11_58_10,20,4093.33,4124.62,4088.72,4138.46,4170.26,4107.18,4094.87,4090.77,4033.85,4201.03,4169.74,4045.64,4188.21,4107.18,0
11_58_10,21,4096.92,4122.05,4088.21,4140.51,4162.05,4100,4092.82,4091.28,4033.85,4194.36,4168.72,4044.1,4185.13,4107.18,0
11_58_10,22,4096.41,4117.95,4087.18,4143.08,4146.15,4098.97,4093.85,4094.87,4033.33,4196.41,4170.77,4043.08,4184.1,4104.62,0
11_58_10,23,4102.56,4123.08,4090.77,4143.08,4158.46,4107.18,4096.92,4088.21,4033.33,4205.64,4173.33,4045.13,4196.92,4114.36,0
11_58_10,24,4108.21,4123.08,4094.36,4140,4161.54,4105.13,4099.49,4081.03,4035.9,4200.51,4171.79,4044.1,4204.1,4121.03,0
11_58_10,25,4107.69,4116.92,4094.87,4142.56,4147.18,4096.92,4103.08,4085.64,4034.87,4190.77,4167.69,4037.95,4191.28,4112.82,0
11_58_10,26,4109.74,4128.21,4096.92,4154.36,4156.41,4093.85,4103.08,4088.21,4034.87,4196.41,4168.21,4034.87,4185.64,4108.72,0
11_58_10,27,4112.31,4142.56,4098.46,4153.85,4171.28,4092.82,4102.56,4089.74,4037.44,4203.08,4171.79,4038.97,4195.38,4115.38,0
11_58_10,28,4109.23,4131.28,4094.87,4140,4163.08,4092.31,4101.03,4093.33,4035.9,4194.36,4172.31,4041.54,4191.79,4113.85,0
11_58_10,29,4103.08,4117.44,4090.26,4138.46,4153.33,4092.82,4094.36,4087.69,4032.31,4190.77,4170.26,4037.44,4184.62,4108.21,0
11_58_10,30,4095.9,4120,4090.26,4143.59,4155.38,4089.23,4090.26,4083.59,4034.87,4196.92,4168.72,4033.85,4189.23,4108.72,0
11_58_10,31,4090.26,4122.05,4091.28,4138.97,4154.87,4088.72,4096.41,4092.31,4045.13,4203.08,4170.26,4033.33,4190.26,4107.69,0
11_58_10,32,4091.79,4121.03,4090.26,4136.92,4155.9,4098.46,4098.97,4095.9,4047.69,4200,4171.79,4031.28,4180.51,4106.67,0
11_58_10,33,4093.85,4121.03,4090.77,4140,4159.49,4098.97,4090.77,4091.28,4036.92,4188.72,4166.67,4031.28,4174.87,4105.13,0
11_58_10,34,4089.23,4112.82,4092.82,4136.92,4154.87,4089.23,4086.67,4092.82,4034.87,4189.23,4156.41,4027.18,4171.79,4096.41,0
11_58_10,35,4087.69,4110.26,4092.82,4138.46,4159.49,4095.38,4092.82,4094.36,4045.13,4195.38,4152.82,4018.97,4165.64,4093.85,0
11_58_10,36,4094.36,4121.03,4091.79,4141.03,4167.69,4105.64,4097.44,4094.87,4044.1,4193.33,4159.49,4023.59,4165.64,4102.05,0
11_58_10,37,4093.85,4124.62,4090.26,4138.46,4157.95,4098.97,4092.31,4093.33,4034.36,4185.64,4157.44,4029.74,4163.08,4101.03,0
11_58_10,38,4090.77,4118.46,4091.79,4140.51,4152.31,4093.85,4095.9,4088.72,4036.92,4183.59,4156.92,4025.13,4159.49,4095.9,0
11_58_10,39,4102.05,4121.03,4098.97,4145.13,4167.18,4104.1,4109.74,4092.82,4044.62,4193.85,4173.85,4029.74,4166.67,4104.62,0
11_58_10,40,4111.79,4127.18,4104.62,4144.62,4172.31,4108.72,4110.26,4093.85,4044.62,4197.44,4184.62,4040.51,4173.33,4113.33,0
11_58_10,41,4106.15,4125.13,4100,4140,4165.13,4102.05,4100.51,4089.74,4042.56,4192.82,4169.74,4032.82,4163.59,4108.72,0
11_58_10,42,4102.05,4122.05,4096.41,4142.05,4167.18,4101.54,4101.03,4097.44,4046.15,4195.9,4164.62,4018.46,4158.46,4104.62,0
11_58_10,43,4107.18,4126.15,4100,4153.33,4164.62,4106.15,4105.64,4111.79,4054.87,4206.15,4181.54,4018.97,4167.69,4110.77,0
11_58_10,44,4108.72,4128.72,4100.51,4154.36,4160,4104.1,4102.56,4112.31,4062.05,4203.59,4189.23,4021.54,4164.1,4110.77,0
11_58_10,45,4103.08,4124.1,4097.44,4142.05,4166.67,4100,4101.03,4106.67,4061.03,4197.44,4186.15,4018.46,4154.87,4107.18,0
11_58_10,46,4096.41,4122.05,4097.44,4137.95,4171.79,4107.18,4108.21,4106.67,4055.9,4201.03,4187.69,4013.33,4157.44,4107.69,0
11_58_10,47,4090.77,4118.97,4096.41,4140.51,4165.13,4111.28,4107.69,4100,4051.28,4195.9,4185.64,3999.49,4151.79,4103.59,0
11_58_10,48,4090.26,4112.31,4097.44,4136.41,4164.62,4106.67,4104.62,4093.85,4048.72,4185.64,4178.46,3991.28,4140.51,4096.92,0
11_58_10,49,4095.9,4115.9,4101.03,4136.41,4170.77,4111.79,4112.82,4100.51,4057.95,4194.36,4186.67,4000.51,4149.23,4104.62,0
11_58_10,50,4095.9,4122.56,4097.44,4138.46,4166.15,4116.41,4113.33,4108.21,4062.56,4208.21,4200.51,4002.56,4154.87,4110.77,0
11_58_10,51,4087.18,4117.44,4090.26,4138.46,4161.54,4108.21,4103.59,4104.62,4052.82,4201.03,4200,3988.72,4142.56,4103.08,0
11_58_10,52,4091.28,4117.95,4096.92,4146.67,4166.67,4104.1,4102.56,4103.59,4054.36,4194.87,4200,3988.21,4145.64,4108.72,0
11_58_10,53,4107.18,4131.28,4108.21,4157.44,4174.36,4109.74,4108.72,4113.33,4065.13,4206.15,4208.21,3999.49,4161.03,4125.13,0
11_58_10,54,4109.23,4133.33,4104.62,4154.36,4173.33,4110.77,4107.69,4120.51,4063.59,4207.18,4210.26,3991.28,4156.92,4125.64,0
11_58_10,55,4104.1,4125.64,4098.46,4145.64,4172.31,4110.77,4105.64,4124.1,4065.13,4199.49,4205.64,3975.9,4151.79,4122.05,0
11_58_10,56,4105.13,4125.64,4098.97,4143.08,4173.85,4116.41,4108.72,4122.56,4070.26,4204.1,4202.56,3972.31,4154.36,4121.54,0
11_58_10,57,4099.49,4125.13,4097.95,4140.51,4163.08,4115.38,4105.13,4108.21,4059.49,4202.56,4200.51,3962.56,4143.59,4112.31,0
11_58_10,58,4088.21,4115.9,4095.9,4135.9,4155.9,4107.69,4102.05,4094.87,4051.28,4188.72,4197.44,3948.21,4134.36,4105.64,0
11_58_10,59,4090.26,4113.33,4097.95,4136.41,4165.13,4105.13,4105.64,4089.74,4049.74,4181.54,4190.77,3950.77,4136.92,4107.18,0
11_58_10,60,4101.03,4120.51,4099.49,4141.03,4170.26,4106.15,4105.13,4082.56,4041.03,4183.08,4183.08,3958.46,4136.41,4106.15,0
11_58_10,61,4103.59,4120.51,4098.97,4140.51,4164.1,4106.15,4101.54,4080.51,4043.59,4186.67,4186.67,3957.44,4135.9,4108.21,0
11_58_10,62,4104.1,4120.51,4100.51,4138.97,4165.13,4108.21,4105.64,4094.36,4055.9,4189.74,4198.46,3961.03,4145.64,4118.46,0
11_58_10,63,4109.23,4129.74,4101.54,4147.69,4168.21,4110.77,4109.23,4103.59,4063.08,4196.41,4208.21,3972.31,4156.41,4124.62,0
11_58_10,64,4110.26,4132.82,4100.51,4151.28,4165.13,4109.23,4103.59,4111.28,4071.79,4207.69,4215.9,3975.9,4157.44,4123.59,0
11_58_10,65,4106.67,4124.1,4102.56,4146.15,4170.26,4108.72,4098.46,4124.62,4080.51,4217.95,4219.49,3975.9,4156.41,4125.13,0
11_58_10,66,4109.74,4125.13,4108.21,4145.13,4174.87,4108.72,4096.92,4124.1,4076.41,4220.51,4220.51,3981.54,4164.1,4132.82,0
11_58_10,67,4112.82,4131.28,4107.69,4152.82,4170.77,4106.67,4097.44,4112.31,4069.23,4214.36,4221.54,3988.72,4169.74,4133.85,0
11_58_10,68,4107.69,4128.21,4102.05,4157.44,4169.74,4108.21,4102.05,4112.82,4067.18,4206.15,4216.92,3988.21,4160.51,4126.67,0
11_58_10,69,4102.05,4123.08,4100.51,4148.21,4172.31,4116.41,4108.72,4114.87,4063.08,4198.97,4206.67,3979.49,4145.13,4120.51,0
11_58_10,70,4096.92,4121.54,4102.56,4137.44,4167.18,4121.03,4107.18,4102.05,4059.49,4191.79,4195.38,3971.28,4135.9,4115.9,0
11_58_10,71,4097.44,4124.1,4101.54,4138.97,4166.67,4120.51,4100.51,4096.92,4061.54,4185.64,4189.23,3978.46,4136.41,4110.26,0
11_58_10,72,4102.05,4124.62,4101.03,4144.62,4173.33,4124.1,4102.56,4103.59,4060.51,4184.62,4188.72,3985.64,4138.97,4109.74,0
11_58_10,73,4094.87,4112.82,4098.97,4137.44,4172.31,4122.56,4104.1,4095.38,4051.28,4187.69,4185.64,3975.9,4128.21,4107.18,0
11_58_10,74,4083.59,4101.54,4095.9,4128.21,4167.18,4112.31,4101.03,4082.56,4047.69,4185.13,4182.56,3973.85,4120.51,4103.08,0
11_58_10,75,4088.72,4109.74,4097.95,4133.33,4169.23,4112.31,4104.62,4093.85,4055.9,4186.67,4185.64,3989.74,4132.31,4109.74,0
11_58_10,76,4094.36,4114.87,4099.49,4140,4162.56,4112.82,4105.64,4110.26,4068.21,4189.23,4189.74,3997.44,4138.46,4112.82,0
11_58_10,77,4088.72,4107.18,4096.41,4138.97,4151.79,4103.59,4098.97,4107.18,4071.79,4188.21,4191.79,3993.33,4131.79,4108.21,0
11_58_10,78,4095.38,4113.33,4102.05,4137.44,4161.03,4102.05,4098.97,4109.23,4069.74,4194.36,4195.9,4000,4136.41,4114.87,0
11_58_10,79,4110.26,4127.18,4109.23,4139.49,4174.36,4108.21,4101.03,4124.62,4074.36,4197.95,4198.46,4011.79,4143.59,4126.15,0
11_58_10,80,4111.28,4125.64,4107.69,4141.03,4171.28,4106.15,4095.38,4126.67,4077.95,4194.36,4200.51,4014.87,4141.54,4127.18,0
11_58_10,81,4105.64,4118.97,4104.1,4140,4169.74,4105.64,4094.36,4112.82,4069.23,4195.38,4200.51,4013.33,4137.44,4123.08,0
11_58_10,82,4096.41,4113.85,4102.05,4137.44,4168.72,4107.69,4097.44,4096.92,4055.9,4188.72,4187.18,4005.64,4124.1,4112.82,0
11_58_10,83,4083.08,4103.08,4097.44,4130.77,4158.46,4104.62,4099.49,4088.21,4053.33,4167.69,4175.9,3997.44,4103.59,4093.85,0
11_58_10,84,4082.05,4104.1,4101.54,4132.82,4160.51,4112.31,4105.64,4090.26,4060,4166.67,4183.59,3999.49,4105.13,4092.82,0
11_58_10,85,4094.36,4117.95,4108.21,4138.97,4171.28,4120,4106.67,4092.31,4060.51,4183.08,4185.13,4004.1,4120,4105.64,0
11_58_10,86,4101.54,4127.18,4107.69,4138.46,4171.79,4110.26,4098.97,4089.23,4057.44,4187.69,4182.05,4011.28,4126.67,4110.77,0
11_58_10,87,4107.18,4132.82,4108.72,4143.59,4175.38,4107.18,4102.05,4093.85,4064.62,4184.62,4194.36,4023.08,4137.95,4117.44,0
11_58_10,88,4111.28,4134.87,4110.77,4151.28,4178.97,4113.33,4110.26,4105.13,4071.79,4191.28,4207.69,4030.77,4160.51,4128.72,0
11_58_10,89,4105.13,4129.23,4107.18,4144.1,4163.08,4105.13,4100.51,4108.21,4068.72,4198.46,4206.67,4026.67,4181.03,4129.23,0
11_58_10,90,4096.41,4114.87,4100.51,4130.26,4154.36,4095.9,4091.28,4100.51,4066.15,4190.77,4201.03,4022.05,4192.31,4117.95,0
11_58_10,91,4091.28,4107.18,4097.95,4127.18,4167.18,4102.56,4098.97,4103.08,4068.72,4181.03,4198.97,4020.51,4204.1,4110.26,0
11_58_10,92,4094.36,4116.92,4099.49,4134.87,4174.87,4110.26,4102.05,4113.33,4069.23,4182.05,4200.51,4017.95,4223.08,4110.77,0
11_58_10,93,4101.03,4125.13,4099.49,4141.03,4169.23,4108.72,4095.38,4104.1,4063.08,4176.41,4198.46,4018.46,4235.9,4109.74,0
11_58_10,94,4093.33,4114.36,4093.85,4128.21,4165.13,4098.46,4089.23,4075.38,4048.21,4161.03,4187.69,4017.95,4233.85,4103.59,0
11_58_10,95,4088.72,4109.23,4092.31,4117.44,4167.18,4095.9,4085.13,4062.05,4043.08,4152.82,4188.72,4018.46,4228.72,4101.54,0
11_58_10,96,4103.08,4123.59,4098.97,4135.38,4169.23,4104.62,4089.74,4074.36,4056.92,4154.36,4202.05,4028.72,4235.9,4109.23,0
11_58_10,97,4111.79,4129.23,4102.05,4147.18,4167.18,4110.26,4095.38,4083.59,4061.03,4161.54,4203.59,4037.95,4243.59,4113.85,0
11_58_10,98,4106.67,4124.1,4098.97,4141.54,4169.74,4110.26,4093.85,4086.67,4059.49,4171.28,4207.69,4037.44,4241.54,4112.82,0
11_58_10,99,4105.64,4127.69,4097.95,4137.44,4172.31,4109.23,4088.72,4092.31,4067.18,4171.28,4211.79,4035.38,4235.38,4109.23,0
11_58_10,100,4107.69,4133.33,4097.95,4139.49,4171.79,4104.62,4084.1,4092.31,4067.69,4166.67,4203.08,4039.49,4231.28,4107.18,0
11_58_10,101,4106.67,4133.33,4098.46,4148.21,4175.9,4103.08,4085.64,4086.15,4060,4167.69,4206.67,4043.08,4232.82,4108.21,0
11_58_10,102,4106.15,4132.31,4100.51,4151.79,4175.9,4108.72,4096.92,4080.51,4058.97,4168.21,4216.92,4048.21,4233.85,4109.23,0
11_58_10,103,4107.69,4131.28,4104.62,4144.1,4172.31,4110.26,4105.13,4080,4060,4164.1,4208.21,4056.41,4229.74,4106.67,0
11_58_10,104,4108.72,4128.21,4107.18,4141.03,4178.46,4107.18,4105.64,4085.64,4056.92,4156.41,4201.54,4060.51,4219.49,4104.1,0
11_58_10,105,4107.18,4123.08,4103.59,4142.05,4184.1,4111.28,4106.15,4091.79,4059.49,4152.31,4208.72,4058.97,4213.33,4107.18,0
11_58_10,106,4104.1,4119.49,4099.49,4136.92,4183.59,4118.46,4104.62,4089.23,4064.1,4159.49,4209.23,4057.44,4220.51,4106.67,0
11_58_10,107,4106.15,4126.15,4101.54,4142.05,4182.56,4115.38,4097.95,4089.23,4065.64,4170.26,4212.31,4064.1,4226.67,4106.15,0
11_58_10,108,4112.82,4137.95,4105.64,4154.36,4176.41,4106.15,4093.85,4092.31,4060.51,4170.77,4223.59,4073.85,4228.72,4114.87,0
11_58_10,109,4112.82,4134.36,4106.67,4150.26,4175.9,4108.72,4097.95,4081.54,4058.46,4166.67,4222.56,4074.36,4230.26,4117.95,0
11_58_10,110,4108.21,4128.72,4104.62,4146.67,4184.62,4113.33,4099.49,4069.74,4062.56,4167.69,4215.9,4071.28,4230.77,4115.9,0
11_58_10,111,4107.69,4133.33,4102.56,4146.67,4178.46,4106.15,4096.41,4073.85,4060,4169.23,4218.97,4074.87,4232.31,4118.46,0
11_58_10,112,4109.74,4128.72,4103.08,4140,4166.67,4108.72,4102.56,4090.26,4062.05,4169.23,4218.97,4076.41,4232.82,4113.33,0
11_58_10,113,4107.69,4121.03,4103.59,4138.97,4173.85,4120,4111.28,4107.18,4075.9,4167.69,4216.92,4074.87,4229.23,4103.59,0
11_58_10,114,4106.15,4130.77,4104.62,4144.62,4179.49,4115.38,4106.67,4106.67,4078.46,4169.74,4221.54,4083.59,4226.67,4110.26,0
11_58_10,115,4112.31,4142.05,4109.23,4143.59,4172.31,4105.13,4103.59,4096.92,4071.79,4178.46,4224.1,4094.87,4233.33,4124.1,0
11_58_10,116,4114.36,4133.33,4109.23,4143.08,4166.67,4106.15,4107.18,4098.46,4069.74,4175.38,4217.95,4095.9,4236.92,4127.18,0
11_58_10,117,4107.69,4121.54,4101.54,4144.62,4167.69,4104.62,4102.05,4091.28,4057.95,4155.9,4213.85,4088.72,4220.51,4118.46,0
11_58_10,118,4102.05,4121.03,4099.49,4137.44,4175.38,4102.05,4097.95,4077.44,4048.72,4148.21,4212.31,4085.13,4205.64,4110.77,0
11_58_10,119,4106.67,4132.31,4107.18,4141.54,4185.13,4116.92,4106.67,4082.56,4064.62,4160,4211.79,4089.23,4208.21,4117.95,0
11_58_10,120,4111.79,4139.49,4108.72,4152.31,4185.13,4128.21,4110.77,4092.82,4074.87,4164.1,4215.38,4095.9,4209.23,4126.67,0
11_58_10,121,4108.21,4130.77,4102.56,4143.59,4173.85,4119.49,4103.59,4097.44,4071.28,4161.03,4215.38,4100,4204.1,4122.56,0
11_58_10,122,4106.15,4121.54,4101.03,4131.79,4163.08,4105.64,4097.44,4101.54,4077.95,4167.69,4214.36,4104.62,4206.67,4120,0
11_58_10,123,4107.18,4122.05,4104.1,4136.92,4163.08,4097.44,4093.33,4095.9,4075.9,4173.85,4216.41,4106.15,4208.72,4122.56,0
11_58_10,124,4106.67,4122.56,4104.62,4141.03,4169.74,4097.95,4093.33,4086.15,4061.03,4165.64,4209.74,4101.54,4202.56,4121.03,0
11_58_10,125,4106.15,4122.05,4105.13,4137.95,4173.85,4105.13,4102.56,4089.74,4061.03,4154.87,4192.31,4096.92,4195.9,4118.97,0
11_58_10,126,4102.56,4123.08,4102.05,4131.79,4172.31,4109.74,4109.74,4097.44,4065.64,4151.79,4185.64,4094.36,4187.18,4115.38,0
11_58_10,127,4098.46,4119.49,4097.44,4124.62,4170.26,4108.21,4107.69,4091.79,4058.97,4150.26,4190.77,4093.85,4182.05,4113.33,0
11_58_10,128,4103.08,4120.51,4100.51,4131.79,4168.72,4107.69,4103.59,4081.54,4060,4153.33,4190.26,4096.92,4190.26,4118.97,0
11_58_10,0,4108.21,4123.08,4107.18,4137.44,4166.67,4107.69,4105.13,4084.62,4067.18,4154.87,4189.74,4102.05,4200,4122.56,0
11_58_10,1,4105.13,4117.95,4106.15,4129.74,4167.18,4108.72,4106.67,4092.82,4063.59,4152.82,4198.97,4106.67,4199.49,4120.51,0
11_58_10,2,4101.03,4110.26,4103.59,4125.13,4169.23,4108.72,4102.05,4083.59,4058.97,4153.85,4193.33,4103.08,4192.31,4115.9,0
11_58_10,3,4089.74,4100,4096.41,4125.13,4167.18,4101.03,4092.82,4073.85,4057.95,4148.72,4170.77,4086.67,4181.03,4100,0
11_58_10,4,4078.97,4092.82,4090.77,4118.97,4165.64,4100,4090.77,4082.05,4059.49,4141.54,4168.72,4078.97,4175.9,4090.77,0
11_58_10,5,4085.64,4098.97,4096.41,4115.9,4172.31,4107.69,4096.41,4093.33,4069.74,4146.15,4186.15,4096.41,4188.21,4103.08,0
11_58_10,6,4095.9,4110.26,4105.13,4127.18,4175.9,4107.69,4097.44,4097.95,4077.44,4162.05,4193.33,4111.28,4201.54,4116.41,0
11_58_10,7,4095.9,4109.74,4103.08,4135.38,4170.26,4105.64,4094.36,4098.46,4076.41,4167.69,4195.9,4109.23,4201.03,4114.87,0
11_58_10,8,4094.87,4107.69,4100,4128.21,4168.72,4106.67,4096.41,4093.33,4073.33,4160,4200,4106.15,4197.95,4109.74,0
11_58_10,9,4097.44,4106.67,4103.08,4121.54,4171.79,4101.03,4100.51,4084.62,4067.69,4157.44,4201.03,4110.26,4197.44,4110.77,0
11_58_11,10,4092.31,4098.46,4102.05,4124.1,4169.74,4094.87,4099.49,4076.41,4059.49,4155.9,4191.28,4108.72,4188.21,4109.74,0
11_58_11,11,4078.97,4090.26,4097.44,4125.13,4167.69,4095.38,4093.33,4065.13,4054.87,4144.1,4173.33,4096.41,4173.85,4098.97,0
11_58_11,12,4074.36,4089.23,4095.9,4121.54,4163.59,4093.33,4090.26,4064.1,4058.97,4137.44,4169.74,4091.28,4167.18,4088.72,0
11_58_11,13,4081.03,4100,4098.97,4123.08,4160.51,4094.87,4092.31,4077.95,4068.21,4148.72,4181.03,4099.49,4175.38,4092.82,0
11_58_11,14,4081.54,4105.64,4099.49,4123.08,4166.67,4104.62,4094.36,4084.1,4071.79,4157.44,4174.87,4101.54,4182.05,4096.92,0
11_58_11,15,4072.82,4091.79,4098.46,4118.97,4172.31,4107.69,4091.79,4079.49,4071.28,4153.33,4166.67,4096.41,4172.82,4088.72,0
11_58_11,16,4071.28,4087.18,4097.95,4121.03,4171.79,4102.05,4092.31,4082.05,4072.82,4151.79,4182.05,4101.03,4166.67,4088.72,0
11_58_11,17,4076.41,4101.03,4097.95,4125.64,4167.69,4096.41,4094.36,4081.03,4069.74,4156.41,4188.72,4108.72,4172.31,4097.44,0
11_58_11,18,4076.92,4102.05,4097.95,4124.62,4167.69,4091.28,4091.79,4068.21,4065.64,4159.49,4173.85,4105.64,4174.36,4099.49,0
11_58_11,19,4076.41,4091.79,4096.92,4122.05,4170.77,4093.33,4095.9,4066.15,4071.28,4155.9,4172.31,4104.1,4170.26,4094.87,0
11_58_11,20,4076.92,4093.85,4099.49,4123.59,4167.18,4101.54,4103.59,4075.9,4070.77,4151.28,4185.13,4109.23,4168.21,4094.36,0
11_58_11,21,4075.9,4094.87,4101.54,4121.54,4161.54,4100,4099.49,4071.79,4060.51,4151.79,4186.67,4111.28,4169.23,4094.36,0
11_58_11,22,4071.79,4088.21,4098.97,4116.41,4166.67,4092.31,4090.26,4055.38,4057.44,4151.79,4175.38,4107.69,4167.18,4090.26,0
11_58_11,23,4072.82,4093.33,4101.03,4119.49,4174.87,4096.92,4091.79,4051.79,4063.08,4150.26,4169.74,4106.15,4166.15,4091.79,0
11_58_11,24,4080.51,4106.15,4105.13,4126.67,4174.87,4104.1,4094.36,4058.46,4064.62,4152.82,4178.46,4112.31,4170.77,4101.03,0
11_58_11,25,4084.1,4108.21,4103.59,4125.64,4171.28,4096.41,4090.26,4056.92,4059.49,4154.36,4182.56,4112.82,4172.82,4106.15,0
11_58_11,26,4079.49,4104.1,4101.54,4120.51,4165.13,4089.23,4089.74,4062.56,4061.54,4154.36,4174.36,4108.72,4171.79,4105.13,0
11_58_11,27,4078.97,4103.08,4102.05,4121.03,4163.59,4098.97,4093.33,4077.95,4065.13,4152.82,4172.82,4109.23,4171.79,4104.1,0
11_58_11,28,4087.18,4105.13,4102.56,4123.08,4166.67,4103.59,4092.82,4076.92,4060.51,4147.69,4182.05,4109.74,4172.31,4104.1,0
11_58_11,29,4091.79,4105.13,4104.62,4121.54,4164.1,4095.38,4094.87,4069.23,4061.54,4147.69,4185.64,4114.36,4175.38,4104.1,0
11_58_11,30,4090.77,4102.05,4106.67,4121.54,4163.59,4091.79,4098.46,4069.74,4063.59,4149.23,4183.59,4122.56,4176.41,4105.13,0
11_58_11,31,4094.36,4106.15,4105.64,4124.1,4170.26,4094.87,4093.85,4058.97,4050.26,4142.56,4186.67,4126.67,4173.33,4108.72,0
11_58_11,32,4097.95,4110.26,4104.62,4124.62,4169.23,4095.38,4089.23,4043.08,4040,4133.33,4183.59,4123.59,4170.26,4107.69,0
11_58_11,33,4092.82,4105.13,4103.59,4126.15,4164.62,4092.82,4090.77,4040.51,4040.51,4127.69,4168.21,4115.38,4160,4100,0
11_58_11,34,4094.87,4108.21,4105.13,4129.74,4169.74,4087.69,4087.18,4039.49,4037.44,4123.59,4161.54,4111.28,4150.26,4097.95,0
11_58_11,35,4108.72,4122.56,4108.72,4133.85,4165.64,4086.15,4080,4045.64,4039.49,4128.72,4174.36,4120.51,4162.05,4108.72,0
11_58_11,36,4108.21,4124.62,4108.21,4132.31,4152.82,4092.31,4081.54,4051.79,4043.08,4138.46,4184.1,4127.18,4172.31,4109.23,0
11_58_11,37,4094.87,4116.41,4106.15,4128.21,4157.95,4094.87,4089.23,4045.13,4043.08,4137.44,4180,4122.56,4159.49,4096.92,0
11_58_11,38,4091.79,4114.36,4106.67,4127.69,4173.85,4095.38,4095.38,4046.15,4047.69,4136.41,4183.59,4123.08,4155.38,4098.97,0
11_58_11,39,4093.33,4111.28,4105.13,4126.15,4175.9,4101.54,4097.95,4062.56,4049.74,4137.44,4188.72,4125.13,4160,4102.56,0
11_58_11,40,4093.85,4108.72,4105.13,4125.13,4170.77,4106.15,4101.03,4078.46,4050.77,4136.92,4183.59,4124.62,4154.87,4097.44,0
11_58_11,41,4103.59,4119.49,4110.26,4134.36,4173.85,4105.13,4102.05,4086.67,4056.41,4141.54,4183.08,4134.87,4155.38,4102.05,0
11_58_11,42,4110.77,4126.67,4114.87,4144.62,4174.36,4098.97,4094.87,4080,4056.41,4140,4186.67,4143.59,4162.05,4110.77,0
11_58_11,43,4102.05,4114.87,4109.74,4134.36,4162.05,4091.28,4087.18,4059.49,4048.21,4124.62,4178.46,4133.85,4150.77,4104.62,0
11_58_11,44,4089.23,4098.46,4103.59,4118.97,4149.23,4088.21,4085.13,4045.64,4040.51,4114.36,4168.21,4122.56,4131.28,4091.79,0
11_58_11,45,4088.72,4094.87,4102.56,4120,4154.87,4090.77,4083.08,4043.59,4040.51,4121.54,4167.69,4122.56,4125.64,4087.18,0
11_58_11,46,4087.69,4097.95,4100.51,4120.51,4171.28,4092.31,4081.03,4042.56,4043.59,4128.72,4170.77,4122.56,4125.64,4081.54,0
11_58_11,47,4076.41,4100,4097.44,4114.87,4171.79,4090.26,4085.13,4039.49,4042.05,4122.05,4166.15,4116.41,4118.46,4073.33,0
11_58_11,48,4074.36,4105.13,4098.97,4116.92,4167.69,4091.28,4090.26,4048.72,4044.62,4122.05,4164.1,4116.41,4119.49,4073.85,0
11_58_11,49,4087.69,4109.74,4103.59,4123.59,4169.23,4092.31,4091.79,4067.18,4056.92,4138.97,4175.9,4128.21,4139.49,4086.15,0
11_58_11,50,4095.38,4108.72,4106.67,4126.67,4161.54,4092.82,4090.77,4076.41,4058.46,4146.67,4192.31,4137.95,4154.36,4101.03,0
11_58_11,51,4094.36,4109.74,4110.77,4128.21,4150.77,4091.79,4088.21,4078.46,4052.82,4131.28,4196.92,4141.03,4151.28,4109.23,0
11_58_11,52,4095.38,4107.69,4106.67,4118.97,4155.38,4087.69,4081.54,4072.31,4049.74,4113.33,4190.26,4135.38,4149.23,4107.69,0
11_58_11,53,4088.21,4094.87,4098.97,4106.15,4165.64,4085.13,4076.92,4055.38,4041.54,4108.72,4182.56,4126.15,4129.23,4098.46,0
11_58_11,54,4083.08,4090.77,4102.05,4113.33,4166.67,4090.26,4084.62,4052.82,4046.67,4117.44,4182.56,4129.74,4085.13,4094.87,0
11_58_11,55,4090.26,4101.54,4106.67,4122.56,4167.18,4094.36,4093.33,4068.72,4061.54,4132.82,4188.21,4141.03,4065.13,4098.97,0
11_58_11,56,4088.21,4103.08,4103.59,4116.92,4168.72,4089.23,4092.82,4068.21,4061.54,4141.03,4187.18,4137.44,4072.31,4096.41,0
11_58_11,57,4079.49,4091.79,4104.1,4112.31,4156.41,4086.15,4091.28,4056.41,4060,4143.08,4184.62,4128.72,4070.26,4089.23,0
11_58_11,58,4083.59,4088.72,4106.67,4109.23,4143.08,4087.18,4090.77,4060,4065.64,4143.59,4187.18,4134.36,4068.21,4088.21,0
11_58_11,59,4089.23,4093.33,4107.69,4112.31,4148.72,4087.69,4083.08,4060,4055.9,4134.36,4188.72,4141.03,4077.44,4092.82,0
11_58_11,60,4083.08,4096.92,4106.15,4120,4160,4086.15,4076.92,4047.18,4038.46,4112.31,4181.03,4136.92,4068.21,4089.74,0
11_58_11,61,4075.9,4089.23,4102.56,4112.31,4155.38,4084.1,4082.56,4046.67,4044.1,4095.9,4169.74,4127.69,4044.1,4077.95,0
11_58_11,62,4071.28,4079.49,4098.97,4098.97,4149.23,4086.15,4088.72,4061.54,4056.92,4096.41,4162.56,4121.54,4037.44,4069.74,0
11_58_11,63,4076.41,4085.13,4097.44,4108.72,4153.33,4089.74,4088.21,4071.28,4057.44,4102.56,4166.15,4127.69,4045.13,4076.92,0
11_58_11,64,4093.33,4103.08,4104.62,4123.59,4158.97,4089.74,4090.77,4075.38,4066.67,4112.82,4177.95,4140.51,4053.85,4096.41,0
11_58_11,65,4101.03,4109.23,4110.77,4123.08,4156.41,4082.56,4091.79,4079.49,4075.38,4127.18,4183.59,4142.05,4064.1,4106.15,0
11_58_11,66,4094.36,4105.13,4109.74,4120,4155.38,4080,4087.69,4074.87,4064.1,4137.44,4182.56,4135.38,4079.49,4106.67,0
