TIME, ED_COUNTER, AF3, F7, F3, FC5, T7, P7, O1, O2, P8, T8, FC6, F4, F8, AF4, LABEL
12_11_47,100,4071.79,4050.26,4109.23,4073.33,4090.26,4096.92,4078.46,4097.44,4115.9,4104.1,4104.62,4144.62,4181.54,4108.72,0
12_11_47,101,4078.46,4066.15,4109.74,4091.28,4102.05,4095.9,4075.38,4097.44,4120,4103.08,4095.9,4141.03,4171.79,4108.21,0
12_11_47,102,4089.74,4077.95,4112.82,4097.44,4114.36,4094.87,4074.87,4097.44,4122.56,4106.15,4091.28,4139.49,4164.62,4110.26,0
12_11_47,103,4085.64,4074.36,4112.82,4088.72,4110.77,4092.82,4075.38,4097.44,4123.59,4113.33,4094.36,4138.97,4158.97,4108.21,0
12_11_47,104,4077.44,4067.18,4112.31,4089.23,4099.49,4091.28,4076.92,4097.44,4125.13,4114.87,4091.28,4137.95,4153.85,4104.62,0
12_11_47,105,4082.05,4064.1,4111.28,4093.85,4091.79,4093.85,4078.46,4097.44,4123.08,4109.23,4088.21,4137.95,4152.82,4105.64,0
12_11_47,106,4088.21,4067.18,4106.67,4091.28,4093.85,4096.41,4077.95,4097.44,4121.03,4106.67,4091.79,4137.95,4152.82,4107.18,0
12_11_47,107,4089.74,4074.36,4107.69,4088.72,4094.36,4093.85,4077.44,4096.92,4116.41,4103.08,4088.72,4138.97,4151.28,4109.23,0
12_11_47,108,4087.69,4072.82,4109.74,4090.26,4087.18,4091.79,4077.44,4097.44,4109.23,4092.82,4079.49,4134.87,4143.59,4106.67,0
12_11_47,109,4079.49,4064.1,4105.13,4089.23,4088.72,4090.77,4076.41,4097.44,4109.23,4085.64,4072.82,4123.59,4128.72,4098.46,0
12_11_47,110,4077.44,4064.1,4104.62,4087.69,4102.56,4089.74,4073.85,4096.92,4112.31,4091.79,4073.85,4120.51,4125.13,4097.44,0
12_11_47,111,4091.28,4072.31,4111.28,4098.46,4109.23,4091.79,4076.41,4097.44,4118.46,4104.62,4082.05,4132.82,4138.46,4107.18,0
12_11_47,112,4096.92,4079.49,4112.82,4106.67,4100,4095.38,4081.54,4098.97,4128.21,4113.85,4085.64,4140.51,4143.59,4114.36,0
12_11_47,113,4083.59,4075.9,4108.72,4093.85,4089.74,4092.82,4076.92,4098.97,4117.95,4101.54,4069.23,4126.15,4124.1,4104.1,0
12_11_47,114,4074.36,4068.21,4105.13,4083.08,4092.31,4088.21,4065.64,4098.46,4097.95,4074.87,4049.74,4108.72,4103.08,4090.77,0
12_11_47,115,4074.87,4072.31,4105.13,4089.74,4104.1,4089.23,4066.15,4098.97,4103.08,4068.21,4051.28,4107.69,4101.54,4090.26,0
12_11_47,116,4076.92,4075.38,4109.23,4091.79,4107.69,4094.87,4078.97,4100,4111.79,4075.38,4057.95,4110.26,4102.05,4092.82,0
12_11_47,117,4084.1,4073.85,4109.23,4090.77,4101.54,4098.46,4083.08,4100,4107.69,4075.9,4055.9,4107.18,4102.05,4091.79,0
12_11_47,118,4088.21,4075.38,4103.59,4091.79,4090.26,4095.9,4076.92,4098.97,4106.15,4072.31,4056.92,4106.67,4102.05,4091.79,0
12_11_47,119,4080.51,4071.28,4103.59,4082.56,4086.67,4089.23,4070.77,4098.46,4101.54,4074.36,4058.97,4111.28,4100.51,4091.79,0
12_11_47,120,4080,4068.21,4106.67,4081.03,4098.97,4090.26,4068.21,4098.46,4095.38,4074.36,4060.51,4117.95,4101.54,4091.79,0
12_11_47,121,4092.82,4076.41,4109.74,4092.82,4108.21,4094.87,4068.21,4098.97,4105.13,4073.33,4065.64,4124.1,4109.23,4100.51,0
12_11_47,122,4092.82,4075.38,4107.18,4094.87,4097.44,4087.18,4063.59,4098.46,4110.77,4078.46,4063.59,4124.1,4107.69,4103.08,0
12_11_47,123,4081.03,4068.72,4104.62,4088.21,4084.1,4074.36,4057.44,4098.46,4092.31,4077.95,4053.85,4120,4097.44,4091.28,0
12_11_47,123,4081.03,4068.72,4104.62,4088.21,4084.1,4074.36,4057.44,4098.46,4092.31,4077.95,4053.85,4120,4097.44,4091.28,0
12_11_47,124,4085.13,4075.38,4108.21,4091.28,4088.21,4072.82,4062.05,4098.46,4086.15,4072.31,4054.36,4121.03,4101.54,4092.31,0
12_11_47,125,4097.44,4080,4111.79,4094.36,4093.85,4080.51,4069.74,4098.46,4105.13,4079.49,4066.67,4126.15,4110.26,4105.64,0
12_11_47,126,4096.41,4074.36,4110.26,4089.74,4084.62,4081.03,4064.1,4098.97,4109.23,4086.67,4071.79,4127.69,4108.21,4109.23,0
12_11_47,127,4089.23,4074.87,4109.23,4088.72,4080,4078.46,4057.95,4098.46,4092.31,4074.87,4067.69,4125.13,4106.67,4106.15,0
12_11_47,128,4089.74,4074.87,4109.23,4088.72,4092.31,4079.49,4061.03,4097.44,4089.74,4065.13,4065.64,4123.08,4107.69,4105.13,0
12_11_47,0,4093.85,4067.69,4109.23,4088.72,4100,4076.92,4062.56,4098.46,4101.03,4069.74,4068.72,4124.62,4106.15,4105.13,0
12_11_47,1,4094.36,4069.74,4112.31,4091.28,4093.85,4073.33,4059.49,4098.97,4098.46,4072.31,4067.69,4132.82,4104.62,4107.18,0
12_11_47,2,4092.82,4076.92,4110.26,4094.87,4091.79,4073.33,4058.97,4096.92,4095.38,4072.82,4062.05,4133.33,4106.15,4108.72,0
12_11_47,3,4093.85,4076.41,4106.67,4092.82,4086.67,4074.87,4060,4097.95,4102.56,4073.85,4061.54,4123.59,4104.62,4105.64,0
12_11_47,4,4093.33,4072.82,4108.21,4088.21,4074.87,4073.85,4060,4100.51,4107.18,4074.87,4064.1,4120,4103.59,4104.62,0
12_11_47,13,4104.62,4090.26,4108.72,4098.46,4097.95,4078.46,4061.03,4098.46,4091.79,4069.23,4060.51,4123.08,4091.79,4107.69,0
12_11_47,14,4094.87,4074.87,4107.69,4088.21,4091.28,4075.9,4051.79,4098.46,4094.87,4077.95,4059.49,4119.49,4090.26,4107.18,0
12_11_47,15,4089.23,4063.08,4106.15,4086.67,4088.72,4071.28,4049.74,4098.46,4099.49,4077.95,4064.62,4117.95,4086.67,4098.46,0
12_11_47,16,4093.85,4072.31,4106.15,4091.28,4088.72,4075.38,4057.95,4098.46,4096.41,4071.28,4068.21,4120,4086.15,4100,0
12_11_47,17,4094.36,4081.03,4104.62,4090.26,4087.69,4080,4061.03,4098.46,4093.33,4074.87,4063.59,4115.38,4085.13,4107.18,0
12_11_47,18,4090.26,4072.82,4102.05,4088.21,4086.15,4072.82,4057.95,4098.46,4093.85,4072.82,4058.46,4106.15,4077.95,4098.46,0
12_11_47,19,4091.28,4066.67,4105.64,4091.28,4087.69,4067.69,4059.49,4098.46,4099.49,4066.15,4056.41,4110.77,4073.33,4093.85,0
12_11_47,20,4100.51,4079.49,4110.77,4091.28,4088.72,4074.87,4063.59,4098.46,4103.59,4072.31,4066.67,4124.62,4081.03,4108.21,0
12_11_47,21,4106.67,4088.72,4111.28,4094.36,4091.79,4078.97,4063.08,4098.46,4096.92,4082.05,4077.95,4126.15,4085.64,4114.36,0
12_11_47,22,4104.1,4081.54,4111.28,4104.1,4096.92,4076.92,4061.54,4098.46,4088.21,4077.44,4072.31,4121.03,4077.95,4106.67,0
12_11_47,23,4097.95,4082.56,4112.31,4109.74,4094.87,4078.97,4061.54,4098.46,4091.28,4069.23,4062.56,4120.51,4073.33,4104.62,0
12_11_47,24,4094.36,4089.23,4109.23,4102.56,4087.69,4077.95,4059.49,4098.46,4092.82,4065.64,4062.05,4113.85,4074.36,4105.13,0
12_11_47,25,4101.54,4091.28,4108.72,4102.56,4094.87,4072.82,4061.03,4098.46,4088.72,4063.08,4066.15,4110.77,4076.41,4106.67,0
12_11_47,26,4104.62,4091.79,4113.33,4107.69,4105.13,4075.38,4065.13,4098.46,4094.87,4071.28,4067.69,4115.38,4074.87,4107.18,0
12_11_47,27,4095.9,4084.62,4110.77,4100,4095.38,4076.41,4063.08,4098.46,4096.41,4075.9,4062.05,4110.77,4069.23,4101.54,0
12_11_47,28,4094.36,4080,4109.23,4093.33,4085.64,4068.72,4052.82,4098.46,4087.69,4067.18,4056.41,4105.13,4067.69,4102.56,0
12_11_47,29,4096.41,4085.13,4107.18,4092.82,4090.26,4065.13,4048.21,4098.46,4087.69,4061.03,4060,4108.21,4068.21,4104.62,0
12_11_47,30,4093.33,4082.05,4105.13,4090.77,4093.33,4072.31,4054.36,4098.46,4089.23,4060.51,4060.51,4108.72,4066.67,4100.51,0
12_11_47,39,4090.77,4075.9,4108.21,4090.77,4085.13,4078.97,4068.72,4097.95,4093.85,4067.69,4069.23,4108.21,4072.82,4102.56,0
12_11_47,40,4092.31,4070.77,4107.69,4089.74,4095.38,4081.54,4073.85,4098.97,4102.05,4066.67,4062.05,4109.23,4065.13,4098.46,0
12_11_47,41,4091.79,4065.64,4107.69,4090.77,4091.28,4089.74,4077.44,4098.46,4099.49,4065.64,4051.79,4105.13,4049.23,4085.64,0
12_11_47,42,4094.36,4071.79,4110.77,4093.33,4090.77,4092.82,4078.97,4098.46,4097.95,4075.38,4066.15,4106.15,4061.54,4093.33,0
12_11_47,43,4094.87,4075.9,4110.26,4092.82,4097.44,4091.79,4078.46,4098.97,4100,4081.54,4077.95,4109.74,4084.1,4107.18,0
12_11_47,44,4095.38,4068.21,4109.23,4091.79,4092.82,4091.79,4076.41,4098.46,4105.13,4083.08,4082.05,4109.74,4092.82,4107.69,0
12_11_47,45,4096.41,4060,4110.77,4090.26,4084.1,4085.64,4070.77,4097.44,4104.1,4085.13,4087.18,4106.67,4092.82,4105.64,0
12_11_47,46,4092.82,4059.49,4107.18,4086.67,4086.67,4075.9,4070.77,4097.44,4099.49,4078.46,4082.56,4105.13,4088.72,4106.67,0
12_11_47,47,4089.23,4057.44,4101.03,4080,4093.33,4076.41,4071.28,4098.46,4097.95,4068.21,4072.82,4107.18,4077.95,4101.03,0
12_11_47,48,4088.72,4045.13,4101.03,4074.87,4086.15,4082.56,4067.69,4098.97,4101.54,4068.72,4072.82,4104.1,4072.31,4093.33,0
12_11_47,49,4085.13,4041.54,4102.05,4075.38,4074.36,4080,4064.1,4097.95,4103.08,4081.03,4075.38,4095.9,4080,4093.33,0
12_11_47,50,4075.9,4041.03,4098.97,4073.33,4081.03,4080.51,4066.15,4098.97,4100.51,4083.08,4067.18,4091.79,4089.23,4089.74,0
12_11_47,51,4068.21,4027.69,4097.95,4065.64,4086.15,4088.72,4072.82,4103.59,4105.13,4075.9,4056.41,4090.77,4095.38,4083.08,0
12_11_47,52,4070.26,4021.54,4098.97,4065.64,4071.28,4081.54,4077.44,4104.1,4107.69,4080,4057.44,4088.21,4114.87,4084.62,0
12_11_47,53,4083.59,4035.38,4100.51,4079.49,4078.46,4055.9,4074.87,4099.49,4103.08,4089.74,4071.28,4094.36,4146.15,4094.36,0
12_11_47,54,4091.28,4048.72,4103.59,4088.72,4111.79,4045.13,4073.33,4098.97,4096.41,4083.59,4075.9,4103.59,4164.1,4095.9,0
12_11_47,55,4088.72,4053.85,4103.59,4089.23,4111.28,4058.97,4082.05,4100.51,4104.62,4084.62,4078.46,4107.18,4169.74,4090.77,0
12_11_47,56,4090.77,4061.54,4103.59,4091.28,4091.79,4068.21,4085.13,4097.95,4114.87,4103.59,4089.74,4109.74,4177.95,4095.9,0
12_11_47,57,4095.38,4064.1,4106.67,4094.36,4091.79,4063.08,4080.51,4096.92,4103.59,4102.56,4096.92,4111.28,4179.49,4104.1,0
12_11_47,58,4094.36,4061.03,4105.64,4093.85,4087.18,4063.08,4083.08,4098.46,4101.54,4093.33,4103.59,4109.74,4165.64,4102.56,0
12_11_47,59,4083.59,4053.33,4096.92,4090.77,4078.46,4058.46,4073.85,4098.46,4110.77,4095.9,4107.69,4104.62,4140,4087.18,0
12_11_47,60,4075.38,4047.18,4096.41,4098.97,4087.69,4046.67,4061.03,4096.92,4101.03,4092.82,4105.13,4098.97,4111.28,4076.92,0
12_11_47,61,4084.1,4055.38,4103.08,4122.05,4095.38,4049.74,4066.67,4097.95,4087.18,4090.26,4117.44,4105.13,4097.44,4088.72,0
12_11_47,62,4098.97,4062.05,4105.13,4137.95,4090.77,4061.03,4072.31,4099.49,4096.41,4099.49,4144.62,4120.51,4093.85,4105.13,0
12_11_47,63,4102.56,4065.13,4103.08,4138.97,4089.74,4053.85,4063.08,4098.97,4105.64,4108.21,4161.03,4125.13,4084.1,4109.23,0
12_11_47,64,4109.74,4082.05,4105.13,4150.26,4095.38,4038.46,4058.46,4097.95,4092.31,4108.21,4172.82,4126.15,4072.31,4110.77,0
12_11_47,65,4128.21,4101.54,4110.26,4163.08,4106.15,4044.1,4061.54,4098.46,4093.33,4111.79,4188.72,4138.97,4077.44,4127.69,0
12_11_47,66,4145.13,4102.05,4116.92,4181.03,4114.36,4055.9,4062.05,4098.46,4108.72,4108.72,4201.03,4147.18,4084.1,4142.56,0
12_11_47,67,4155.9,4101.03,4121.03,4205.13,4120,4054.36,4067.18,4096.92,4101.03,4109.23,4208.72,4142.56,4073.33,4140,0
12_11_47,68,4147.69,4112.31,4115.9,4193.33,4122.05,4048.72,4065.13,4097.44,4094.87,4091.79,4202.05,4141.54,4062.56,4133.85,0
12_11_47,69,4126.67,4100,4107.18,4172.31,4094.87,4035.38,4050.77,4098.97,4089.74,4040.51,4166.15,4136.41,4048.72,4124.62,0
12_11_47,70,4123.59,4087.69,4108.21,4177.44,4080,4023.59,4045.64,4098.46,4069.74,4045.64,4147.69,4122.56,4038.97,4113.33,0
12_11_47,71,4138.46,4111.28,4113.85,4174.87,4106.67,4035.38,4057.95,4098.46,4071.28,4109.74,4149.74,4121.03,4053.85,4115.9,0
12_11_47,72,4143.08,4134.87,4114.36,4167.69,4123.08,4054.36,4068.72,4098.46,4098.97,4126.67,4140,4134.36,4078.97,4137.44,0
12_11_47,73,4132.82,4124.62,4111.79,4182.56,4101.03,4045.13,4062.56,4098.46,4090.77,4102.05,4102.56,4127.18,4080.51,4134.87,0
12_11_47,74,4119.49,4108.72,4107.69,4158.97,4090.26,4033.85,4057.95,4098.46,4072.82,4105.64,4067.18,4114.87,4061.03,4112.31,0
12_11_47,75,4115.9,4113.85,4106.15,4117.95,4097.44,4043.08,4062.05,4098.46,4088.72,4114.87,4064.1,4129.23,4057.44,4121.03,0
12_11_47,76,4121.03,4076.92,4112.31,4145.64,4070.77,4035.38,4054.36,4098.46,4082.05,4117.44,4021.54,4124.62,4066.15,4125.13,0
12_11_47,77,4124.62,4036.41,4116.92,4152.82,4061.03,4027.69,4049.74,4098.46,4066.15,4138.46,3944.1,4102.56,4072.82,4101.54,0
12_11_47,78,4119.49,4077.95,4111.28,4085.64,4098.97,4046.15,4062.05,4098.46,4085.64,4158.97,3941.54,4119.49,4081.54,4110.26,0
12_11_47,79,4098.97,4123.08,4102.56,4015.9,4111.79,4058.46,4067.18,4098.46,4097.95,4183.08,3963.08,4128.72,4093.33,4133.33,0
12_11_47,80,4084.1,4109.74,4100,4011.79,4090.77,4050.77,4057.44,4098.46,4088.72,4229.23,3897.44,4096.92,4103.59,4114.87,0
12_11_47,81,4098.97,4097.95,4107.18,4045.13,4074.87,4049.74,4059.49,4098.46,4087.18,4278.46,3852.82,4087.69,4105.13,4103.59,0
12_11_47,82,4113.85,4105.13,4113.33,4051.79,4071.79,4057.95,4069.23,4098.46,4091.79,4323.59,3901.03,4110.77,4108.72,4126.67,0
12_11_47,83,4100.51,4084.62,4110.26,4016.41,4065.64,4054.36,4064.1,4098.46,4085.64,4371.79,3888.21,4104.62,4109.23,4122.05,0
12_11_47,84,4085.13,4082.56,4103.08,3985.64,4067.18,4046.15,4059.49,4098.46,4077.44,4419.49,3824.62,4084.1,4102.05,4097.44,0
12_11_47,85,4095.9,4096.92,4106.15,4015.9,4066.15,4043.59,4060,4098.46,4071.79,4460.51,3818.97,4086.15,4099.49,4102.05,0
12_11_47,86,4103.59,4065.13,4111.28,4033.33,4048.72,4038.97,4051.28,4098.46,4068.72,4492.31,3808.21,4084.1,4102.05,4103.59,0
12_11_47,87,4091.79,4045.64,4104.62,3992.31,4040,4035.38,4045.64,4098.46,4069.23,4511.79,3766.67,4077.44,4103.08,4089.23,0
12_11_47,88,4085.64,4068.72,4101.54,3953.85,4050.77,4046.67,4056.41,4098.46,4070.26,4530.77,3758.97,4083.08,4098.97,4093.33,0
12_11_47,89,4091.28,4093.85,4107.69,3947.69,4073.33,4066.15,4068.72,4098.46,4088.21,4580,3757.95,4087.18,4110.77,4105.13,0
12_11_47,90,4095.9,4092.82,4108.72,3958.46,4078.97,4071.28,4069.74,4098.46,4102.56,4628.21,3721.54,4077.44,4126.67,4100.51,0
12_11_47,91,4102.05,4083.59,4108.21,3984.62,4068.72,4065.64,4069.23,4098.46,4095.38,4630.26,3714.36,4078.46,4117.95,4101.54,0
12_11_47,92,4106.67,4072.31,4109.74,4009.74,4060,4058.97,4064.1,4098.46,4083.08,4618.46,3725.64,4085.64,4107.18,4108.21,0
12_11_47,93,4093.85,4052.82,4103.59,3997.44,4049.23,4049.74,4053.33,4098.46,4070.77,4608.21,3699.49,4074.36,4105.64,4096.92,0
12_11_47,94,4091.28,4052.82,4099.49,3990.77,4052.82,4051.28,4053.85,4098.46,4066.67,4592.82,3691.28,4069.74,4102.56,4090.77,0
12_11_47,95,4103.59,4061.03,4103.59,4013.85,4058.46,4061.54,4064.62,4098.46,4073.33,4573.33,3702.05,4072.31,4097.44,4095.38,0
12_11_47,96,4108.21,4067.69,4105.13,4029.23,4068.72,4070.26,4074.87,4098.46,4090.77,4559.49,3697.44,4081.54,4105.13,4102.56,0
12_11_47,97,4109.74,4066.15,4104.1,4026.15,4085.13,4075.9,4077.44,4098.46,4095.9,4554.36,3706.15,4092.82,4113.85,4109.23,0
12_11_48,98,4104.62,4060.51,4104.1,4014.87,4082.05,4072.31,4069.23,4098.46,4077.95,4542.05,3728.72,4078.46,4103.08,4098.46,0
12_11_48,99,4092.31,4058.97,4102.56,4020,4063.59,4061.03,4058.97,4098.46,4072.31,4524.1,3731.28,4063.59,4089.74,4085.13,0
12_11_48,100,4091.79,4050.77,4103.59,4056.92,4056.41,4057.95,4060.51,4098.46,4088.72,4516.41,3726.67,4070.26,4091.79,4088.21,0
12_11_48,101,4100,4047.69,4104.1,4088.21,4064.1,4063.08,4063.08,4098.46,4088.72,4515.9,3737.44,4072.82,4095.9,4093.33,0
12_11_48,102,4091.28,4044.1,4100.51,4093.33,4061.03,4061.54,4054.36,4098.46,4066.67,4497.44,3743.08,4057.95,4079.49,4084.1,0
12_11_48,103,4079.49,4031.28,4095.9,4097.44,4052.82,4052.82,4048.72,4098.46,4066.15,4480.51,3745.64,4050.26,4066.67,4074.36,0
12_11_48,104,4095.38,4045.13,4100.51,4102.56,4070.26,4062.05,4057.95,4098.46,4084.1,4485.64,3763.59,4059.49,4084.62,4079.49,0
12_11_48,105,4112.82,4075.9,4106.15,4103.08,4092.82,4075.38,4069.74,4097.44,4085.13,4490.26,3786.67,4068.72,4096.92,4090.26,0
12_11_48,106,4100,4066.15,4102.05,4089.74,4080,4066.67,4066.15,4097.44,4068.72,4482.56,3790.26,4063.59,4083.59,4089.74,0
12_11_48,107,4092.82,4053.85,4102.56,4077.95,4064.62,4060.51,4065.13,4098.46,4071.28,4468.21,3794.36,4065.13,4074.87,4089.23,0
12_11_48,108,4106.67,4072.31,4108.21,4085.13,4077.95,4065.64,4067.18,4098.97,4091.79,4458.46,3812.82,4073.85,4081.54,4095.38,0
12_11_48,109,4099.49,4060,4105.64,4087.18,4082.56,4059.49,4056.41,4098.46,4089.74,4443.59,3809.23,4060.51,4074.87,4083.59,0
12_11_48,110,4078.46,4041.54,4098.97,4067.69,4072.31,4053.85,4050.26,4098.46,4068.21,4433.33,3782.05,4040.51,4058.97,4064.62,0
12_11_48,111,4078.46,4059.49,4098.97,4037.95,4075.9,4063.08,4058.46,4098.97,4057.95,4432.31,3780,4038.97,4058.46,4061.54,0
12_11_48,112,4081.03,4064.1,4099.49,4054.87,4082.56,4062.05,4060.51,4098.46,4067.18,4412.31,3804.62,4038.46,4055.38,4062.05,0
12_11_48,113,4076.41,4050.26,4098.97,4167.69,4080.51,4058.46,4056.41,4097.44,4074.36,4398.97,3806.15,4034.87,4046.15,4056.92,0
12_11_48,114,4079.49,4061.03,4098.97,4265.13,4081.54,4071.28,4061.03,4097.44,4071.28,4412.31,3793.85,4037.44,4054.87,4057.95,0
12_11_48,115,4080.51,4067.69,4100,4255.38,4083.59,4074.87,4063.08,4098.46,4066.67,4411.79,3803.59,4035.38,4062.56,4064.1,0
12_11_48,116,4083.08,4060,4101.54,4236.41,4088.21,4067.18,4058.97,4098.46,4073.33,4397.44,3820.51,4035.38,4055.38,4066.15,0
12_11_48,117,4083.08,4062.56,4098.97,4238.97,4092.82,4066.67,4058.97,4097.95,4076.92,4393.85,3815.38,4035.38,4051.79,4061.54,0
12_11_48,118,4068.21,4062.05,4093.33,4208.21,4089.23,4068.21,4059.49,4096.92,4068.72,4380.51,3789.74,4022.05,4047.18,4049.23,0
12_11_48,119,4065.13,4055.38,4095.9,4187.18,4080.51,4065.64,4058.97,4096.41,4072.31,4364.62,3785.64,4015.38,4038.97,4044.62,0
12_11_48,120,4080,4055.9,4099.49,4194.87,4075.38,4065.64,4055.9,4097.44,4074.36,4367.18,3809.23,4027.18,4045.13,4054.87,0
12_11_48,121,4084.1,4066.15,4096.92,4192.82,4082.05,4062.56,4049.74,4099.49,4067.69,4357.95,3820.51,4037.95,4055.9,4061.54,0
12_11_48,122,4078.46,4073.33,4096.41,4191.79,4092.31,4057.95,4047.69,4100,4075.9,4349.74,3816.92,4040.51,4058.46,4058.97,0
12_11_48,123,4080,4070.77,4099.49,4185.64,4092.31,4061.03,4049.23,4099.49,4081.54,4348.21,3823.08,4042.56,4062.05,4060,0
12_11_48,124,4086.67,4074.36,4098.97,4181.03,4088.21,4065.64,4053.33,4100,4072.82,4331.79,3835.38,4045.13,4056.92,4063.08,0
12_11_48,125,4093.85,4087.69,4098.46,4199.49,4096.41,4070.77,4058.97,4098.97,4074.36,4324.62,3843.59,4045.64,4054.87,4063.59,0
12_11_48,126,4091.79,4087.18,4100.51,4204.62,4097.95,4075.38,4061.03,4097.44,4077.44,4319.49,3847.69,4040,4062.05,4063.59,0
12_11_48,127,4080.51,4072.31,4101.54,4181.54,4084.62,4073.85,4059.49,4096.41,4075.9,4296.92,3847.69,4036.92,4055.38,4054.87,0
12_11_48,128,4082.56,4077.95,4102.56,4172.31,4087.18,4077.95,4061.54,4095.9,4086.15,4285.64,3861.54,4050.77,4046.67,4049.74,0
12_11_48,0,4094.87,4095.38,4104.1,4184.1,4105.64,4087.69,4067.69,4097.44,4090.77,4291.28,3891.79,4060,4060,4062.05,0
12_11_48,1,4093.85,4097.95,4101.54,4195.38,4111.79,4085.64,4067.69,4100.51,4076.92,4263.08,3898.97,4044.1,4065.64,4064.62,0
12_11_48,2,4088.72,4092.82,4100.51,4185.13,4097.95,4076.92,4062.56,4101.03,4075.38,4218.97,3890.77,4034.36,4043.59,4053.85,0
12_11_48,3,4094.87,4089.23,4102.56,4161.54,4084.1,4075.38,4059.49,4098.97,4090.26,4212.82,3903.08,4044.62,4038.46,4059.49,0
12_11_48,4,4097.95,4093.33,4105.64,4155.38,4086.67,4076.92,4061.54,4097.95,4093.33,4214.87,3928.72,4055.38,4057.44,4076.92,0
12_11_48,5,4097.95,4099.49,4108.72,4168.21,4098.46,4076.92,4063.08,4097.44,4087.18,4183.59,3941.54,4058.46,4060.51,4078.97,0
12_11_48,6,4104.1,4103.08,4106.15,4176.41,4100.51,4076.92,4062.56,4097.44,4088.72,4150.77,3942.05,4061.03,4057.95,4076.92,0
12_11_48,7,4102.05,4105.64,4098.46,4165.13,4091.28,4075.38,4064.62,4098.97,4095.38,4143.59,3943.59,4062.05,4058.46,4078.46,0
12_11_48,8,4089.23,4103.08,4094.87,4153.33,4088.72,4076.41,4067.18,4100,4090.77,4132.31,3943.59,4055.38,4046.15,4068.21,0
12_11_48,9,4086.67,4094.36,4098.46,4155.9,4089.74,4078.46,4066.15,4098.97,4083.59,4113.85,3947.18,4051.79,4040.51,4062.05,0
12_11_48,10,4093.33,4100.51,4098.46,4155.9,4089.74,4077.44,4063.59,4098.46,4090.26,4102.05,3960.51,4058.46,4054.87,4070.77,0
12_11_48,11,4095.9,4108.72,4100.51,4156.92,4093.85,4075.38,4064.1,4098.97,4094.36,4091.79,3972.31,4065.64,4056.92,4077.95,0
12_11_48,12,4097.44,4098.97,4104.62,4155.9,4094.36,4076.41,4069.23,4098.97,4093.33,4088.72,3973.85,4066.67,4043.59,4076.41,0
12_11_48,13,4094.87,4095.9,4104.1,4151.28,4086.15,4076.92,4069.23,4098.97,4091.28,4085.64,3972.31,4064.1,4034.36,4067.69,0
12_11_48,14,4089.23,4107.18,4098.46,4123.08,4085.64,4073.85,4062.56,4097.95,4082.05,4067.18,3983.59,4059.49,4027.18,4056.41,0
12_11_48,15,4091.28,4109.23,4099.49,4066.67,4092.31,4077.44,4065.64,4098.97,4080,4055.38,3992.82,4055.38,4027.69,4059.49,0
12_11_48,16,4093.33,4107.69,4102.56,4013.33,4088.21,4082.56,4071.79,4098.46,4085.13,4058.97,3987.69,4052.31,4035.9,4065.64,0
12_11_48,17,4088.72,4108.72,4098.46,3987.18,4091.79,4081.54,4067.69,4093.85,4085.13,4051.28,3993.33,4048.21,4039.49,4060,0
12_11_48,18,4090.26,4107.18,4099.49,3985.13,4109.74,4085.64,4070.26,4094.87,4089.23,4038.46,4011.79,4054.36,4055.9,4065.13,0
12_11_48,19,4090.26,4109.74,4102.05,3976.92,4104.62,4091.28,4078.97,4100.51,4096.92,4033.33,4005.13,4061.03,4083.59,4073.33,0
12_11_48,20,4083.08,4117.95,4096.92,3962.05,4086.15,4091.79,4076.92,4100,4100,4033.85,3986.15,4056.92,4100,4060.51,0
12_11_48,21,4086.15,4124.1,4096.41,3967.18,4096.92,4093.33,4074.87,4095.9,4101.54,4030.77,3997.44,4060.51,4112.31,4059.49,0
12_11_48,22,4097.44,4125.64,4103.08,3986.15,4106.15,4096.41,4079.49,4097.44,4098.97,4016.92,4013.85,4073.33,4125.13,4072.31,0
12_11_48,23,4092.31,4118.46,4097.95,3984.1,4092.31,4089.23,4075.9,4098.97,4091.28,3999.49,4008.21,4072.31,4126.15,4064.62,0
12_11_48,24,4080,4108.72,4091.28,3975.9,4087.18,4080,4068.72,4097.44,4093.33,3988.21,4001.03,4063.59,4120,4052.31,0
12_11_48,25,4083.59,4105.64,4095.38,3989.23,4091.28,4085.13,4073.33,4098.46,4098.46,3977.95,4003.59,4070.26,4117.95,4057.44,0
12_11_48,26,4090.77,4115.38,4100,4002.05,4092.31,4092.31,4077.44,4098.97,4098.97,3961.54,4013.33,4079.49,4121.54,4063.08,0
12_11_48,27,4087.18,4121.54,4097.95,4007.69,4093.85,4087.69,4075.38,4097.44,4106.67,3949.23,4021.03,4076.92,4126.15,4060.51,0
12_11_48,28,4070.77,4104.62,4091.28,4000.51,4081.54,4078.97,4070.26,4097.44,4103.59,3938.46,4007.69,4064.1,4111.28,4045.64,0
12_11_48,29,4061.03,4089.74,4086.67,3994.36,4072.82,4082.56,4069.74,4098.46,4089.74,3926.15,4002.05,4056.41,4097.95,4034.36,0
12_11_48,30,4068.21,4105.13,4088.72,4009.74,4086.67,4091.79,4074.87,4098.97,4088.72,3918.46,4027.18,4064.1,4114.36,4045.13,0
12_11_48,31,4070.26,4113.33,4089.74,4018.97,4089.74,4090.26,4075.38,4098.46,4094.36,3913.33,4040.51,4065.64,4123.08,4050.26,0
12_11_48,32,4060.51,4095.38,4088.21,4015.9,4079.49,4083.08,4067.69,4097.95,4092.31,3911.79,4026.15,4058.46,4107.18,4038.46,0
12_11_48,33,4062.05,4092.31,4090.26,4031.79,4087.69,4080,4068.21,4097.44,4094.87,3908.72,4026.67,4063.59,4103.08,4038.97,0
12_11_48,34,4070.77,4107.69,4091.28,4036.92,4094.87,4085.64,4077.44,4098.97,4105.13,3899.49,4040,4069.23,4110.26,4046.15,0
12_11_48,35,4067.18,4109.74,4092.31,4021.54,4082.05,4091.79,4078.46,4099.49,4106.67,3891.79,4036.41,4061.54,4103.59,4043.08,0
12_11_48,36,4064.1,4105.64,4095.9,4020.51,4077.95,4091.28,4073.85,4098.46,4100,3888.21,4030.26,4059.49,4090.77,4042.05,0
12_11_48,37,4067.18,4105.13,4095.9,4003.59,4087.69,4087.69,4073.85,4097.95,4100.51,3886.15,4040,4065.64,4088.72,4044.1,0
12_11_48,38,4069.74,4103.08,4091.79,3964.1,4092.82,4087.69,4077.44,4097.95,4106.15,3887.69,4054.87,4067.69,4092.31,4043.59,0
12_11_48,39,4073.33,4105.13,4094.36,3958.46,4093.85,4091.28,4076.92,4098.46,4108.72,3894.36,4065.13,4071.28,4091.28,4048.72,0
12_11_48,40,4078.97,4110.26,4097.95,3986.15,4096.41,4094.36,4074.87,4095.38,4108.72,3896.41,4071.79,4076.92,4093.85,4055.9,0
12_11_48,41,4082.05,4111.28,4096.41,4001.54,4094.36,4094.36,4078.97,4094.36,4106.15,3892.31,4081.54,4076.92,4106.67,4058.97,0
12_11_48,42,4081.54,4109.23,4093.85,3994.36,4088.72,4092.82,4084.62,4098.46,4103.59,3886.67,4093.33,4074.87,4110.77,4058.97,0
12_11_48,43,4076.92,4109.23,4094.36,3988.21,4091.28,4091.79,4082.56,4100,4104.1,3880.51,4096.41,4073.85,4098.97,4052.82,0
12_11_48,44,4072.82,4108.72,4094.36,3999.49,4092.31,4084.62,4075.38,4098.46,4105.13,3877.95,4090.77,4071.79,4088.21,4045.64,0
12_11_48,45,4077.95,4109.23,4096.41,4016.92,4092.82,4081.03,4073.33,4098.97,4105.13,3885.13,4098.46,4076.92,4089.23,4048.72,0
12_11_48,46,4086.67,4109.23,4098.97,4025.13,4097.44,4089.23,4076.41,4098.97,4106.67,3894.36,4119.49,4086.67,4089.74,4052.82,0
12_11_48,47,4087.18,4105.13,4097.44,4028.21,4093.33,4091.79,4076.41,4096.92,4102.05,3888.21,4126.67,4087.18,4081.03,4051.79,0
12_11_48,48,4077.44,4107.18,4093.85,4023.59,4083.08,4082.56,4069.23,4097.95,4090.26,3875.38,4120,4079.49,4070.77,4052.82,0
12_11_48,49,4073.85,4113.33,4094.87,4011.79,4083.59,4080,4063.59,4098.97,4093.33,3875.38,4126.15,4081.03,4069.74,4056.92,0
12_11_48,50,4078.97,4111.28,4097.95,4017.44,4090.77,4087.69,4069.23,4097.95,4102.56,3882.56,4137.95,4085.13,4069.23,4058.97,0
12_11_48,51,4078.97,4101.54,4097.95,4029.74,4091.28,4091.79,4077.44,4098.46,4100,3882.56,4140,4078.46,4058.46,4057.95,0
12_11_48,52,4076.92,4104.62,4095.9,4031.79,4096.92,4090.26,4077.95,4098.46,4093.33,3878.46,4145.64,4073.85,4057.95,4057.44,0
12_11_48,53,4085.64,4113.85,4098.97,4043.08,4101.03,4090.26,4077.95,4098.46,4094.36,3887.18,4156.92,4081.03,4074.87,4061.03,0
12_11_48,54,4094.87,4102.56,4103.08,4055.38,4082.05,4091.79,4078.46,4098.97,4101.03,3892.82,4157.95,4086.67,4074.36,4061.54,0
12_11_48,55,4085.64,4092.31,4098.46,4038.97,4075.38,4087.18,4073.85,4098.97,4104.62,3878.97,4154.36,4080.51,4054.87,4053.85,0
12_11_48,56,4075.38,4103.59,4092.82,4028.21,4096.92,4084.62,4072.82,4100.51,4098.97,3876.92,4160.51,4076.41,4056.92,4051.28,0
12_11_48,57,4083.59,4114.87,4096.41,4052.82,4103.08,4090.77,4077.95,4097.95,4092.82,3896.41,4175.9,4084.1,4077.95,4065.64,0
12_11_48,58,4090.77,4112.31,4100.51,4066.15,4092.31,4090.26,4077.44,4093.85,4095.38,3899.49,4187.69,4090.77,4082.05,4074.87,0
12_11_48,59,4090.77,4111.28,4098.97,4058.46,4093.85,4084.1,4073.85,4097.44,4097.44,3890.26,4188.21,4092.31,4078.97,4069.23,0
12_11_48,60,4090.77,4106.67,4097.44,4064.1,4091.79,4085.64,4081.03,4101.54,4097.95,3895.38,4186.15,4091.28,4080,4065.64,0
12_11_48,61,4092.31,4103.08,4100,4075.38,4085.13,4090.77,4091.28,4098.97,4110.77,3907.18,4196.41,4091.28,4081.03,4072.31,0
12_11_48,62,4100.51,4121.03,4106.15,4081.54,4103.08,4097.95,4092.82,4096.41,4120.51,3911.28,4211.79,4100,4086.67,4085.13,0
12_11_48,63,4110.26,4133.85,4108.72,4084.1,4117.44,4104.62,4092.31,4098.46,4112.82,3913.33,4215.9,4110.77,4094.87,4088.72,0
12_11_48,64,4109.23,4128.21,4103.08,4081.54,4109.74,4104.62,4096.92,4097.95,4104.1,3910.26,4208.21,4107.18,4093.33,4081.54,0
12_11_48,65,4101.03,4118.97,4098.97,4084.1,4102.56,4099.49,4094.36,4096.92,4102.56,3902.05,4201.54,4094.87,4086.67,4071.79,0
12_11_48,66,4098.97,4113.33,4101.54,4090.77,4095.38,4091.79,4082.05,4097.95,4098.46,3894.36,4202.05,4093.85,4080.51,4070.77,0
12_11_48,67,4093.33,4107.18,4099.49,4084.1,4086.67,4089.23,4081.03,4098.46,4090.77,3891.28,4196.92,4090.77,4068.21,4068.21,0
12_11_48,68,4085.64,4102.56,4095.9,4071.28,4088.72,4091.79,4089.23,4097.95,4091.28,3890.77,4183.59,4077.44,4053.85,4056.41,0
12_11_48,69,4088.21,4105.64,4098.97,4075.38,4095.9,4090.77,4089.23,4096.92,4097.44,3894.36,4181.54,4074.36,4053.33,4054.36,0
12_11_48,70,4088.72,4102.56,4098.97,4082.05,4093.33,4085.13,4080.51,4098.46,4095.9,3898.97,4186.67,4078.46,4055.9,4056.92,0
12_11_48,71,4083.08,4094.87,4095.38,4075.9,4090.26,4086.15,4077.95,4098.97,4089.23,3895.38,4183.59,4075.38,4048.21,4054.87,0
12_11_48,72,4089.74,4098.97,4100.51,4083.08,4090.77,4091.28,4083.59,4096.92,4087.69,3891.28,4188.21,4078.97,4049.23,4061.03,0
12_11_48,73,4097.95,4105.64,4103.59,4094.87,4088.72,4090.26,4085.13,4096.41,4093.85,3896.41,4196.92,4091.28,4056.92,4066.67,0
12_11_48,73,4097.95,4105.64,4103.59,4094.87,4088.72,4090.26,4085.13,4096.41,4093.85,3896.41,4196.92,4091.28,4056.92,4066.67,0
12_11_48,74,4093.33,4102.56,4097.44,4092.82,4095.9,4091.28,4087.69,4096.92,4095.9,3901.54,4190.26,4092.31,4054.87,4061.54,0
12_11_48,75,4096.41,4104.62,4097.95,4097.44,4108.72,4093.85,4089.74,4096.92,4091.79,3898.97,4190.26,4090.26,4053.85,4065.13,0
12_11_48,76,4102.56,4111.28,4102.05,4105.13,4103.59,4091.28,4086.67,4096.92,4089.74,3895.9,4196.41,4092.82,4054.36,4073.33,0
12_11_48,77,4096.92,4106.15,4100,4098.46,4093.33,4089.23,4087.69,4096.92,4089.23,3901.03,4194.36,4092.82,4046.15,4070.26,0
12_11_48,86,4108.72,4111.79,4104.1,4128.21,4100,4093.85,4090.26,4096.92,4095.38,3921.03,4201.03,4108.21,4058.46,4085.64,0
12_11_48,87,4107.69,4103.08,4106.15,4140.51,4098.97,4101.54,4094.87,4096.41,4101.54,3928.72,4201.54,4102.56,4050.26,4083.59,0
12_11_48,88,4106.15,4106.67,4107.18,4132.31,4105.64,4103.59,4098.97,4096.92,4109.74,3930.26,4201.03,4106.15,4050.26,4087.69,0
12_11_48,89,4101.54,4110.77,4104.1,4113.85,4104.1,4101.03,4097.95,4099.49,4102.05,3929.74,4200.51,4104.62,4049.23,4088.72,0
12_11_48,90,4098.97,4098.46,4103.08,4116.41,4097.44,4096.41,4094.87,4100,4090.26,3926.67,4191.79,4092.82,4042.05,4082.05,0
12_11_48,91,4101.03,4089.74,4106.67,4126.67,4092.82,4094.87,4089.74,4098.97,4091.79,3923.59,4187.69,4092.31,4043.08,4078.46,0
12_11_48,92,4093.33,4093.85,4106.15,4121.03,4092.82,4091.79,4083.08,4099.49,4097.44,3925.64,4193.85,4096.41,4045.13,4077.44,0
12_11_48,93,4090.77,4093.85,4101.54,4118.46,4101.03,4094.36,4086.67,4099.49,4098.97,3928.72,4196.41,4092.31,4044.1,4074.36,0
12_11_48,94,4105.64,4092.31,4104.62,4133.33,4110.26,4103.59,4097.44,4098.46,4099.49,3927.69,4195.9,4094.36,4047.69,4075.9,0
12_11_48,95,4109.23,4103.08,4107.69,4143.59,4112.31,4109.23,4097.44,4098.46,4094.36,3925.64,4197.44,4097.44,4045.64,4076.41,0
12_11_48,96,4098.97,4111.79,4104.62,4135.9,4105.64,4106.15,4092.82,4098.46,4090.26,3930.26,4194.87,4092.82,4035.9,4073.85,0
12_11_48,97,4098.97,4102.05,4101.54,4129.74,4092.31,4100,4091.79,4098.46,4093.33,3935.9,4187.69,4091.79,4033.85,4074.87,0
12_11_48,98,4101.54,4094.87,4104.1,4134.36,4093.85,4097.44,4089.23,4098.46,4094.87,3939.49,4193.33,4096.92,4041.54,4077.95,0
12_11_48,99,4095.9,4102.05,4106.15,4143.59,4108.72,4095.38,4080,4098.46,4094.87,3940.51,4201.03,4095.38,4043.59,4077.95,0
12_11_49,100,4092.31,4104.62,4104.62,4141.03,4104.62,4093.33,4076.92,4098.46,4095.9,3933.33,4191.28,4088.21,4040.51,4074.87,0
12_11_49,101,4092.82,4095.9,4101.54,4128.21,4085.64,4091.79,4081.54,4098.46,4094.36,3927.69,4183.59,4084.1,4035.38,4071.79,0
12_11_49,102,4091.79,4095.9,4101.54,4130.77,4085.64,4090.77,4080,4098.46,4090.77,3935.38,4183.59,4077.95,4030.26,4068.21,0
12_11_49,103,4090.77,4105.13,4100,4130.77,4106.15,4098.46,4081.54,4098.46,4091.28,3943.08,4182.56,4072.82,4034.36,4065.13,0
12_11_49,104,4089.74,4104.1,4097.95,4103.59,4111.79,4103.59,4088.72,4098.46,4093.33,3942.05,4186.15,4076.92,4038.97,4068.21,0
12_11_49,105,4094.36,4094.87,4103.59,4090.26,4101.03,4095.38,4086.67,4098.46,4092.82,3942.05,4188.72,4085.64,4032.82,4072.31,0
12_11_49,106,4099.49,4091.28,4108.72,4100.51,4100,4091.28,4078.46,4098.46,4092.31,3943.08,4185.13,4091.28,4027.69,4074.87,0
12_11_49,107,4095.9,4096.41,4104.62,4097.95,4104.1,4100,4080,4098.46,4092.31,3941.54,4187.69,4090.77,4033.85,4076.41,0
12_11_49,108,4086.15,4091.79,4100.51,4087.18,4098.46,4108.21,4087.18,4098.46,4087.69,3936.92,4187.69,4087.69,4029.23,4070.77,0
12_11_49,109,4081.54,4079.49,4098.46,4087.69,4088.72,4107.18,4085.64,4098.46,4083.59,3935.38,4174.36,4077.95,4012.31,4059.49,0
12_11_49,110,4083.59,4084.1,4096.92,4094.87,4090.77,4099.49,4080,4098.46,4089.74,3945.64,4171.28,4070.26,4012.82,4057.44,0
12_11_49,111,4091.28,4098.46,4101.54,4102.56,4101.03,4097.95,4083.08,4098.46,4102.05,3956.41,4182.05,4077.95,4027.18,4067.18,0
12_11_49,112,4100.51,4107.18,4104.62,4102.05,4110.26,4106.67,4093.33,4097.95,4107.69,3964.62,4192.82,4093.33,4040,4081.54,0
12_11_49,113,4108.72,4112.31,4106.15,4098.97,4110.77,4112.31,4096.41,4098.46,4104.62,3973.85,4202.05,4104.62,4046.15,4091.79,0
12_11_49,114,4109.74,4109.23,4109.74,4109.23,4101.03,4106.67,4090.26,4098.46,4100,3968.21,4200,4105.13,4038.97,4088.72,0
12_11_49,115,4100.51,4095.38,4108.21,4110.77,4097.95,4097.44,4089.74,4097.44,4093.85,3946.67,4178.97,4095.9,4023.08,4074.87,0
12_11_49,116,4091.28,4090.77,4102.05,4100,4107.18,4094.36,4088.72,4096.92,4086.15,3936.41,4165.13,4089.74,4019.49,4067.18,0
12_11_49,117,4091.28,4098.97,4104.62,4101.03,4111.28,4100,4083.59,4098.46,4084.62,3938.46,4172.82,4089.74,4026.15,4069.74,0
12_11_49,118,4092.31,4099.49,4107.69,4107.18,4105.64,4108.21,4086.67,4098.97,4096.92,3949.74,4182.05,4088.21,4029.74,4073.33,0
12_11_49,119,4091.28,4093.85,4106.15,4106.67,4105.64,4106.67,4094.36,4097.95,4112.31,3973.85,4183.59,4087.69,4033.85,4075.38,0
12_11_49,120,4092.31,4093.85,4107.18,4102.56,4103.59,4100.51,4092.31,4098.97,4111.28,3986.15,4188.21,4099.49,4040.51,4079.49,0
12_11_49,121,4091.28,4085.13,4106.15,4096.92,4089.74,4095.9,4088.72,4099.49,4101.54,3980.51,4192.82,4102.05,4042.05,4081.54,0
12_11_49,122,4081.03,4067.69,4100,4092.31,4085.64,4095.9,4092.31,4098.97,4096.41,3973.85,4182.05,4087.69,4034.87,4075.38,0
12_11_49,123,4080,4075.9,4100,4092.31,4097.95,4100.51,4092.31,4098.46,4095.38,3968.21,4170.77,4083.08,4036.41,4073.85,0
12_11_49,124,4089.74,4095.9,4103.08,4095.38,4103.59,4097.95,4088.21,4098.97,4088.72,3954.36,4164.62,4090.26,4050.77,4077.44,0
12_11_49,125,4090.77,4084.62,4103.08,4098.97,4096.41,4093.33,4090.26,4098.97,4085.13,3932.82,4147.69,4090.77,4064.1,4072.82,0
12_11_49,126,4084.1,4072.31,4103.59,4097.95,4090.26,4094.36,4093.33,4098.46,4087.18,3920,4133.85,4088.21,4075.38,4065.64,0
12_11_49,127,4080,4076.41,4102.56,4087.69,4088.72,4093.85,4090.77,4098.46,4091.28,3931.79,4136.41,4091.79,4087.69,4062.05,0
12_11_49,128,4077.95,4068.21,4100,4086.67,4087.18,4093.33,4091.28,4098.97,4098.46,3958.46,4144.1,4092.31,4101.54,4060,0
12_11_49,0,4076.41,4062.56,4099.49,4094.36,4088.72,4095.38,4092.31,4098.46,4101.03,3978.46,4149.74,4092.31,4110.26,4060,0
12_11_49,1,4075.38,4072.82,4100.51,4089.23,4089.23,4091.28,4084.62,4098.46,4103.59,3990.26,4152.82,4092.31,4108.72,4060,0
12_11_49,2,4074.87,4077.44,4097.44,4082.56,4084.1,4088.21,4083.08,4098.46,4106.67,3990.26,4149.23,4089.74,4107.18,4059.49,0
12_11_49,3,4077.44,4074.36,4096.92,4092.31,4083.08,4098.97,4094.36,4098.46,4101.54,3978.97,4146.15,4088.72,4107.18,4058.46,0
12_11_49,4,4074.36,4070.26,4098.46,4092.31,4080,4097.44,4091.28,4098.46,4090.77,3974.87,4143.59,4085.13,4094.36,4049.74,0
12_11_49,5,4068.72,4068.21,4097.44,4085.64,4072.82,4083.08,4078.46,4098.46,4090.26,3978.46,4136.41,4084.1,4081.54,4046.67,0
12_11_49,6,4072.82,4071.79,4096.41,4098.97,4080,4089.74,4084.1,4098.46,4094.36,3982.56,4134.87,4089.23,4094.87,4059.49,0
12_11_49,7,4079.49,4080,4099.49,4105.13,4095.9,4106.15,4097.44,4098.46,4092.82,3982.05,4138.46,4096.92,4101.54,4065.13,0
12_11_49,8,4078.46,4082.56,4101.03,4093.85,4090.26,4101.03,4090.77,4098.46,4092.82,3979.49,4141.54,4102.05,4085.13,4056.92,0
12_11_49,9,4076.92,4066.67,4100,4089.74,4062.56,4086.15,4078.46,4098.46,4087.69,3972.82,4136.92,4104.1,4076.41,4058.46,0
12_11_49,10,4085.13,4057.44,4102.05,4095.38,4069.74,4091.79,4082.56,4097.95,4083.59,3969.74,4121.03,4114.87,4077.44,4061.54,0
12_11_49,11,4091.79,4086.15,4103.59,4111.28,4108.21,4103.59,4093.85,4098.46,4091.79,3972.82,4117.44,4125.13,4072.82,4058.46,0
12_11_49,12,4083.59,4101.03,4100.51,4112.31,4101.03,4098.46,4094.36,4098.97,4096.92,3979.49,4148.72,4109.74,4079.49,4064.62,0
12_11_49,13,4073.85,4062.05,4096.92,4081.54,4065.13,4087.18,4084.62,4096.92,4089.23,3975.38,4153.85,4092.31,4085.13,4061.54,0
12_11_49,14,4075.9,4047.18,4097.95,4074.87,4069.23,4093.33,4084.1,4096.92,4087.18,3964.62,4112.82,4107.69,4062.56,4054.36,0
12_11_49,15,4075.9,4076.41,4101.03,4091.28,4079.49,4097.95,4090.26,4099.49,4094.36,3978.46,4095.38,4120.51,4060,4052.82,0
12_11_49,16,4076.92,4078.97,4098.97,4095.38,4062.05,4084.62,4083.08,4099.49,4094.87,4003.08,4103.59,4123.59,4050.26,4035.9,0
12_11_49,17,4083.08,4057.44,4096.92,4089.74,4058.97,4082.05,4072.82,4098.46,4091.79,3993.85,4118.46,4127.18,4018.46,4027.69,0
12_11_49,18,4068.21,4033.33,4105.13,4052.82,4058.97,4089.23,4073.85,4098.46,4092.82,3968.72,4129.74,4109.74,4050.77,4047.18,0
12_11_49,19,4045.13,4029.23,4109.23,4035.9,4052.31,4085.13,4077.44,4098.97,4092.31,3969.74,4115.9,4098.97,4093.33,4045.64,0
12_11_49,20,4045.64,4066.15,4097.44,4106.67,4081.03,4083.08,4073.33,4098.46,4090.77,3980.51,4123.59,4110.26,4051.28,4033.85,0
12_11_49,21,4061.03,4075.38,4095.38,4145.13,4093.85,4088.72,4076.41,4098.46,4093.33,3973.33,4136.92,4123.59,4012.31,4031.79,0
12_11_49,22,4070.26,4037.44,4108.72,4083.08,4066.15,4086.15,4081.03,4098.97,4096.92,3965.64,4094.87,4131.28,4042.56,4001.03,0
12_11_49,23,4057.95,4047.69,4098.46,4068.72,4067.18,4078.97,4075.38,4098.46,4093.33,3971.28,4090.26,4108.21,4077.44,3999.49,0
12_11_49,24,4036.41,4075.9,4085.64,4111.28,4077.95,4084.62,4073.33,4098.46,4088.21,3975.9,4155.9,4089.23,4060.51,4029.23,0
12_11_49,25,4036.41,4016.92,4108.21,4099.49,4053.33,4089.23,4076.92,4098.46,4094.87,3972.82,4157.44,4117.44,4032.31,4013.33,0
12_11_49,26,4053.33,3993.33,4118.97,4102.56,4063.59,4090.26,4078.97,4098.46,4106.67,3974.36,4120,4126.67,4061.54,3996.41,0
12_11_49,27,4044.62,4054.87,4097.95,4122.05,4086.67,4090.77,4081.54,4097.95,4104.1,3974.36,4117.95,4090.26,4129.74,4017.95,0
12_11_49,28,4024.1,4013.85,4101.54,4039.49,4033.33,4074.36,4079.49,4097.44,4089.74,3973.33,4101.03,4086.15,4157.95,4009.23,0
12_11_49,29,4026.67,3937.44,4117.95,3991.28,4027.18,4064.62,4072.31,4097.44,4085.64,3970.26,4086.15,4109.74,4161.54,3974.87,0
12_11_49,30,4023.08,4024.1,4105.13,4096.92,4108.72,4084.1,4081.03,4097.44,4100.51,3950.77,4107.69,4104.1,4198.46,4001.54,0
12_11_49,31,4013.85,4128.72,4089.74,4155.9,4128.21,4100,4096.92,4097.44,4107.18,3942.05,4156.41,4068.72,4282.56,4080,0
12_11_49,32,4017.44,4074.36,4094.36,4064.62,4096.41,4084.62,4085.13,4097.44,4088.72,3937.44,4171.28,4044.1,4337.44,4087.69,0
12_11_49,33,4025.13,3994.36,4104.1,4010.26,4073.85,4068.72,4063.08,4097.44,4080,3913.85,4109.23,4073.33,4292.31,3986.67,0
12_11_49,34,4011.28,4010.26,4117.44,4044.1,4066.67,4078.97,4066.67,4099.49,4095.9,3913.85,4095.38,4089.23,4285.64,3968.21,0
12_11_49,35,3977.44,4081.54,4120,4029.74,4095.9,4089.74,4076.41,4100.51,4097.95,3939.49,4162.56,4040.51,4388.21,4067.18,0
12_11_49,36,3973.33,4157.44,4096.41,4015.38,4133.33,4094.36,4073.85,4098.97,4088.21,3933.85,4191.28,4023.59,4425.64,4079.49,0
12_11_49,37,4012.82,4241.03,4076.41,4088.72,4141.54,4104.1,4077.44,4097.95,4098.97,3913.85,4184.62,4060,4388.21,4040.51,0
12_11_49,38,4052.82,4336.92,4084.62,4170.26,4155.9,4111.28,4083.59,4097.95,4113.85,3931.28,4225.64,4066.15,4434.36,4071.79,0
12_11_49,39,4033.33,4383.08,4094.87,4167.18,4155.9,4106.15,4079.49,4097.44,4103.08,3936.41,4246.15,4057.44,4478.46,4072.82,0
12_11_49,40,3990.77,4392.82,4085.13,4138.97,4135.9,4103.59,4076.92,4097.44,4089.23,3924.62,4217.44,4061.03,4462.56,4033.33,0
12_11_49,41,3985.13,4489.23,4072.82,4163.08,4158.97,4109.74,4083.08,4097.44,4101.03,3938.97,4224.62,4047.69,4510.26,4060,0
12_11_49,42,3996.41,4622.05,4053.33,4192.82,4178.46,4102.05,4080,4097.44,4114.36,3954.87,4268.72,4046.15,4569.74,4063.08,0
12_11_49,43,3986.67,4664.1,4027.69,4182.05,4176.41,4084.62,4064.62,4097.44,4100,3946.15,4289.74,4047.18,4555.9,4024.62,0
12_11_49,44,3972.31,4723.08,4017.44,4183.08,4236.41,4091.79,4062.56,4097.44,4090.26,3935.9,4273.33,4022.56,4575.9,4058.97,0
12_11_49,45,3986.67,4855.9,4033.85,4221.03,4300,4107.18,4072.31,4097.44,4105.64,3943.08,4261.54,4016.92,4648.72,4100.51,0
12_11_49,46,3998.46,4951.79,4067.18,4227.18,4344.1,4108.72,4074.36,4097.44,4114.87,3957.95,4257.95,4044.1,4670.77,4086.67,0
12_11_49,47,3992.31,4996.92,4093.33,4202.05,4425.64,4112.82,4075.9,4097.44,4113.85,3969.74,4264.62,4067.18,4681.03,4073.85,0
12_11_49,48,3991.28,5058.46,4092.31,4223.59,4488.72,4119.49,4082.05,4097.95,4113.33,3977.44,4301.03,4062.05,4724.1,4075.38,0
12_11_49,49,3995.38,5124.62,4090.26,4262.56,4472.31,4110.26,4072.82,4096.92,4110.26,3997.44,4322.05,4039.49,4748.72,4078.46,0
12_11_49,50,3987.69,5172.82,4109.23,4263.08,4443.08,4102.05,4062.05,4095.9,4108.21,4014.87,4304.62,4032.82,4754.87,4093.33,0
12_11_49,51,3987.69,5250.77,4118.97,4255.9,4445.64,4111.28,4073.85,4096.92,4113.33,4005.13,4292.31,4064.1,4768.72,4102.05,0
12_11_49,52,3998.46,5315.38,4117.44,4245.13,4426.67,4109.74,4081.03,4100.51,4115.38,4012.82,4306.15,4077.95,4792.31,4101.03,0
12_11_49,53,3974.87,5342.56,4127.18,4246.67,4425.13,4102.05,4073.85,4099.49,4118.97,4025.13,4326.67,4056.41,4809.74,4104.62,0
12_11_49,54,3951.28,5401.54,4132.82,4269.74,4472.82,4108.72,4078.46,4094.87,4132.82,4007.18,4324.1,4062.56,4833.85,4097.44,0
12_11_49,55,3966.15,5489.74,4119.49,4278.97,4483.59,4112.31,4078.97,4095.38,4132.31,4014.87,4315.38,4072.82,4872.31,4115.9,0
12_11_49,56,3979.49,5565.13,4110.26,4296.92,4443.08,4115.9,4066.15,4100,4123.08,4051.28,4323.08,4051.79,4894.87,4138.97,0
12_11_49,57,3976.41,5617.95,4127.18,4301.54,4392.31,4129.74,4060,4098.97,4128.21,4049.23,4323.08,4040,4887.18,4103.08,0
12_11_49,58,3988.72,5682.56,4146.15,4294.36,4370.77,4136.92,4064.62,4095.9,4137.95,4034.36,4314.36,4034.36,4907.69,4091.79,0
12_11_49,59,3985.13,5734.87,4134.36,4313.85,4356.92,4125.64,4058.97,4098.46,4130.26,4026.67,4298.97,4021.03,4946.67,4121.54,0
12_11_49,60,3939.49,5734.87,4108.72,4308.21,4320,4099.49,4025.13,4099.49,4102.56,3995.38,4268.72,3990.77,4940.51,4108.21,0
12_11_49,61,3902.56,5712.31,4098.97,4269.74,4285.13,4069.23,3982.56,4097.44,4077.44,3968.72,4234.36,3939.49,4946.15,4050.26,0
12_11_49,62,3875.9,5734.87,4100,4264.1,4286.15,4060.51,3987.18,4097.44,4076.41,3970.77,4223.08,3922.05,4992.31,4014.36,0
12_11_49,63,3872.31,5830.26,4094.87,4288.72,4285.13,4077.44,4024.1,4099.49,4096.41,3978.97,4237.44,3952.82,5016.41,4025.13,0
12_11_49,64,3906.67,5908.72,4110.77,4285.64,4252.82,4091.28,4029.74,4097.95,4105.13,3996.41,4243.59,3959.49,5023.08,4072.82,0
12_11_49,65,3917.95,5935.38,4144.1,4292.82,4226.67,4096.41,4016.92,4093.85,4107.69,4022.56,4246.15,3941.54,5058.97,4099.49,0
12_11_49,66,3898.46,5957.95,4153.33,4306.15,4205.13,4096.92,4014.36,4092.31,4119.49,4023.59,4256.92,3952.31,5063.08,4073.33,0
12_11_49,67,3909.23,6001.03,4136.92,4305.64,4191.79,4094.36,4005.64,4095.38,4117.95,4013.33,4280.51,3953.85,5013.85,4073.33,0
12_11_49,68,3929.23,6080,4120.51,4350.77,4192.31,4096.92,4000,4097.95,4114.87,4024.1,4299.49,3933.33,5005.13,4099.49,0
12_11_49,69,3921.03,6133.33,4120.51,4374.36,4146.67,4096.92,4004.1,4098.97,4120.51,4027.69,4256.92,3947.69,5002.05,4091.79,0
12_11_49,70,3929.74,6134.36,4127.69,4333.85,4088.21,4090.26,3993.85,4097.44,4113.85,4022.05,4215.38,3961.54,4973.33,4085.64,0
12_11_49,71,3934.36,6164.1,4127.18,4328.21,4077.95,4086.67,3981.03,4095.9,4107.18,4024.62,4245.64,3938.97,4964.1,4084.62,0
12_11_49,72,3906.67,6255.9,4116.41,4395.38,4096.92,4095.9,3990.77,4097.95,4118.97,4036.41,4287.18,3933.33,4969.74,4086.15,0
12_11_49,73,3913.85,6299.49,4115.9,4417.95,4102.56,4106.15,3998.97,4100.51,4123.59,4054.36,4269.74,3945.64,4970.26,4115.38,0
12_11_49,74,3962.05,6270.77,4130.77,4356.41,4082.05,4105.64,3991.28,4095.9,4125.13,4042.05,4231.79,3953.85,4957.44,4124.62,0
12_11_49,75,3985.64,6293.33,4140,4336.92,4085.64,4109.74,3991.79,4094.36,4143.59,4024.62,4250.77,3964.62,4945.13,4109.23,0
12_11_49,76,3965.64,6355.38,4131.79,4383.59,4132.31,4122.56,4000.51,4097.44,4155.38,4065.13,4295.38,3965.64,4951.28,4128.72,0
12_11_49,77,3958.97,6373.85,4121.54,4422.05,4156.41,4126.15,4003.08,4096.92,4161.54,4108.72,4309.23,3953.85,4975.9,4165.13,0
12_11_49,78,3985.64,6346.67,4126.67,4378.97,4130.26,4120,3999.49,4097.44,4162.05,4083.08,4291.28,3963.08,4965.13,4164.62,0
12_11_49,79,3989.74,6318.46,4136.92,4321.54,4112.31,4115.38,3992.31,4100.51,4143.08,4054.87,4272.31,3975.9,4923.08,4140.51,0
12_11_49,80,3972.31,6342.56,4135.38,4358.97,4132.82,4117.95,3992.82,4098.97,4137.95,4072.31,4267.69,3965.13,4898.46,4140,0
12_11_49,81,3993.33,6367.18,4145.64,4393.85,4144.62,4128.21,4001.03,4097.95,4152.82,4082.56,4269.74,3970.26,4889.23,4169.74,0
12_11_49,82,4023.59,6368.21,4155.9,4370.26,4145.64,4141.54,4012.31,4098.97,4159.49,4094.87,4298.97,3975.9,4909.23,4199.49,0
12_11_49,83,4019.49,6370.26,4146.67,4356.92,4129.23,4141.54,4023.08,4096.41,4152.82,4098.46,4309.74,3963.08,4912.82,4192.31,0
12_11_49,84,4007.69,6334.87,4148.21,4347.18,4100,4129.74,4030.77,4094.87,4144.1,4069.74,4289.74,3969.74,4858.97,4164.62,0
12_11_49,85,4007.18,6297.95,4148.21,4330.77,4110.77,4131.28,4031.79,4097.95,4143.59,4070.77,4280,3971.79,4832.31,4172.82,0
12_11_49,86,4027.69,6306.67,4141.03,4335.38,4135.9,4133.33,4031.28,4098.46,4151.28,4108.72,4275.38,3953.85,4841.03,4200.51,0
12_11_49,87,4048.72,6317.44,4189.23,4333.85,4128.21,4130.77,4031.28,4098.46,4156.92,4116.92,4280,3958.97,4817.95,4192.82,0
12_11_49,88,4040,6271.28,4267.69,4306.15,4096.41,4130.77,4029.74,4097.44,4150.77,4084.1,4278.97,3985.13,4775.38,4164.1,0
12_11_49,89,4051.79,6206.15,4286.67,4278.97,4078.97,4125.64,4028.72,4091.79,4143.08,4077.95,4267.69,3992.31,4756.41,4184.62,0
12_11_49,90,4081.54,6201.54,4264.62,4262.56,4085.13,4117.95,4031.79,4092.31,4138.97,4087.18,4264.62,4010.26,4729.23,4195.38,0
12_11_49,91,4081.03,6260,4253.33,4293.85,4117.44,4129.74,4039.49,4095.9,4143.59,4079.49,4253.85,4054.36,4706.67,4158.97,0
12_11_49,92,4097.44,6295.38,4246.15,4341.54,4129.74,4143.59,4041.03,4095.9,4152.31,4087.69,4250.26,4033.85,4745.13,4207.18,0
12_11_49,93,4162.56,6254.36,4246.15,4325.13,4100.51,4131.28,4034.87,4097.95,4149.74,4100,4296.92,3969.23,4778.46,4306.15,0
12_11_49,94,4189.74,6211.79,4252.82,4291.28,4103.08,4122.05,4034.87,4098.46,4147.18,4098.97,4330.26,3971.28,4743.59,4325.64,0
12_11_50,95,4174.36,6227.69,4240,4284.1,4106.67,4122.05,4036.92,4096.41,4144.62,4076.92,4278.97,4007.18,4680.51,4301.03,0
12_11_50,96,4167.69,6238.97,4230.77,4280.51,4076.41,4116.92,4032.31,4096.92,4139.49,4048.72,4220,4024.1,4630.77,4262.05,0
12_11_50,97,4185.64,6195.38,4233.85,4268.72,4076.41,4113.85,4028.72,4098.46,4148.21,4053.85,4245.64,4021.54,4627.18,4242.05,0
12_11_50,98,4203.08,6146.67,4236.92,4249.74,4109.23,4120,4036.41,4095.9,4170.26,4068.21,4252.82,4010.77,4637.44,4289.74,0
12_11_50,99,4176.41,6171.28,4228.21,4274.36,4112.82,4131.28,4049.74,4096.41,4189.23,4062.56,4229.74,4023.59,4598.97,4292.31,0
12_11_50,100,4168.21,6181.03,4220,4302.56,4071.28,4124.62,4045.64,4098.97,4201.03,4043.59,4221.03,4037.44,4541.54,4211.79,0
12_11_50,101,4212.82,6121.03,4228.21,4251.28,4047.18,4114.36,4035.38,4097.44,4211.79,4034.87,4169.23,4021.54,4527.69,4217.44,0
12_11_50,102,4250.26,6116.92,4237.44,4247.18,4087.18,4125.64,4046.15,4096.92,4223.08,4048.72,4182.56,3994.36,4563.08,4308.21,0
12_11_50,103,4264.1,6204.62,4229.23,4346.67,4133.33,4141.54,4061.54,4096.41,4240.51,4089.74,4296.92,3992.82,4604.1,4343.59,0
12_11_50,104,4268.21,6233.33,4217.95,4342.05,4106.15,4139.49,4061.03,4097.44,4249.74,4114.36,4304.62,4009.23,4596.92,4330.77,0
12_11_50,105,4268.72,6172.82,4222.56,4250.77,4078.46,4129.74,4057.95,4098.46,4246.67,4096.92,4203.59,4020,4553.85,4318.46,0
12_11_50,106,4277.95,6178.46,4229.74,4293.85,4090.77,4128.72,4063.59,4099.49,4249.74,4084.1,4210.26,4010.77,4554.87,4337.44,0
12_11_50,107,4302.05,6240,4226.67,4334.36,4077.44,4125.13,4062.05,4099.49,4261.03,4081.03,4256.41,3990.77,4567.18,4371.79,0
12_11_50,108,4320,6209.23,4232.82,4231.28,4060,4114.87,4049.74,4098.97,4288.21,4078.97,4200.51,3993.85,4526.67,4357.95,0
12_11_50,109,4337.95,6176.41,4245.64,4221.03,4086.15,4110.26,4049.74,4098.46,4326.67,4081.54,4177.95,3994.87,4493.85,4337.95,0
12_11_50,110,4348.72,6258.97,4235.9,4318.46,4104.1,4120,4056.92,4097.44,4347.18,4091.79,4205.13,4001.54,4482.56,4344.62,0
12_11_50,111,4377.44,6327.69,4215.38,4313.85,4082.05,4125.64,4049.74,4097.44,4345.13,4109.23,4206.15,4008.21,4486.67,4353.85,0
12_11_50,112,4433.85,6296.41,4217.44,4255.38,4056.92,4113.85,4035.38,4098.97,4338.97,4105.13,4190.77,3989.74,4521.54,4371.28,0
12_11_50,113,4462.56,6262.05,4231.28,4262.56,4057.44,4108.21,4032.82,4100,4329.23,4107.69,4205.13,3985.13,4521.03,4387.69,0
12_11_50,114,4492.82,6293.85,4222.56,4307.18,4084.1,4120,4040.51,4099.49,4325.13,4140.51,4245.64,4003.59,4505.64,4400.51,0
12_11_50,115,4548.72,6323.08,4212.82,4326.67,4087.18,4129.74,4049.74,4098.46,4328.72,4149.23,4240,4024.1,4537.95,4412.31,0
12_11_50,116,4569.23,6277.44,4224.1,4275.9,4057.95,4127.69,4048.72,4098.97,4316.41,4116.92,4191.28,4032.82,4560.51,4402.56,0
12_11_50,117,4571.79,6238.46,4224.62,4213.85,4067.18,4129.74,4042.56,4098.46,4303.59,4105.64,4186.67,4031.79,4555.9,4391.79,0
12_11_50,118,4598.46,6265.64,4213.33,4242.56,4102.56,4138.97,4045.64,4098.97,4309.74,4111.79,4237.44,4021.54,4585.64,4403.59,0
12_11_50,119,4624.62,6253.33,4227.18,4241.54,4088.21,4137.95,4043.59,4098.46,4315.9,4088.72,4264.62,4013.33,4619.49,4397.44,0
12_11_50,120,4657.95,6203.08,4247.18,4157.95,4067.18,4133.85,4034.36,4097.44,4309.23,4061.03,4253.33,4023.59,4616.92,4384.1,0
12_11_50,121,4702.56,6223.08,4239.49,4165.64,4092.82,4138.97,4038.97,4096.92,4298.97,4062.05,4260.51,4043.08,4619.49,4405.13,0
12_11_50,122,4720.51,6246.15,4230.26,4221.03,4087.18,4144.1,4045.64,4097.95,4293.33,4068.72,4260.51,4059.49,4618.46,4402.05,0
12_11_50,123,4735.9,6194.36,4240.51,4177.95,4047.18,4151.79,4042.05,4098.97,4294.36,4065.13,4239.49,4076.92,4590.77,4377.95,0
12_11_50,124,4789.74,6161.54,4237.44,4141.54,4055.9,4174.87,4047.69,4098.46,4300,4073.85,4256.41,4096.41,4565.64,4392.82,0
12_11_50,125,4833.85,6178.97,4219.49,4182.05,4088.72,4189.23,4050.26,4097.95,4298.46,4094.36,4296.92,4093.85,4554.36,4416.92,0
12_11_50,126,4826.15,6157.44,4221.03,4157.44,4083.59,4180.51,4042.56,4098.97,4294.36,4093.33,4281.54,4090.77,4535.38,4417.44,0
12_11_50,127,4834.87,6084.1,4237.44,4081.54,4052.82,4170.77,4042.05,4098.97,4291.28,4075.38,4233.85,4123.08,4507.18,4396.92,0
12_11_50,128,4877.95,6052.82,4235.9,4100.51,4047.69,4176.41,4048.21,4098.46,4282.56,4077.44,4252.31,4138.97,4504.1,4378.46,0
12_11_50,0,4884.1,6076.92,4221.54,4164.62,4070.77,4184.1,4047.18,4097.95,4277.44,4089.74,4295.38,4110.26,4528.21,4394.87,0
12_11_50,1,4886.67,6064.62,4221.54,4159.49,4086.67,4187.18,4052.31,4097.44,4283.08,4098.97,4310.77,4090.77,4553.33,4443.08,0
12_11_50,2,4917.44,5999.49,4231.79,4114.87,4069.23,4183.08,4058.97,4097.44,4277.44,4097.44,4310.26,4108.21,4547.69,4458.97,0
12_11_50,3,4877.95,5958.46,4240.51,4105.64,4047.18,4172.82,4054.87,4099.49,4265.13,4090.26,4282.56,4133.33,4523.59,4418.46,0
12_11_50,4,4803.08,5970.77,4241.03,4115.9,4041.54,4169.23,4054.87,4098.97,4270.77,4095.38,4274.36,4142.56,4514.87,4393.85,0
12_11_50,5,4830.77,6003.08,4236.41,4134.87,4054.36,4174.87,4063.08,4098.46,4276.92,4107.18,4314.36,4133.85,4525.13,4423.08,0
12_11_50,6,4881.03,5995.9,4235.9,4155.9,4077.95,4177.95,4060.51,4101.03,4263.59,4107.69,4323.59,4125.13,4527.69,4444.1,0
12_11_50,7,4842.56,5955.38,4241.03,4142.05,4074.36,4169.23,4049.23,4100.51,4249.23,4096.41,4275.38,4125.64,4507.18,4415.9,0
12_11_50,8,4819.49,5956.92,4240.51,4134.87,4066.15,4166.67,4050.26,4101.03,4246.67,4095.9,4268.72,4122.05,4499.49,4398.46,0
12_11_50,9,4868.72,5989.23,4230.26,4149.74,4068.21,4173.85,4060.51,4104.62,4247.18,4089.74,4301.54,4121.03,4518.97,4418.46,0
12_11_50,10,4894.36,5984.1,4220.51,4141.54,4055.38,4173.33,4061.54,4105.64,4252.31,4078.46,4296.41,4121.03,4528.21,4418.46,0
12_11_50,11,4857.44,5979.49,4221.03,4127.18,4060.51,4168.21,4059.49,4103.59,4260,4087.18,4277.95,4114.36,4506.67,4409.23,0
12_11_50,12,4823.08,5992.82,4223.59,4133.33,4074.36,4169.23,4057.95,4103.08,4252.82,4095.38,4275.38,4110.77,4487.18,4409.74,0
12_11_50,13,4832.31,5967.69,4224.62,4124.62,4056.92,4169.74,4057.44,4103.59,4244.62,4085.64,4280,4124.1,4495.38,4399.49,0
12_11_50,14,4867.69,5943.08,4223.59,4122.56,4054.87,4167.69,4064.1,4102.56,4257.44,4098.97,4306.15,4145.13,4514.87,4404.1,0
12_11_50,15,4880,5944.62,4221.54,4144.62,4082.56,4169.23,4068.72,4103.08,4269.74,4130.26,4336.92,4153.33,4526.15,4428.21,0
12_11_50,16,4858.46,5930.77,4222.05,4139.49,4083.08,4172.82,4067.18,4104.1,4266.15,4142.56,4338.97,4152.82,4526.67,4429.74,0
12_11_50,17,4865.13,5897.44,4220.51,4128.21,4072.31,4173.33,4071.28,4103.08,4266.67,4133.85,4327.18,4150.26,4523.08,4414.36,0
12_11_50,18,4898.46,5866.15,4212.31,4143.08,4077.95,4173.85,4076.41,4098.97,4264.62,4110.26,4310.77,4143.59,4513.85,4404.62,0
12_11_50,19,4902.05,5849.23,4207.69,4147.18,4083.59,4181.03,4076.92,4100,4255.9,4095.38,4304.1,4135.9,4512.31,4401.03,0
12_11_50,20,4893.33,5823.08,4211.79,4124.62,4086.67,4185.13,4078.46,4104.62,4248.21,4106.67,4313.85,4134.87,4508.72,4404.62,0
12_11_50,21,4909.74,5791.79,4210.26,4109.74,4090.77,4175.38,4080,4104.62,4237.44,4112.31,4321.03,4146.67,4507.18,4409.23,0
12_11_50,22,4934.87,5781.54,4206.67,4133.33,4098.97,4168.72,4080,4104.62,4226.67,4105.13,4343.08,4162.05,4527.18,4415.9,0
12_11_50,23,4938.46,5760,4214.36,4143.59,4107.69,4171.79,4079.49,4104.62,4231.79,4115.9,4356.41,4174.36,4533.85,4417.95,0
12_11_50,24,4915.38,5703.59,4220.51,4101.54,4087.69,4165.13,4074.87,4100.51,4237.44,4131.28,4317.44,4171.28,4507.18,4391.79,0
12_11_50,25,4900,5650.77,4211.79,4080.51,4052.31,4151.28,4071.79,4100.51,4224.62,4124.62,4303.59,4148.72,4488.72,4374.36,0
12_11_50,26,4907.18,5620.51,4205.13,4108.21,4060,4153.33,4074.87,4104.1,4220,4108.72,4351.79,4138.46,4489.23,4387.18,0
12_11_50,27,4903.08,5601.03,4205.64,4115.38,4102.05,4162.56,4077.95,4103.08,4228.72,4112.31,4356.92,4151.79,4482.05,4383.59,0
12_11_50,28,4910.77,5579.49,4206.67,4096.92,4111.79,4163.08,4077.44,4103.08,4222.05,4112.82,4318.97,4155.38,4469.23,4377.95,0
12_11_50,29,4922.56,5529.23,4210.26,4084.62,4077.95,4155.9,4076.41,4105.13,4208.72,4086.67,4304.62,4152.82,4449.74,4386.15,0
12_11_50,30,4876.92,5478.97,4208.72,4070.77,4048.72,4146.67,4070.26,4101.54,4206.15,4088.72,4314.87,4154.87,4434.87,4361.03,0
12_11_50,31,4848.72,5466.15,4201.03,4075.38,4062.56,4147.18,4067.18,4100,4201.54,4110.26,4338.97,4145.13,4429.74,4334.87,0
12_11_50,32,4885.64,5444.62,4203.59,4096.92,4095.38,4152.31,4071.79,4101.03,4198.46,4097.44,4351.79,4137.95,4417.44,4354.36,0
12_11_50,33,4891.28,5422.05,4209.74,4105.64,4110.77,4155.38,4079.49,4100.51,4217.95,4093.85,4350.26,4150.77,4419.49,4375.38,0
12_11_50,34,4865.64,5422.05,4207.18,4094.87,4103.59,4159.49,4087.69,4104.1,4238.46,4126.67,4358.46,4161.54,4437.95,4369.74,0
12_11_50,35,4875.38,5395.9,4208.72,4071.79,4085.13,4159.49,4093.33,4105.64,4229.23,4117.95,4348.21,4164.62,4418.46,4355.9,0
12_11_50,36,4868.21,5341.54,4206.15,4068.21,4069.74,4154.36,4093.85,4103.59,4215.9,4083.08,4338.46,4156.92,4386.67,4347.69,0
12_11_50,37,4842.56,5314.87,4196.92,4088.72,4066.67,4151.28,4088.21,4105.13,4223.59,4087.69,4348.21,4138.46,4372.82,4350.77,0
12_11_50,38,4854.36,5304.62,4197.44,4087.69,4085.64,4150.77,4082.56,4104.1,4237.44,4088.72,4332.82,4147.69,4351.28,4332.82,0
12_11_50,39,4860.51,5265.64,4204.62,4060.51,4095.38,4146.15,4079.49,4097.44,4244.1,4082.05,4333.85,4164.1,4362.05,4312.31,0
12_11_50,40,4841.54,5235.9,4199.49,4076.92,4075.9,4142.05,4082.05,4100.51,4250.77,4095.9,4376.41,4146.67,4397.44,4343.08,0
12_11_50,41,4840.51,5236.41,4192.31,4089.74,4068.72,4143.59,4089.23,4106.67,4255.38,4098.97,4375.9,4143.08,4372.82,4366.15,0
12_11_50,42,4847.18,5220.51,4195.38,4054.87,4097.44,4151.28,4091.79,4104.1,4252.82,4088.21,4352.31,4169.74,4332.31,4329.74,0
12_11_50,43,4847.69,5186.15,4197.44,4060.51,4120.51,4157.44,4093.85,4103.08,4250.26,4081.54,4355.38,4175.38,4344.1,4312.82,0
12_11_50,44,4846.67,5163.08,4190.26,4083.08,4086.15,4148.21,4090.77,4104.1,4247.69,4077.44,4347.69,4154.87,4340.51,4332.31,0
12_11_50,45,4831.28,5130.26,4190.26,4060,4051.28,4138.97,4085.13,4103.59,4244.1,4070.77,4343.59,4150.26,4311.28,4320,0
12_11_50,46,4809.23,5091.28,4193.33,4049.23,4081.03,4140,4084.1,4104.1,4243.59,4069.74,4361.54,4156.92,4320,4308.21,0
12_11_50,47,4807.69,5080.51,4187.18,4077.95,4112.82,4138.46,4088.21,4102.56,4237.44,4063.59,4351.79,4151.79,4329.74,4317.44,0
12_11_50,48,4820,5068.72,4181.54,4081.54,4093.33,4137.95,4091.79,4100,4230.26,4049.74,4327.18,4148.21,4299.49,4297.44,0
12_11_50,49,4817.44,5034.87,4185.13,4057.95,4067.18,4136.92,4088.72,4101.54,4232.31,4045.13,4336.92,4155.38,4275.9,4288.72,0
12_11_50,50,4797.44,5009.23,4183.59,4044.1,4071.79,4130.26,4086.67,4104.62,4234.87,4053.85,4351.28,4154.36,4290.26,4316.41,0
12_11_50,51,4799.49,5003.59,4176.92,4053.85,4094.87,4130.77,4089.23,4104.1,4230.77,4058.46,4346.15,4139.49,4298.97,4315.9,0
12_11_50,52,4813.33,4988.72,4177.95,4077.44,4108.21,4139.49,4090.26,4103.08,4228.72,4038.46,4330.26,4135.9,4263.59,4282.56,0
12_11_50,53,4782.56,4949.74,4184.1,4066.15,4103.59,4139.49,4089.74,4103.08,4230.77,4015.38,4310.77,4142.56,4226.15,4261.03,0
12_11_50,54,4747.69,4916.41,4182.56,4044.62,4085.13,4133.33,4091.28,4104.1,4231.28,4018.97,4311.28,4137.95,4230.77,4263.59,0
12_11_50,55,4762.05,4894.87,4174.87,4052.31,4064.62,4134.87,4093.85,4105.13,4230.26,4024.62,4330.77,4131.28,4235.38,4274.87,0
12_11_50,56,4773.85,4876.41,4170.77,4067.69,4078.46,4137.44,4090.26,4102.56,4230.77,4028.21,4342.05,4135.38,4227.18,4271.28,0
12_11_50,57,4762.56,4874.87,4170.26,4072.82,4118.46,4137.44,4091.79,4101.03,4236.41,4046.67,4337.95,4144.62,4241.03,4262.05,0
12_11_50,58,4760.51,4866.67,4175.38,4066.67,4122.56,4140,4098.97,4103.59,4234.87,4043.08,4338.97,4152.31,4244.62,4267.69,0
12_11_50,59,4750.26,4823.08,4178.46,4058.97,4091.28,4140,4092.82,4104.62,4223.08,4013.33,4343.08,4156.92,4212.82,4263.59,0
12_11_50,60,4736.92,4791.28,4170.77,4068.72,4087.18,4134.36,4083.59,4103.59,4216.41,3998.97,4333.85,4151.28,4197.44,4253.33,0
12_11_50,61,4737.95,4793.85,4159.49,4079.49,4096.41,4128.72,4086.67,4103.08,4218.46,3999.49,4325.64,4135.38,4209.74,4263.08,0
12_11_50,62,4732.82,4774.36,4161.54,4057.44,4087.18,4130.26,4093.33,4103.08,4225.13,3991.79,4319.49,4132.82,4190.77,4262.56,0
12_11_50,63,4721.03,4731.28,4166.15,4040.51,4094.36,4135.38,4098.97,4102.56,4228.21,3980.51,4317.95,4147.18,4164.62,4244.62,0
12_11_50,64,4716.41,4698.46,4166.15,4058.46,4109.74,4140.51,4105.13,4103.08,4234.36,3980,4327.69,4159.49,4184.1,4241.03,0
12_11_50,65,4705.64,4690.77,4164.62,4074.36,4102.56,4136.92,4104.1,4102.56,4240.51,3999.49,4342.05,4155.38,4208.72,4248.72,0
12_11_50,66,4696.92,4695.9,4157.95,4072.82,4088.21,4126.67,4096.41,4103.08,4235.9,4016.41,4348.72,4150.77,4192.82,4253.33,0
12_11_50,67,4711.79,4684.62,4154.36,4077.44,4101.54,4127.18,4099.49,4103.59,4228.21,4013.85,4353.33,4162.56,4177.44,4256.41,0
12_11_50,68,4718.97,4653.33,4157.95,4075.38,4117.44,4137.44,4106.67,4101.03,4227.18,4010.26,4360.51,4170.26,4187.18,4261.03,0
12_11_50,69,4699.49,4620.51,4157.95,4057.95,4105.13,4138.46,4108.72,4100,4230.77,4017.44,4359.49,4161.54,4184.62,4261.54,0
12_11_50,70,4684.1,4601.54,4151.79,4064.1,4097.44,4135.38,4107.69,4102.05,4227.69,4014.36,4353.33,4157.95,4170.77,4258.97,0
12_11_50,71,4683.08,4593.85,4151.79,4077.44,4106.67,4137.95,4107.69,4099.49,4229.23,4013.85,4344.62,4163.08,4168.72,4252.31,0
12_11_50,72,4678.46,4567.69,4153.33,4061.54,4109.74,4140,4110.26,4096.92,4237.44,4017.95,4331.79,4157.44,4163.08,4249.23,0
12_11_50,73,4673.33,4536.41,4152.31,4052.82,4102.56,4136.41,4107.69,4100.51,4224.1,4002.56,4317.44,4154.36,4146.15,4250.26,0
12_11_50,74,4680.51,4533.33,4152.82,4061.54,4104.1,4135.38,4103.08,4102.56,4204.62,4001.54,4325.64,4167.18,4152.31,4256.41,0
12_11_50,75,4687.69,4525.13,4155.38,4063.59,4108.72,4137.44,4104.62,4098.97,4204.62,4021.54,4348.72,4177.44,4179.49,4272.31,0
12_11_50,76,4693.85,4497.44,4154.87,4068.21,4104.1,4139.49,4110.26,4097.44,4219.49,4032.82,4355.38,4182.05,4197.95,4293.85,0
12_11_50,77,4704.62,4483.59,4155.38,4065.64,4106.15,4140,4112.31,4100,4225.64,4034.87,4363.59,4186.67,4210.77,4310.77,0
12_11_50,78,4704.1,4458.97,4155.9,4037.44,4114.87,4131.28,4107.18,4102.56,4227.69,4044.62,4381.03,4188.72,4220,4317.95,0
12_11_50,79,4697.44,4410.77,4152.31,4020,4108.21,4121.03,4107.18,4104.1,4233.85,4052.31,4383.08,4194.36,4223.59,4326.15,0
12_11_50,80,4697.44,4376.41,4151.28,4027.69,4097.44,4124.1,4110.77,4105.13,4229.23,4040,4368.72,4202.05,4221.03,4326.67,0
12_11_50,81,4702.05,4360,4162.05,4005.13,4111.79,4136.92,4113.33,4104.1,4217.44,4038.97,4369.23,4205.13,4212.82,4329.23,0
12_11_50,82,4699.49,4323.08,4162.56,3976.92,4126.15,4142.05,4117.44,4098.97,4212.82,4055.38,4380.51,4203.08,4199.49,4342.56,0
12_11_50,83,4688.72,4256.92,4152.82,4029.74,4124.62,4137.44,4121.03,4098.97,4215.38,4055.38,4376.92,4201.03,4184.1,4341.54,0
12_11_50,84,4684.62,4206.15,4153.33,4111.28,4137.44,4141.03,4126.15,4101.54,4220,4043.59,4368.72,4204.62,4167.69,4331.79,0
12_11_50,85,4686.67,4169.23,4150.26,4116.92,4159.49,4154.87,4136.92,4101.03,4232.82,4058.46,4378.97,4211.79,4158.46,4334.87,0
12_11_50,86,4681.03,4092.82,4121.54,4076.92,4159.49,4161.03,4143.59,4100,4248.72,4088.21,4396.92,4218.97,4148.21,4337.44,0
12_11_50,87,4669.23,4002.56,4104.1,4064.1,4149.23,4153.33,4139.49,4101.54,4244.1,4092.31,4396.41,4214.87,4108.72,4324.62,0
12_11_50,88,4648.72,3944.62,4114.36,4062.05,4146.15,4152.31,4139.49,4102.56,4231.79,4074.87,4376.92,4201.54,4047.69,4301.54,0
12_11_50,89,4615.38,3886.67,4122.05,4032.31,4137.95,4152.31,4138.97,4100,4224.62,4054.87,4352.82,4194.87,3993.85,4272.82,0
12_11_50,90,4587.18,3820.51,4118.46,3975.38,4135.38,4140,4126.67,4098.46,4212.31,4035.38,4338.97,4193.33,3954.36,4246.67,0
12_11_50,91,4571.79,3766.15,4116.92,3927.18,4149.74,4142.56,4124.62,4101.03,4204.62,4021.54,4340.51,4184.62,3928.21,4227.69,0
12_11_50,92,4555.38,3697.95,4124.1,3918.46,4153.33,4153.33,4137.95,4105.64,4199.49,4014.87,4341.03,4172.82,3907.69,4206.15,0
12_11_50,93,4543.08,3621.03,4129.74,3923.08,4150.26,4145.64,4141.54,4105.13,4177.44,4008.21,4333.33,4171.28,3892.82,4185.13,0
12_11_51,94,4540.51,3569.23,4118.97,3917.44,4165.64,4141.03,4134.87,4100.51,4147.69,3995.9,4327.18,4171.28,3888.72,4172.82,0
12_11_51,95,4537.44,3532.31,4092.82,3918.97,4175.38,4153.33,4135.38,4101.03,4125.64,3988.72,4321.54,4167.69,3885.64,4159.49,0
12_11_51,96,4532.82,3478.46,4077.95,3938.97,4157.44,4156.92,4139.49,4106.67,4109.23,3988.72,4312.31,4171.79,3872.82,4144.1,0
12_11_51,97,4528.72,3408.21,4073.85,3958.97,4133.33,4149.23,4137.44,4106.15,4101.54,3985.64,4303.08,4181.54,3850.26,4129.74,0
12_11_51,98,4520.51,3349.74,4072.82,3955.38,4117.95,4145.64,4137.95,4100.51,4094.36,3973.85,4293.33,4184.1,3823.59,4116.92,0
12_11_51,99,4512.82,3306.15,4078.46,3954.36,4105.13,4141.54,4140,4099.49,4075.38,3957.44,4285.64,4190.26,3796.92,4109.23,0
12_11_51,100,4510.77,3257.95,4087.69,3982.05,4102.56,4135.9,4139.49,4103.59,4060,3952.31,4281.54,4201.54,3771.28,4100,0
12_11_51,101,4504.62,3216.92,4082.05,4001.03,4102.05,4138.46,4138.46,4104.62,4056.41,3958.97,4275.9,4202.56,3750.26,4085.64,0
12_11_51,102,4494.36,3184.62,4077.44,3992.31,4092.82,4135.9,4137.44,4104.62,4050.26,3960,4268.21,4198.97,3733.33,4073.33,0
12_11_51,103,4489.74,3145.64,4098.46,3986.67,4093.85,4128.21,4136.92,4104.62,4043.08,3955.9,4260,4201.54,3713.33,4068.72,0
12_11_51,104,4484.1,3107.18,4065.13,4000,4104.1,4130.77,4138.97,4104.62,4043.59,3954.87,4252.82,4202.56,3686.15,4057.95,0
12_11_51,105,4467.18,3072.31,3952.82,4007.18,4106.67,4134.87,4146.67,4106.15,4045.64,3940.51,4248.21,4199.49,3653.85,4037.44,0
12_11_51,106,4453.33,3037.95,3906.67,3991.79,4112.31,4131.28,4155.9,4103.59,4043.59,3922.56,4230.26,4194.87,3625.64,4027.69,0
12_11_51,107,4444.1,3013.33,3950.26,3967.69,4115.38,4126.67,4152.31,4100,4040.51,3922.05,4196.92,4189.74,3604.1,4026.67,0
12_11_51,108,4429.74,2998.97,3965.13,3954.87,4102.56,4122.05,4141.03,4100.51,4042.05,3927.18,4176.92,4190.77,3591.79,4020.51,0
12_11_51,109,4425.64,2984.1,3959.49,3956.41,4092.31,4118.46,4137.44,4099.49,4047.69,3933.85,4182.56,4199.49,3590.26,4019.49,0
12_11_51,110,4427.69,2976.92,3980,3961.03,4095.38,4114.36,4142.56,4099.49,4048.21,3942.56,4181.54,4203.08,3584.62,4026.67,0
12_11_51,111,4416.41,2972.82,3978.46,3958.97,4095.38,4092.82,4148.21,4103.59,4048.72,3944.62,4169.74,4200,3564.1,4025.64,0
12_11_51,112,4400.51,2960,3962.56,3946.67,4096.92,4071.28,4151.28,4104.62,4058.97,3943.08,4170.26,4198.46,3552.31,4015.9,0
12_11_51,113,4399.49,2952.31,3968.21,3941.03,4103.59,4072.31,4154.36,4102.56,4062.56,3946.15,4178.46,4208.21,3564.62,4018.97,0
12_11_51,114,4396.41,2944.1,3964.1,3943.59,4097.95,4070.26,4150.26,4103.08,4052.31,3940.51,4173.85,4207.18,3565.64,4020,0
12_11_51,115,4376.41,2921.03,3951.79,3930.77,4089.23,4063.59,4142.05,4104.62,4047.18,3928.21,4163.59,4186.67,3531.79,4005.64,0
12_11_51,116,4366.67,2906.15,3956.41,3922.56,4100.51,4071.79,4145.64,4104.1,4058.46,3934.36,4170.26,4185.64,3509.23,4007.18,0
12_11_51,117,4367.69,2898.46,3969.74,3929.74,4111.79,4078.97,4157.44,4104.62,4068.72,3948.21,4167.69,4200.51,3508.72,4017.44,0
12_11_51,118,4356.92,2877.44,3968.72,3929.23,4101.03,4076.92,4158.46,4104.1,4064.62,3948.21,4138.97,4193.85,3497.95,4010.77,0
12_11_51,119,4342.05,2855.9,3965.13,3921.54,4088.21,4075.9,4150.77,4104.62,4058.46,3937.44,4120.51,4182.05,3487.69,4005.64,0
12_11_51,120,4332.82,2844.62,3966.15,3924.1,4093.85,4077.95,4150.26,4104.62,4057.44,3932.31,4121.03,4187.69,3495.38,4012.31,0
12_11_51,121,4314.36,2824.1,3960,3918.97,4095.9,4076.41,4151.79,4104.62,4055.9,3934.36,4112.31,4187.69,3495.38,4009.23,0
12_11_51,122,4290.77,2799.49,3950.26,3906.15,4082.05,4070.26,4151.79,4104.1,4053.33,3933.33,4095.38,4181.03,3475.9,3995.9,0
12_11_51,123,4278.97,2794.36,3953.85,3907.18,4082.05,4065.64,4149.74,4104.62,4052.31,3927.18,4087.69,4184.62,3468.21,3990.26,0
12_11_51,124,4266.67,2795.9,3961.03,3911.28,4088.72,4066.15,4141.54,4104.1,4050.26,3921.54,4080,4184.62,3466.15,3987.69,0
12_11_51,125,4251.79,2791.28,3961.03,3912.82,4076.92,4065.64,4138.46,4104.62,4051.28,3925.13,4072.31,4182.56,3464.62,3986.67,0
12_11_51,126,4247.69,2788.21,3958.46,3920,4070.26,4061.03,4141.54,4104.1,4056.41,3931.28,4074.36,4186.67,3473.85,3989.23,0
12_11_51,127,4237.44,2781.54,3953.33,3924.62,4076.92,4062.05,4142.05,4104.62,4049.74,3925.13,4070.26,4184.62,3472.82,3984.62,0
12_11_51,128,4220,2774.36,3954.36,3923.08,4075.38,4070.77,4143.59,4104.62,4042.56,3920.51,4058.97,4181.54,3462.56,3984.62,0
12_11_51,0,4216.41,2774.87,3963.08,3923.59,4061.03,4069.74,4143.59,4104.1,4048.21,3927.69,4057.95,4184.1,3462.56,3990.26,0
12_11_51,1,4214.36,2772.31,3966.15,3926.15,4053.33,4058.97,4138.97,4104.1,4051.79,3929.74,4059.49,4185.13,3472.31,3990.77,0
12_11_51,2,4206.15,2766.67,3962.05,3930.77,4064.62,4063.08,4146.67,4104.62,4054.87,3930.26,4058.97,4184.62,3480,3995.9,0
12_11_51,3,4203.59,2766.67,3962.05,3934.87,4075.38,4076.92,4156.41,4104.62,4060,3940,4061.54,4187.18,3475.9,4003.59,0
12_11_51,4,4198.97,2767.69,3958.97,3928.21,4066.67,4071.28,4144.62,4103.59,4053.85,3944.1,4054.36,4184.1,3463.59,3997.44,0
12_11_51,5,4187.69,2762.05,3954.87,3924.62,4056.92,4059.49,4133.85,4103.08,4044.1,3937.44,4041.03,4180.51,3464.1,3988.72,0
12_11_51,6,4178.46,2750.77,3956.41,3933.85,4056.92,4061.03,4134.36,4104.62,4041.54,3930.77,4035.9,4184.1,3469.23,3988.72,0
12_11_51,7,4170.77,2739.49,3960.51,3939.49,4057.44,4061.03,4126.67,4105.13,4037.95,3924.1,4029.23,4182.56,3462.56,3983.59,0
12_11_51,8,4165.64,2726.15,3963.59,3935.38,4059.49,4057.95,4126.15,4104.1,4044.62,3937.95,4032.31,4185.64,3478.46,3989.74,0
12_11_51,9,4161.54,2716.92,3965.64,3929.74,4058.97,4061.54,4133.33,4102.05,4054.36,3963.08,4048.72,4195.38,3507.69,4002.05,0
12_11_51,10,4145.64,2716.41,3963.59,3926.67,4049.74,4064.1,4129.23,4101.54,4044.1,3952.31,4040,4188.72,3495.38,3986.67,0
12_11_51,11,4125.13,2707.69,3963.59,3927.18,4050.26,4064.1,4129.74,4103.08,4041.54,3940.51,4020.51,4180.51,3482.05,3970.77,0
12_11_51,12,4112.82,2680.51,3966.15,3923.08,4052.82,4066.15,4141.03,4104.1,4054.36,3958.97,4021.54,4183.08,3497.44,3973.33,0
12_11_51,13,4105.64,2667.18,3963.59,3919.49,4044.1,4066.67,4136.92,4105.13,4048.72,3963.59,4014.36,4173.85,3491.28,3965.13,0
12_11_51,14,4102.56,2678.46,3965.13,3925.64,4044.62,4064.1,4127.69,4104.1,4040.51,3951.79,3996.41,4163.59,3474.87,3951.28,0
12_11_51,15,4092.31,2674.87,3970.26,3930.26,4051.79,4063.59,4127.18,4100.51,4047.69,3954.87,3994.87,4172.82,3480,3949.74,0
12_11_51,16,4072.31,2655.38,3965.64,3926.67,4048.72,4063.08,4124.62,4099.49,4045.13,3961.54,3991.79,4171.28,3483.59,3944.62,0
12_11_51,17,4049.74,2644.62,3957.95,3924.62,4042.05,4061.54,4123.59,4100,4039.49,3958.46,3975.38,4154.87,3474.36,3931.28,0
12_11_51,18,4029.74,2638.46,3961.03,3917.95,4037.44,4058.97,4122.56,4101.54,4042.05,3955.9,3960,4152.82,3467.69,3916.92,0
12_11_51,19,4012.82,2633.33,3962.05,3907.18,4036.41,4058.46,4117.95,4102.56,4036.92,3953.85,3954.36,4151.28,3466.67,3907.18,0
12_11_51,20,3998.46,2634.36,3953.85,3908.72,4041.54,4062.56,4118.97,4101.03,4029.23,3956.41,3953.33,4140,3473.33,3904.1,0
12_11_51,21,3986.15,2634.87,3953.33,3915.38,4045.64,4065.64,4123.59,4100,4033.33,3960.51,3945.13,4137.44,3475.9,3899.49,0
12_11_51,22,3976.41,2637.44,3962.05,3909.23,4046.67,4064.62,4115.9,4105.13,4032.82,3955.9,3930.26,4134.87,3464.1,3888.72,0
12_11_51,23,3964.1,2638.97,3961.54,3905.64,4046.67,4066.67,4109.23,4104.62,4028.21,3954.87,3926.15,4125.64,3459.49,3885.13,0
12_11_51,24,3949.74,2632.31,3956.41,3907.69,4035.38,4070.77,4117.44,4098.97,4031.79,3959.49,3917.44,4116.92,3455.9,3878.97,0
12_11_51,25,3940.51,2623.08,3959.49,3905.13,4028.72,4069.74,4122.56,4100.51,4034.36,3959.49,3898.97,4109.23,3443.59,3866.67,0
12_11_51,26,3929.23,2622.05,3962.05,3902.56,4036.92,4063.08,4114.87,4101.03,4027.69,3950.26,3886.67,4105.13,3432.82,3858.97,0
12_11_51,27,3922.56,2634.87,3957.44,3906.15,4033.85,4058.46,4107.18,4097.44,4029.23,3946.15,3889.74,4113.33,3436.41,3861.54,0
12_11_51,28,3923.59,2644.1,3957.95,3912.31,4029.74,4060.51,4110.77,4101.54,4043.08,3968.21,3901.54,4123.59,3457.95,3870.26,0
12_11_51,29,3910.26,2639.49,3960,3908.72,4042.56,4071.28,4118.97,4106.67,4044.1,3988.72,3897.44,4122.56,3470.77,3868.21,0
12_11_51,30,3898.97,2644.1,3962.05,3908.21,4046.15,4074.87,4122.05,4101.54,4038.46,3989.23,3887.18,4120,3467.69,3864.1,0
12_11_51,31,3906.15,2669.74,3965.13,3922.56,4035.9,4068.72,4121.54,4096.92,4043.59,3993.33,3894.36,4123.59,3478.97,3874.36,0
12_11_51,32,3904.1,2678.97,3967.18,3930.26,4034.87,4069.74,4121.54,4102.05,4044.62,3996.92,3901.54,4124.1,3498.97,3882.56,0
12_11_51,33,3890.26,2665.13,3967.18,3918.97,4041.03,4076.92,4121.03,4104.1,4039.49,3990.77,3893.33,4118.97,3498.46,3876.92,0
12_11_51,34,3890.77,2669.74,3970.77,3920.51,4046.67,4080,4122.56,4103.08,4048.72,4003.59,3892.82,4123.59,3495.9,3878.46,0
12_11_51,35,3889.23,2686.67,3972.82,3934.87,4046.15,4080,4125.64,4103.08,4054.36,4006.67,3895.38,4127.69,3501.54,3881.03,0
12_11_51,36,3865.64,2683.08,3966.67,3921.03,4029.74,4071.28,4114.87,4104.62,4038.97,3976.92,3876.92,4114.87,3497.44,3864.62,0
12_11_51,37,3850.77,2670.26,3963.59,3903.08,4020.51,4061.03,4107.69,4104.62,4032.82,3975.38,3859.49,4106.67,3492.82,3854.87,0
12_11_51,38,3851.28,2670.77,3964.62,3910.26,4031.28,4063.08,4117.95,4101.54,4034.87,3996.92,3861.03,4110.77,3493.85,3862.05,0
12_11_51,39,3843.08,2673.85,3965.64,3915.9,4034.36,4069.74,4120.51,4100.51,4031.79,3988.21,3860,4107.69,3492.31,3860,0
12_11_51,40,3827.18,2665.64,3966.67,3908.72,4028.21,4072.31,4116.41,4100,4035.9,3982.56,3848.72,4099.49,3494.36,3848.21,0
12_11_51,41,3828.72,2671.28,3971.79,3912.82,4030.26,4075.38,4118.97,4100.51,4045.13,3998.97,3850.77,4107.18,3507.69,3855.9,0
12_11_51,42,3840,2698.46,3976.41,3928.21,4032.31,4071.79,4115.9,4102.56,4048.21,4011.28,3867.18,4124.1,3532.31,3878.97,0
12_11_51,43,3829.74,2703.08,3974.87,3929.23,4022.05,4062.05,4107.18,4102.05,4043.08,4013.85,3869.74,4120.51,3537.44,3877.44,0
12_11_51,44,3818.97,2694.36,3970.26,3923.08,4017.95,4063.59,4116.41,4097.44,4043.08,4017.95,3862.05,4110.26,3529.74,3868.21,0
12_11_51,45,3822.56,2707.69,3970.77,3926.15,4025.64,4074.36,4125.13,4096.41,4048.72,4019.49,3863.59,4117.95,3539.49,3878.97,0
12_11_51,46,3813.85,2715.9,3973.33,3924.62,4029.23,4076.92,4116.92,4101.03,4039.49,4007.69,3858.97,4120.51,3543.08,3883.08,0
12_11_51,47,3800.51,2702.05,3970.77,3915.9,4020.51,4068.72,4105.64,4100.51,4022.56,3993.85,3847.69,4105.13,3534.87,3873.33,0
12_11_51,48,3802.05,2696.92,3968.21,3917.95,4009.74,4058.97,4097.44,4100,4026.15,4003.59,3842.56,4102.56,3541.54,3873.85,0
12_11_51,49,3806.15,2711.28,3972.82,3927.69,4013.33,4058.46,4097.95,4102.05,4040,4021.03,3843.08,4112.31,3553.85,3879.49,0
12_11_51,50,3801.54,2717.95,3978.46,3927.69,4022.56,4066.15,4106.15,4100.51,4040,4021.54,3847.18,4113.33,3556.41,3881.03,0
12_11_51,51,3801.54,2715.9,3979.49,3924.1,4024.1,4071.28,4111.79,4097.95,4041.03,4025.13,3852.31,4112.82,3565.13,3889.74,0
12_11_51,52,3799.49,2723.59,3978.46,3927.69,4023.08,4070.26,4111.28,4096.92,4047.18,4035.9,3850.77,4113.33,3572.82,3895.9,0
12_11_51,53,3790.26,2735.38,3980,3929.74,4014.36,4066.67,4109.74,4098.97,4044.1,4030.77,3846.67,4108.72,3570.26,3890.26,0
12_11_51,54,3784.62,2736.41,3981.03,3926.15,4003.59,4068.72,4110.26,4098.97,4037.44,4020,3846.67,4106.15,3571.28,3884.62,0
12_11_51,55,3778.97,2731.79,3978.46,3923.59,4008.72,4071.79,4113.85,4098.46,4033.85,4009.74,3840,4102.56,3572.82,3881.03,0
12_11_51,56,3769.74,2732.82,3977.44,3924.1,4014.87,4066.15,4113.33,4097.44,4035.9,4007.69,3825.64,4095.9,3578.46,3878.46,0
12_11_51,57,3766.67,2736.41,3976.92,3926.15,4001.54,4055.9,4105.13,4097.95,4036.41,4018.97,3816.41,4090.77,3586.67,3878.46,0
12_11_51,58,3769.74,2740.51,3977.44,3925.64,3996.41,4054.87,4102.56,4098.97,4031.28,4031.79,3818.97,4087.69,3597.95,3877.95,0
12_11_51,59,3765.64,2748.21,3976.92,3923.08,4006.15,4062.56,4106.67,4098.46,4032.31,4038.46,3829.74,4093.85,3614.87,3882.56,0
12_11_51,60,3760.51,2765.64,3976.41,3926.67,4011.28,4064.62,4107.69,4098.46,4037.95,4041.03,3833.33,4106.15,3627.69,3890.26,0
12_11_51,61,3760.51,2782.05,3975.9,3930.77,4011.28,4062.05,4108.21,4098.46,4037.44,4045.64,3827.69,4106.67,3628.21,3887.69,0
12_11_51,62,3756.92,2780,3973.33,3925.13,4006.67,4059.49,4105.64,4098.46,4035.9,4043.08,3819.49,4093.33,3620.51,3876.92,0
12_11_51,63,3752.82,2783.08,3968.72,3922.05,4004.62,4061.03,4106.67,4098.46,4037.44,4039.49,3818.46,4091.28,3616.41,3876.92,0
12_11_51,64,3756.92,2802.56,3973.33,3929.74,4005.13,4061.03,4107.69,4098.46,4033.85,4043.08,3821.54,4097.44,3615.9,3886.67,0
12_11_51,65,3755.38,2805.64,3976.41,3930.26,3994.87,4056.41,4101.03,4098.46,4030.26,4043.59,3813.33,4094.36,3613.85,3884.1,0
12_11_51,66,3744.1,2799.49,3970.77,3923.59,3994.36,4063.08,4099.49,4098.46,4029.74,4034.36,3801.03,4088.21,3602.05,3869.74,0
12_11_51,67,3741.03,2810.26,3969.23,3925.64,4010.26,4073.33,4108.72,4097.95,4026.15,4030.26,3801.54,4089.23,3590.77,3863.59,0
12_11_51,68,3740,2822.05,3972.31,3927.69,4007.18,4068.72,4111.28,4098.97,4027.69,4037.44,3802.05,4088.21,3592.31,3863.08,0
12_11_51,69,3735.38,2826.15,3970.26,3923.59,3994.87,4060.51,4106.15,4102.56,4037.44,4045.64,3800,4086.15,3599.49,3861.03,0
12_11_51,70,3734.36,2834.87,3970.77,3925.13,4000,4065.13,4108.72,4102.05,4041.03,4052.31,3810.26,4089.74,3604.62,3869.74,0
12_11_51,71,3733.33,2844.1,3976.41,3926.15,4002.05,4068.72,4114.36,4097.95,4034.36,4052.82,3821.03,4092.31,3607.69,3877.95,0
12_11_51,72,3728.72,2846.67,3977.44,3928.72,3994.36,4061.54,4108.21,4097.44,4029.23,4047.18,3811.28,4089.74,3607.69,3870.26,0
12_11_51,73,3730.77,2853.33,3975.9,3933.33,3996.92,4057.95,4099.49,4098.97,4027.69,4040,3801.54,4089.23,3602.56,3867.69,0
12_11_51,74,3737.44,2871.28,3976.41,3929.23,4003.59,4060.51,4102.05,4097.95,4034.87,4044.62,3810.26,4092.82,3607.18,3877.95,0
12_11_51,75,3735.38,2880.51,3979.49,3926.15,3997.44,4061.03,4109.74,4097.44,4042.05,4056.92,3814.87,4094.87,3620,3882.05,0
12_11_51,76,3727.18,2880,3981.03,3930.26,3989.74,4060,4104.62,4098.97,4037.44,4049.74,3807.69,4094.36,3614.87,3878.46,0
12_11_51,77,3725.13,2888.21,3978.97,3931.79,3990.26,4060,4094.36,4098.46,4031.79,4034.87,3803.08,4088.72,3603.08,3876.92,0
12_11_51,78,3722.56,2899.49,3977.44,3927.18,3992.31,4054.87,4092.82,4098.46,4036.92,4042.56,3794.87,4083.08,3604.62,3872.82,0
12_11_51,79,3714.87,2897.44,3979.49,3922.05,3990.77,4050.26,4098.46,4100,4041.54,4051.28,3785.64,4083.59,3607.69,3871.28,0
12_11_51,80,3718.97,2903.59,3982.56,3929.74,3992.31,4058.97,4106.67,4099.49,4044.1,4045.13,3792.31,4090.26,3605.13,3876.92,0
12_11_51,81,3732.31,2923.59,3985.64,3944.1,3994.36,4065.13,4106.15,4097.95,4043.59,4044.62,3800,4095.9,3611.28,3885.64,0
12_11_51,82,3727.18,2926.15,3982.05,3937.44,3985.64,4051.79,4095.9,4097.95,4036.92,4053.85,3791.79,4094.36,3620.51,3886.15,0
12_11_51,83,3712.82,2926.15,3972.31,3917.95,3983.08,4045.64,4090.77,4097.95,4035.9,4064.1,3792.31,4091.28,3623.59,3882.56,0
12_11_51,84,3714.36,2938.46,3967.69,3922.05,3992.31,4055.9,4095.38,4098.46,4046.15,4068.72,3804.1,4092.31,3624.62,3885.13,0
12_11_51,85,3713.33,2941.54,3972.31,3927.18,3993.85,4054.87,4092.82,4098.46,4045.64,4062.56,3797.44,4091.28,3620.51,3881.54,0
12_11_51,86,3710.26,2950.26,3977.44,3927.18,3993.33,4050.26,4088.72,4097.44,4035.38,4059.49,3789.74,4090.77,3617.95,3881.03,0
12_11_51,87,3719.49,2976.41,3979.49,3942.56,3996.92,4061.03,4093.33,4096.92,4036.92,4063.59,3796.41,4095.38,3623.08,3893.33,0
12_11_51,88,3717.44,2982.56,3977.44,3945.64,3994.36,4063.08,4094.36,4098.46,4043.08,4060,3788.21,4094.36,3620,3895.38,0
12_11_52,89,3710.77,2973.85,3977.44,3936.41,3991.79,4054.36,4096.92,4098.97,4043.59,4055.9,3773.85,4089.23,3612.82,3887.18,0
12_11_52,90,3721.54,2990.77,3982.56,3943.08,4002.56,4060.51,4104.62,4098.46,4047.69,4063.08,3782.05,4094.87,3616.92,3893.85,0
12_11_52,91,3725.64,3007.18,3984.62,3948.72,4005.13,4065.13,4102.05,4098.46,4051.28,4069.23,3788.21,4096.92,3625.13,3901.03,0
12_11_52,92,3712.31,3002.56,3980.51,3941.03,3992.31,4058.97,4093.33,4098.46,4044.1,4069.74,3780.51,4088.21,3627.69,3892.82,0
12_11_52,93,3712.82,3011.79,3980,3941.54,3991.28,4061.03,4094.36,4098.97,4043.59,4074.36,3790.26,4087.18,3637.44,3893.33,0
12_11_52,94,3715.9,3025.13,3984.1,3946.15,4002.56,4061.03,4096.41,4097.44,4048.21,4081.03,3796.41,4086.15,3648.21,3897.95,0
12_11_52,95,3705.64,3014.87,3983.08,3942.05,4003.08,4051.28,4089.23,4097.44,4037.95,4073.33,3779.49,4076.41,3643.08,3892.31,0
12_11_52,96,3707.69,3008.72,3982.56,3941.54,3993.85,4052.82,4088.72,4099.49,4029.23,4059.49,3771.28,4077.95,3635.9,3889.74,0
12_11_52,97,3714.87,3029.74,3983.59,3945.13,3986.67,4060,4097.44,4100,4035.38,4059.49,3774.87,4084.1,3637.44,3894.87,0
12_11_52,98,3710.26,3042.56,3983.08,3946.15,3983.08,4052.82,4095.38,4098.46,4036.92,4062.05,3770.77,4077.95,3636.92,3896.41,0
12_11_52,99,3706.67,3034.36,3983.08,3944.1,3985.64,4044.62,4083.59,4098.46,4030.26,4056.41,3766.15,4069.74,3632.82,3888.72,0
12_11_52,100,3704.62,3037.95,3986.15,3942.56,3994.87,4048.21,4080.51,4098.46,4026.15,4058.97,3766.67,4067.18,3633.33,3883.08,0
12_11_52,101,3702.05,3054.87,3986.67,3942.05,3998.46,4052.82,4084.62,4098.46,4027.18,4071.79,3771.28,4068.21,3638.97,3889.74,0
12_11_52,102,3708.72,3060.51,3988.21,3942.56,3992.31,4050.77,4082.56,4098.46,4033.85,4076.41,3781.03,4072.31,3643.59,3894.87,0
12_11_52,103,3716.41,3065.64,3991.28,3946.15,3987.69,4050.77,4078.97,4098.97,4042.56,4073.85,3785.64,4078.97,3650.77,3893.33,0
12_11_52,104,3712.31,3074.87,3990.77,3951.28,3989.74,4055.38,4087.18,4099.49,4044.62,4076.41,3787.18,4086.15,3655.9,3901.03,0
12_11_52,105,3708.72,3080.51,3993.33,3956.41,3994.36,4059.49,4095.9,4099.49,4045.64,4077.95,3794.87,4092.31,3660.51,3910.26,0
12_11_52,106,3714.36,3089.74,3998.97,3958.46,4003.08,4064.62,4094.36,4099.49,4048.72,4083.08,3803.08,4094.87,3672.82,3910.77,0
12_11_52,107,3714.36,3096.92,3997.95,3955.9,4007.18,4069.74,4091.79,4100,4045.13,4087.18,3800,4092.31,3676.92,3911.79,0
12_11_52,108,3704.62,3100.51,3991.79,3957.95,3996.92,4068.72,4096.41,4099.49,4035.9,4080,3788.21,4085.13,3666.67,3906.15,0
12_11_52,109,3694.87,3103.59,3991.79,3958.97,3987.18,4064.62,4096.92,4097.44,4028.72,4072.82,3774.36,4074.36,3657.44,3897.44,0
12_11_52,110,3697.44,3114.36,3996.92,3959.49,3997.95,4061.54,4090.26,4098.46,4032.31,4076.41,3780.51,4074.36,3668.72,3904.1,0
12_11_52,111,3701.03,3130.77,3999.49,3965.64,4010.26,4060.51,4088.21,4099.49,4036.41,4079.49,3798.97,4079.49,3680.51,3911.79,0
12_11_52,112,3696.92,3136.92,3996.41,3965.13,4001.54,4061.03,4089.23,4097.95,4035.9,4078.97,3796.41,4074.87,3676.41,3907.18,0
12_11_52,113,3698.97,3137.44,4000,3957.44,3994.36,4060,4089.23,4096.92,4040,4079.49,3788.72,4074.36,3675.9,3908.21,0
12_11_52,114,3708.72,3143.59,4007.69,3963.08,4003.08,4056.92,4089.74,4097.44,4041.54,4079.49,3798.46,4082.05,3684.62,3914.87,0
12_11_52,115,3708.21,3150.77,4005.13,3972.31,4003.59,4060,4092.82,4097.44,4032.31,4077.95,3802.56,4082.56,3687.69,3914.87,0
12_11_52,116,3698.46,3150.77,3997.44,3966.67,3998.97,4063.59,4093.33,4097.44,4024.62,4075.9,3791.79,4075.9,3682.05,3905.64,0
12_11_52,117,3694.36,3154.36,3997.95,3964.62,4007.18,4062.05,4086.67,4097.44,4025.13,4072.31,3785.64,4075.38,3681.54,3897.95,0
12_11_52,118,3697.44,3160,4001.03,3967.69,4010.77,4059.49,4082.05,4096.92,4030.26,4071.28,3788.72,4077.44,3687.18,3903.59,0
12_11_52,119,3698.46,3164.1,4002.56,3959.49,4003.59,4060,4081.54,4098.46,4040.51,4078.97,3794.36,4075.38,3693.33,3910.77,0
12_11_52,120,3700,3169.74,4002.05,3956.92,4000,4057.95,4080.51,4100,4040.51,4085.13,3800.51,4074.36,3697.95,3908.72,0
12_11_52,121,3701.03,3170.26,3992.82,3963.59,3993.33,4052.82,4085.64,4099.49,4027.18,4079.49,3797.44,4074.36,3695.9,3907.18,0
12_11_52,122,3697.44,3174.36,3979.49,3960.51,3988.21,4053.33,4089.23,4098.46,4023.59,4071.28,3794.87,4073.33,3695.9,3908.72,0
12_11_52,123,3696.92,3180.51,3979.49,3961.54,3999.49,4058.97,4084.1,4097.95,4030.77,4068.21,3800,4073.85,3699.49,3906.67,0
12_11_52,124,3698.97,3184.62,3985.64,3970.26,4009.23,4062.56,4086.67,4098.46,4031.79,4069.74,3802.56,4074.87,3698.46,3906.15,0
12_11_52,125,3694.87,3188.21,3982.05,3962.05,4004.62,4061.54,4092.31,4097.44,4027.18,4071.79,3800.51,4071.28,3696.92,3907.69,0
12_11_52,126,3694.36,3188.72,3982.05,3954.36,3997.95,4058.46,4091.79,4098.46,4033.85,4074.87,3797.44,4070.77,3702.56,3906.67,0
12_11_52,127,3702.05,3194.36,3989.23,3968.72,3997.95,4058.97,4095.38,4101.54,4044.1,4077.44,3800.51,4076.41,3712.31,3909.74,0
12_11_52,128,3705.13,3203.08,3990.77,3980.51,4004.62,4061.03,4093.85,4100.51,4038.97,4078.97,3809.23,4076.92,3720.51,3911.79,0
12_11_52,0,3699.49,3206.67,3985.64,3973.85,4006.67,4056.92,4080,4097.95,4031.28,4077.95,3814.36,4073.33,3724.1,3908.72,0
12_11_52,1,3696.92,3208.72,3985.13,3968.21,4006.15,4061.54,4082.56,4100,4037.44,4078.46,3820,4071.28,3728.21,3908.72,0
12_11_52,2,3703.59,3217.95,3988.72,3973.33,4012.31,4077.95,4098.97,4100,4045.64,4089.74,3832.82,4073.85,3741.03,3917.95,0
12_11_52,3,3711.79,3232.82,3992.82,3981.03,4013.33,4077.95,4098.46,4096.92,4045.13,4097.44,3838.46,4078.97,3752.82,3925.64,0
12_11_52,4,3716.92,3244.62,3994.36,3983.08,3999.49,4064.1,4093.85,4097.95,4043.08,4096.41,3834.87,4081.54,3752.31,3925.64,0
12_11_52,5,3722.56,3247.69,3995.38,3985.64,3993.33,4059.49,4096.92,4098.97,4039.49,4090.77,3834.36,4080,3746.67,3925.64,0
12_11_52,6,3725.13,3250.77,3995.9,3992.82,3995.38,4061.54,4093.33,4096.92,4033.85,4080,3832.31,4078.46,3743.08,3926.15,0
12_11_52,7,3721.54,3264.62,3997.95,3990.77,3993.33,4059.49,4089.23,4097.44,4035.38,4077.44,3829.23,4082.56,3738.46,3925.64,0
12_11_52,8,3720.51,3270.77,4000,3985.64,3990.26,4056.92,4090.26,4098.46,4042.56,4087.69,3832.82,4085.64,3738.46,3926.15,0
12_11_52,9,3723.59,3268.21,4001.03,3993.33,3985.64,4056.92,4085.64,4098.46,4042.56,4093.33,3833.85,4084.1,3745.64,3927.69,0
12_11_52,10,3724.1,3272.31,4001.54,3998.46,3982.05,4058.46,4082.56,4098.46,4031.79,4089.74,3835.9,4084.1,3749.74,3925.64,0
12_11_52,11,3723.08,3277.95,4002.56,3991.28,3987.69,4059.49,4090.77,4098.46,4031.28,4095.38,3844.62,4089.23,3753.85,3925.13,0
12_11_52,12,3725.13,3283.59,4001.54,3987.18,3994.36,4061.54,4095.38,4097.44,4042.05,4103.59,3851.28,4092.82,3767.69,3933.33,0
12_11_52,13,3726.67,3285.13,4003.08,3990.77,3988.72,4067.69,4094.87,4097.95,4045.64,4098.97,3850.77,4090.77,3773.33,3939.49,0
12_11_52,14,3723.59,3277.44,4006.15,3987.69,3987.69,4069.23,4096.92,4099.49,4043.59,4093.33,3847.69,4088.72,3761.54,3934.36,0
12_11_52,15,3726.15,3279.49,4006.15,3984.62,3990.77,4063.08,4093.33,4098.97,4037.95,4084.62,3839.49,4085.64,3756.41,3933.33,0
12_11_52,16,3742.05,3301.54,4005.64,3994.87,3981.03,4058.97,4085.13,4098.97,4025.64,4068.72,3831.28,4082.56,3760.51,3947.69,0
12_11_52,17,3757.95,3324.1,4006.15,3998.97,3974.87,4053.85,4078.97,4099.49,4018.97,4062.05,3829.74,4078.97,3755.9,3958.97,0
12_11_52,18,3768.21,3337.44,4011.28,3993.33,3980,4045.13,4079.49,4098.46,4024.1,4068.21,3833.33,4081.03,3750.26,3970.77,0
12_11_52,19,3793.33,3358.97,4016.92,4002.56,3986.15,4048.72,4086.15,4098.46,4030.26,4076.41,3850.77,4097.95,3758.46,3996.41,0
12_11_52,20,3830.77,3395.38,4021.03,4030.77,3991.79,4058.46,4093.33,4098.97,4032.31,4078.46,3861.54,4114.36,3767.69,4020.51,0
12_11_52,21,3854.87,3423.08,4025.64,4047.69,3995.38,4057.44,4095.9,4097.44,4030.26,4073.33,3854.36,4117.44,3762.05,4031.28,0
12_11_52,22,3853.33,3425.13,4025.64,4040,3988.21,4050.26,4094.36,4096.92,4025.64,4062.05,3845.13,4107.18,3745.13,4030.77,0
12_11_52,23,3845.64,3426.15,4020,4026.15,3981.54,4042.56,4085.64,4099.49,4019.49,4045.13,3833.85,4092.31,3728.72,4021.54,0
12_11_52,24,3853.85,3450.26,4022.05,4032.82,3990.77,4039.49,4077.95,4097.95,4012.31,4029.74,3823.08,4086.67,3718.97,4017.44,0
12_11_52,25,3867.18,3468.72,4027.69,4052.82,3996.41,4046.67,4080.51,4095.9,4014.87,4034.87,3825.64,4101.03,3710.77,4022.05,0
12_11_52,26,3867.18,3462.56,4026.67,4048.72,3993.33,4048.21,4082.56,4097.95,4021.03,4049.74,3833.33,4108.72,3704.62,4024.1,0
12_11_52,27,3863.08,3452.31,4026.15,4039.49,3992.31,4042.56,4083.59,4098.97,4020.51,4048.21,3830.77,4096.92,3704.1,4016.92,0
12_11_52,28,3860,3450.26,4028.72,4049.74,3993.85,4052.82,4089.23,4096.92,4022.05,4044.62,3829.74,4088.72,3709.74,4009.23,0
12_11_52,29,3851.28,3447.69,4028.21,4049.74,3995.38,4065.64,4092.31,4097.44,4028.21,4054.87,3833.85,4090.26,3710.26,4003.08,0
12_11_52,30,3845.64,3451.28,4027.69,4037.44,4002.05,4061.03,4093.33,4098.97,4029.74,4065.13,3835.38,4093.33,3710.26,4001.54,0
12_11_52,31,3845.13,3453.85,4026.67,4038.46,4002.56,4057.44,4094.36,4098.46,4026.67,4058.97,3828.72,4091.79,3714.87,4000,0
12_11_52,32,3835.9,3442.05,4026.67,4041.54,3999.49,4061.03,4090.77,4097.95,4025.64,4051.79,3822.56,4090.26,3714.36,3995.38,0
12_11_52,33,3827.18,3441.03,4029.74,4037.44,4001.54,4062.05,4094.36,4098.46,4031.28,4057.44,3829.23,4093.85,3716.92,3986.67,0
12_11_52,34,3829.23,3449.74,4030.26,4045.13,3997.44,4063.59,4104.62,4098.46,4035.9,4060,3827.69,4094.87,3727.69,3977.44,0
12_11_52,35,3821.03,3442.05,4026.67,4038.97,3996.92,4073.33,4107.69,4098.46,4028.21,4054.36,3813.33,4083.08,3736.41,3972.82,0
12_11_52,36,3804.62,3434.87,4024.1,4019.49,4005.13,4076.92,4103.59,4097.95,4027.69,4055.38,3812.82,4076.92,3745.13,3961.03,0
12_11_52,37,3805.64,3440,4026.15,4022.05,3999.49,4069.74,4101.54,4099.49,4038.46,4065.13,3821.03,4088.21,3749.74,3944.1,0
12_11_52,38,3808.72,3429.23,4027.18,4027.18,3989.74,4063.59,4097.95,4097.95,4030.77,4073.33,3827.18,4089.74,3744.1,3938.97,0
12_11_52,39,3794.36,3423.59,4025.64,4020.51,3993.85,4062.56,4093.85,4093.33,4022.05,4076.41,3830.77,4075.9,3736.92,3936.92,0
12_11_52,40,3784.1,3446.67,4021.54,4024.1,3992.31,4062.56,4093.33,4094.36,4036.41,4074.36,3826.67,4072.31,3739.49,3928.21,0
12_11_52,41,3786.15,3456.92,4018.97,4032.82,3987.18,4062.05,4092.82,4098.97,4045.64,4079.49,3826.67,4075.9,3744.62,3924.62,0
12_11_52,42,3779.49,3439.49,4017.95,4027.69,3990.77,4060.51,4092.31,4098.46,4035.9,4075.38,3831.79,4073.33,3734.87,3921.54,0
12_11_52,43,3770.26,3429.74,4022.05,4023.59,3987.18,4058.97,4090.77,4095.9,4026.15,4043.08,3818.46,4072.82,3722.05,3911.28,0
12_11_52,44,3776.41,3439.49,4026.67,4034.36,3984.62,4060,4088.72,4096.41,4027.69,4044.62,3811.28,4081.54,3727.18,3913.85,0
12_11_52,45,3784.1,3455.38,4024.1,4038.97,4000.51,4058.97,4089.23,4097.44,4032.31,4078.97,3826.67,4081.03,3729.23,3923.59,0
12_11_52,46,3783.08,3465.13,4022.05,4035.38,4006.67,4058.46,4091.28,4097.95,4026.67,4074.36,3835.38,4071.79,3724.1,3918.46,0
12_11_52,47,3779.49,3463.08,4024.1,4036.41,3994.87,4060.51,4091.28,4097.44,4018.97,4056.41,3838.97,4073.85,3734.87,3914.87,0
12_11_52,48,3786.15,3466.15,4025.64,4047.18,3993.85,4061.54,4089.74,4096.41,4026.67,4071.79,3848.21,4087.18,3748.72,3931.79,0
12_11_52,49,3798.46,3476.92,4027.18,4055.38,4004.1,4069.23,4094.36,4096.92,4036.41,4081.03,3850.77,4094.36,3744.1,3941.03,0
12_11_52,50,3800,3478.97,4028.72,4047.69,4004.1,4077.95,4099.49,4096.92,4035.38,4073.33,3847.18,4088.72,3738.46,3928.21,0
12_11_52,51,3798.46,3481.03,4028.21,4034.87,4005.64,4075.38,4094.87,4096.92,4034.36,4071.79,3849.23,4092.82,3744.62,3930.77,0
12_11_52,52,3801.54,3480,4027.69,4025.64,4008.72,4063.08,4088.72,4096.92,4030.77,4058.97,3845.64,4107.18,3748.21,3942.05,0
12_11_52,53,3799.49,3465.13,4027.69,4027.18,3997.44,4056.92,4088.21,4096.92,4021.54,4048.21,3841.54,4101.03,3748.72,3937.95,0
12_11_52,54,3798.46,3470.26,4029.74,4041.03,3985.13,4063.59,4092.82,4096.92,4027.69,4060.51,3862.56,4088.72,3765.64,3947.69,0
12_11_52,55,3813.33,3507.18,4032.82,4061.54,3991.28,4070.77,4095.9,4096.41,4041.54,4070.26,3885.13,4101.54,3784.62,3972.31,0
12_11_52,56,3831.28,3521.54,4033.85,4064.1,4006.67,4064.1,4092.82,4096.92,4037.44,4064.62,3878.46,4112.31,3782.56,3973.85,0
12_11_52,57,3831.28,3505.13,4037.44,4045.64,4012.31,4058.46,4089.74,4097.44,4031.79,4061.03,3879.49,4103.59,3778.46,3976.41,0
12_11_52,58,3819.49,3509.74,4041.03,4045.13,4012.31,4067.18,4093.85,4095.38,4037.95,4061.03,3869.74,4109.74,3786.15,3989.23,0
12_11_52,59,3812.82,3523.59,4036.41,4063.59,4000.51,4066.15,4092.82,4094.36,4033.33,4053.85,3836.41,4128.21,3783.08,3971.79,0
12_11_52,60,3824.1,3510.77,4034.36,4057.95,3970.77,4045.64,4080.51,4098.97,4023.08,4050.77,3849.74,4129.74,3767.18,3961.54,0
12_11_52,61,3838.97,3511.28,4040,4037.95,3971.28,4036.92,4074.36,4102.05,4026.67,4058.46,3895.9,4116.92,3770.26,3991.79,0
12_11_52,62,3833.33,3543.59,4044.62,4061.03,4007.69,4053.33,4082.05,4103.08,4033.33,4062.56,3899.49,4115.38,3794.36,4008.21,0
12_11_52,63,3826.67,3577.44,4043.59,4100,4022.56,4067.69,4091.28,4101.54,4033.85,4059.49,3886.67,4134.36,3809.74,4000,0
12_11_52,64,3846.15,3583.59,4041.54,4101.03,4002.05,4059.49,4090.77,4098.46,4037.44,4064.62,3903.08,4141.03,3800.51,4004.1,0
12_11_52,65,3868.21,3573.33,4039.49,4084.62,3993.85,4054.36,4087.69,4098.97,4043.59,4071.79,3929.74,4122.05,3799.49,4020,0
12_11_52,66,3866.67,3591.79,4042.05,4091.79,3992.31,4064.62,4095.38,4095.9,4047.18,4074.87,3936.41,4122.56,3808.72,4024.1,0
12_11_52,67,3854.36,3630.26,4045.64,4102.56,3986.67,4061.54,4095.38,4092.82,4041.54,4066.67,3916.41,4143.08,3798.46,4013.33,0
12_11_52,68,3864.1,3643.59,4042.56,4096.41,4000,4047.69,4080.51,4097.44,4029.74,4046.67,3911.28,4135.38,3789.74,4002.56,0
12_11_52,69,3870.26,3648.72,4041.03,4090.77,4013.33,4051.79,4078.97,4101.54,4030.77,4038.46,3923.08,4117.95,3801.54,4001.54,0
12_11_52,70,3851.79,3678.97,4042.05,4087.69,4007.69,4064.1,4089.23,4097.95,4036.92,4041.54,3912.82,4120.51,3814.87,4008.21,0
12_11_52,71,3856.92,3697.95,4040.51,4075.9,3996.92,4061.54,4091.79,4096.41,4032.31,4036.92,3910.26,4117.44,3811.28,4014.87,0
12_11_52,72,3878.97,3696.41,4036.92,4065.64,3994.36,4052.82,4088.21,4098.46,4026.67,4026.67,3916.41,4108.21,3807.69,4011.28,0
12_11_52,73,3875.9,3716.92,4038.46,4071.79,3996.41,4049.23,4084.1,4098.46,4032.82,4025.13,3910.26,4111.79,3822.05,4008.72,0
12_11_52,74,3866.15,3750.26,4043.08,4070.26,4010.77,4051.79,4082.05,4098.97,4040.51,4037.44,3911.28,4123.08,3837.95,4013.85,0
12_11_52,75,3867.18,3753.85,4044.62,4049.23,4014.87,4054.87,4085.64,4098.46,4038.97,4044.62,3914.87,4121.54,3837.95,4011.79,0
12_11_52,76,3858.97,3740.51,4043.08,4052.31,3990.77,4049.74,4085.13,4096.92,4031.79,4028.72,3905.13,4102.05,3839.49,4004.62,0
12_11_52,77,3863.08,3767.69,4042.56,4085.13,3991.28,4051.28,4082.56,4097.95,4033.33,4014.87,3916.41,4093.33,3849.74,4017.44,0
12_11_52,78,3884.1,3806.67,4042.05,4091.28,4018.46,4065.64,4092.82,4097.95,4045.13,4027.18,3935.38,4106.67,3853.33,4023.08,0
12_11_52,86,3880.51,3834.87,4040,4078.46,4005.64,4062.05,4091.79,4098.97,4043.08,4002.05,3924.62,4096.92,3894.36,4012.82,0
12_11_52,87,3879.49,3834.36,4037.95,4079.49,3999.49,4064.1,4090.26,4098.46,4048.21,4008.21,3925.13,4098.46,3891.28,4018.97,0
12_11_52,88,3882.05,3848.21,4038.46,4090.77,4004.62,4065.13,4090.26,4097.95,4056.41,4023.59,3932.82,4098.97,3896.92,4017.95,0
12_11_52,89,3877.95,3848.21,4038.46,4092.82,4014.36,4064.62,4085.13,4098.97,4053.85,4016.92,3940,4098.46,3909.23,4019.49,0
12_11_52,90,3883.08,3851.28,4040.51,4096.92,4028.21,4069.23,4084.62,4094.87,4050.77,4013.33,3945.13,4097.44,3909.23,4022.56,0
12_11_53,91,3897.44,3862.56,4043.59,4113.33,4029.23,4074.87,4090.26,4090.26,4048.72,4013.85,3942.56,4096.41,3900,4023.08,0
12_11_53,92,3893.33,3849.23,4040,4105.64,4007.69,4067.18,4084.1,4091.28,4044.62,4001.03,3927.69,4090.77,3899.49,4018.97,0
12_11_53,93,3888.72,3833.85,4037.95,4085.13,4003.08,4057.44,4076.41,4097.44,4048.21,4008.21,3924.62,4086.67,3906.67,4021.03,0
12_11_53,94,3893.33,3844.62,4043.08,4090.77,4025.13,4064.62,4085.64,4098.46,4054.36,4029.74,3945.13,4092.31,3911.28,4030.26,0
12_11_53,95,3883.59,3851.28,4042.05,4101.54,4032.82,4069.74,4087.18,4095.38,4053.33,4036.41,3962.56,4093.33,3911.79,4027.18,0
12_11_53,96,3878.97,3840.51,4037.95,4104.62,4020.51,4061.54,4073.85,4096.41,4053.85,4033.85,3956.92,4084.1,3908.21,4020,0
12_11_53,97,3891.28,3835.38,4040.51,4107.69,4018.46,4059.49,4076.92,4098.97,4054.36,4033.33,3953.33,4084.62,3916.41,4028.72,0
12_11_53,98,3897.44,3831.79,4044.1,4103.59,4024.62,4068.72,4086.67,4097.44,4052.82,4036.41,3967.69,4091.79,3933.33,4033.85,0
12_11_53,99,3892.31,3830.26,4044.1,4098.46,4029.23,4073.85,4082.56,4096.92,4055.38,4034.87,3970.77,4087.69,3921.54,4017.44,0
12_11_53,100,3880.51,3842.05,4048.72,4091.28,4029.74,4068.72,4076.92,4100,4051.79,4017.44,3950.77,4074.36,3892.82,4007.69,0
12_11_53,101,3875.9,3846.67,4061.54,4090.77,4022.05,4065.13,4076.92,4100.51,4043.59,4002.05,3942.05,4071.28,3890.26,4022.56,0
12_11_53,102,3887.18,3835.9,4071.79,4105.64,4018.46,4071.79,4080.51,4096.92,4047.69,4014.36,3950.26,4078.97,3895.38,4033.33,0
12_11_53,103,3895.38,3831.28,4069.23,4116.41,4024.1,4077.95,4085.13,4096.41,4050.77,4030.26,3954.87,4080,3894.36,4023.59,0
12_11_53,104,3891.79,3834.87,4065.13,4107.18,4016.92,4068.72,4082.05,4099.49,4046.15,4031.79,3961.03,4075.9,3900,4018.97,0
12_11_53,105,3895.38,3834.87,4069.74,4099.49,4014.36,4061.54,4078.46,4100,4051.79,4035.9,3973.85,4081.54,3908.21,4029.74,0
12_11_53,106,3898.46,3843.08,4073.85,4113.33,4037.44,4069.74,4082.05,4097.44,4057.44,4043.08,3982.56,4088.21,3920,4037.95,0
12_11_53,107,3895.38,3854.87,4068.72,4125.13,4049.74,4077.95,4083.59,4097.44,4049.74,4040.51,3977.95,4081.03,3926.15,4037.44,0
12_11_53,108,3896.92,3840.51,4065.13,4115.9,4031.28,4076.92,4085.64,4097.95,4045.64,4030.77,3964.62,4071.79,3915.9,4034.87,0
12_11_53,109,3897.95,3832.82,4069.23,4106.67,4025.64,4074.36,4089.23,4099.49,4054.87,4027.69,3958.46,4074.87,3905.64,4030.26,0
12_11_53,110,3898.46,3858.97,4072.31,4115.9,4043.08,4075.9,4090.26,4098.46,4064.1,4035.38,3968.21,4077.44,3908.72,4027.18,0
12_11_53,111,3910.77,3870.26,4070.26,4127.69,4045.13,4077.44,4091.28,4093.33,4063.08,4041.54,3985.64,4074.87,3918.97,4033.33,0
12_11_53,112,3915.9,3848.21,4064.1,4122.56,4038.46,4077.44,4088.21,4093.33,4051.28,4039.49,3992.31,4074.36,3927.69,4039.49,0
12_11_53,113,3898.97,3832.31,4066.15,4113.33,4031.28,4073.33,4075.38,4098.97,4042.05,4029.74,3977.95,4071.79,3924.1,4030.77,0
12_11_53,114,3893.33,3837.44,4074.36,4115.9,4017.95,4071.79,4074.87,4100.51,4045.13,4025.13,3968.72,4070.26,3912.31,4024.62,0
12_11_53,115,3913.85,3843.59,4078.97,4120.51,4025.64,4082.05,4093.33,4097.95,4054.87,4043.08,3987.69,4083.08,3921.54,4041.54,0
12_11_53,116,3930.26,3849.23,4077.95,4122.05,4053.33,4092.82,4103.59,4099.49,4069.74,4064.62,4005.13,4097.95,3951.28,4060.51,0
12_11_53,117,3931.28,3854.36,4078.97,4130.26,4058.97,4091.79,4095.9,4100.51,4074.87,4057.44,3999.49,4094.36,3963.08,4055.9,0
12_11_53,118,3922.05,3851.79,4077.44,4134.36,4042.05,4089.23,4090.77,4098.46,4065.64,4039.49,3995.38,4088.72,3942.56,4040,0
12_11_53,119,3916.92,3845.13,4073.33,4127.18,4038.46,4089.23,4091.79,4099.49,4056.41,4035.9,3987.18,4091.28,3922.05,4033.85,0
12_11_53,120,3922.56,3844.1,4072.82,4126.15,4045.13,4082.56,4084.1,4101.03,4052.82,4032.82,3968.72,4084.1,3923.59,4036.92,0
12_11_53,121,3918.46,3847.18,4070.77,4126.15,4047.18,4074.36,4073.33,4094.87,4049.74,4027.69,3966.67,4072.31,3928.21,4035.9,0
12_11_53,122,3908.72,3846.67,4069.23,4121.54,4048.21,4073.33,4077.95,4089.23,4049.23,4037.44,3985.13,4074.87,3931.28,4034.87,0
12_11_53,123,3913.85,3850.26,4076.41,4125.13,4046.67,4075.38,4086.67,4095.9,4053.85,4047.18,3996.41,4092.82,3944.1,4048.72,0
12_11_53,123,3913.85,3850.26,4076.41,4125.13,4046.67,4075.38,4086.67,4095.9,4053.85,4047.18,3996.41,4092.82,3944.1,4048.72,0
12_11_53,124,3920,3847.69,4082.56,4126.67,4031.79,4073.85,4083.08,4102.05,4051.79,4042.56,4000.51,4106.67,3957.95,4060.51,0
12_11_53,125,3924.1,3830.77,4080,4120,4028.21,4074.87,4082.56,4098.97,4051.28,4043.08,4010.26,4103.59,3968.21,4061.03,0
12_11_53,126,3936.41,3833.85,4079.49,4122.05,4046.15,4080.51,4092.82,4097.44,4061.54,4057.95,4017.44,4101.03,3979.49,4066.67,0
12_11_53,127,3936.41,3850.77,4079.49,4124.1,4052.82,4084.1,4090.77,4100,4069.23,4064.1,4018.97,4106.67,3972.82,4064.62,0
12_11_53,128,3924.62,3842.56,4077.44,4122.05,4048.21,4085.13,4083.59,4100,4063.08,4050.26,4013.33,4101.54,3958.97,4052.31,0
12_11_53,0,3921.54,3831.79,4074.36,4123.59,4050.77,4087.69,4088.72,4098.97,4058.97,4035.38,3997.95,4085.64,3956.92,4051.79,0
12_11_53,1,3913.33,3831.79,4070.26,4124.62,4048.21,4084.62,4092.82,4098.46,4063.08,4035.38,3988.21,4074.87,3947.69,4044.62,0
12_11_53,2,3904.1,3822.05,4070.77,4123.59,4040,4074.87,4083.08,4098.46,4055.38,4035.9,3988.72,4073.33,3938.46,4030.26,0
12_11_53,3,3913.85,3817.95,4076.41,4121.03,4041.03,4071.28,4075.38,4098.97,4041.54,4029.74,3990.77,4080,3947.18,4034.36,0
12_11_53,4,3926.67,3831.28,4077.95,4117.44,4045.13,4071.28,4075.9,4098.46,4040.51,4031.28,3998.46,4089.74,3955.9,4048.21,0
12_11_53,5,3926.67,3841.03,4077.44,4123.59,4047.69,4069.23,4075.38,4098.46,4048.72,4039.49,4009.74,4094.36,3960,4055.9,0
12_11_53,6,3923.08,3827.69,4075.38,4128.72,4039.49,4071.28,4073.85,4098.46,4059.49,4048.72,4016.41,4091.79,3972.31,4055.38,0
12_11_53,7,3925.13,3815.9,4071.28,4111.79,4027.69,4078.97,4080,4098.46,4066.15,4051.28,4015.38,4086.15,3971.79,4049.23,0
12_11_53,8,3928.21,3830.77,4073.85,4105.64,4045.64,4089.74,4089.74,4098.97,4064.1,4043.59,4010.77,4089.74,3965.13,4054.87,0
12_11_53,9,3926.67,3837.44,4080.51,4131.28,4063.08,4097.44,4094.87,4098.97,4068.21,4042.56,4009.23,4095.9,3969.23,4065.13,0
12_11_53,10,3923.59,3816.41,4076.41,4127.18,4045.13,4090.26,4090.77,4098.46,4073.33,4051.28,4002.56,4084.1,3960,4052.82,0
12_11_53,11,3921.03,3812.82,4069.74,4098.46,4038.97,4078.97,4081.54,4098.46,4066.15,4054.36,3999.49,4071.28,3957.95,4041.03,0
12_11_53,12,3924.1,3829.74,4072.31,4108.21,4047.18,4077.44,4078.97,4100,4063.59,4056.92,4020,4079.49,3981.03,4048.21,0
12_11_53,13,3924.62,3829.23,4076.92,4124.62,4042.56,4080,4088.72,4095.9,4070.26,4067.18,4032.82,4086.67,3989.23,4052.82,0
12_11_53,14,3913.85,3826.67,4074.87,4116.41,4042.56,4078.97,4090.77,4090.26,4063.59,4057.44,4011.28,4077.44,3968.72,4045.64,0
12_11_53,15,3912.31,3831.79,4072.82,4117.44,4046.15,4076.92,4081.03,4095.38,4053.85,4039.49,3996.41,4070.77,3960,4040.51,0
12_11_53,16,3926.67,3830.77,4079.49,4125.13,4052.31,4081.54,4085.13,4101.03,4056.92,4037.95,4005.13,4074.87,3965.13,4046.15,0
12_11_53,16,3926.67,3830.77,4079.49,4125.13,4052.31,4081.54,4085.13,4101.03,4056.92,4037.95,4005.13,4074.87,3965.13,4046.15,0
12_11_53,17,3931.28,3829.23,4078.97,4123.59,4057.44,4086.15,4096.41,4098.46,4055.38,4029.74,3997.44,4078.97,3960.51,4046.67,0
12_11_53,18,3921.03,3824.1,4072.82,4117.44,4043.59,4078.46,4087.18,4097.95,4048.72,4015.9,3977.95,4071.28,3952.31,4032.82,0
12_11_53,19,3922.56,3827.18,4074.87,4108.72,4035.9,4077.44,4078.97,4101.03,4050.26,4027.69,3981.54,4067.69,3954.87,4029.74,0
12_11_53,20,3930.77,3843.59,4079.49,4112.31,4054.36,4092.31,4090.77,4096.41,4052.82,4043.08,4001.03,4072.31,3964.62,4043.08,0
12_11_53,21,3931.28,3843.08,4076.41,4128.72,4056.41,4092.31,4092.82,4091.79,4051.28,4031.28,4007.69,4069.23,3965.13,4044.62,0
12_11_53,22,3936.92,3827.18,4076.92,4129.23,4044.1,4076.41,4083.08,4093.33,4055.9,4032.82,4005.13,4065.64,3970.77,4043.59,0
12_11_53,31,3952.82,3857.95,4082.05,4122.05,4063.08,4089.23,4091.79,4096.92,4062.56,4060.51,4017.44,4073.85,4000,4065.64,0
12_11_53,32,3939.49,3847.18,4080,4107.69,4062.56,4081.03,4090.26,4096.92,4057.44,4042.56,4010.77,4065.64,3982.56,4048.72,0
12_11_53,33,3941.54,3841.03,4080,4092.31,4054.87,4081.03,4091.28,4096.92,4059.49,4045.64,4002.56,4071.28,3990.26,4044.1,0
12_11_53,34,3945.64,3834.36,4081.54,4096.41,4043.59,4085.64,4094.87,4096.92,4055.38,4044.1,4006.15,4067.18,4005.13,4047.18,0
12_11_53,35,3940,3835.9,4081.03,4096.41,4046.67,4088.72,4094.36,4096.92,4045.13,4032.31,4005.13,4057.44,4001.03,4043.59,0
12_11_53,36,3938.97,3848.21,4081.03,4101.03,4060,4090.77,4095.38,4096.92,4047.18,4038.97,4008.21,4062.05,4008.21,4044.62,0
12_11_53,37,3943.59,3863.59,4085.13,4108.72,4064.62,4089.74,4094.36,4096.92,4057.44,4057.44,4015.38,4069.23,4039.49,4051.79,0
12_11_53,38,3950.26,3873.85,4084.1,4105.13,4057.44,4088.21,4092.82,4096.92,4058.46,4063.59,4016.41,4070.77,4069.74,4053.33,0
12_11_53,39,3954.87,3881.54,4080.51,4112.82,4058.46,4094.36,4103.59,4096.92,4056.41,4058.97,4024.1,4078.46,4085.64,4052.31,0
12_11_53,40,3948.72,3882.05,4078.97,4121.03,4064.1,4095.38,4107.69,4096.92,4060.51,4058.46,4031.28,4079.49,4088.21,4048.72,0
12_11_53,41,3942.56,3867.18,4078.46,4103.59,4052.31,4084.1,4091.28,4096.92,4061.03,4060,4018.97,4067.69,4085.64,4037.95,0
12_11_53,42,3940.51,3857.44,4077.95,4096.92,4048.72,4085.64,4089.74,4096.92,4056.92,4058.46,4011.79,4067.18,4085.64,4030.77,0
12_11_53,43,3942.56,3869.74,4082.56,4114.87,4066.15,4101.54,4107.69,4096.92,4063.08,4062.56,4026.67,4085.64,4090.77,4046.15,0
12_11_53,44,3946.15,3884.62,4081.54,4115.38,4065.13,4101.03,4108.21,4096.92,4068.72,4078.97,4034.87,4095.38,4095.9,4062.05,0
12_11_53,45,3945.64,3881.54,4076.41,4103.59,4043.08,4087.69,4098.97,4096.92,4068.21,4091.28,4034.36,4090.26,4094.36,4052.31,0
12_11_53,46,3946.67,3876.41,4078.46,4105.13,4047.18,4088.72,4104.62,4096.41,4069.74,4090.77,4048.21,4097.44,4091.28,4046.67,0
12_11_53,47,3960,3880,4082.56,4107.69,4066.67,4095.9,4111.28,4097.44,4070.77,4090.77,4064.1,4115.38,4102.05,4060,0
12_11_53,48,3962.05,3880.51,4080.51,4105.64,4061.54,4095.9,4106.15,4097.44,4070.26,4093.33,4064.62,4117.95,4110.77,4060,0
12_11_53,49,3942.56,3877.95,4077.44,4104.62,4051.79,4093.85,4100,4094.36,4071.79,4089.23,4050.77,4104.1,4098.46,4045.13,0
12_11_53,50,3942.56,3880,4077.95,4106.67,4059.49,4093.85,4096.92,4095.38,4068.21,4086.15,4044.1,4095.9,4088.21,4045.64,0
12_11_53,51,3961.03,3881.03,4078.46,4117.44,4064.62,4092.31,4094.36,4096.92,4059.49,4089.23,4044.1,4098.97,4084.62,4052.31,0
12_11_53,52,3954.87,3880,4076.92,4109.74,4063.08,4092.31,4092.82,4093.85,4060.51,4081.54,4038.46,4100,4076.41,4048.72,0
12_11_53,53,3933.85,3877.95,4076.41,4086.67,4057.95,4090.77,4090.26,4094.87,4064.1,4076.41,4036.92,4094.87,4073.33,4043.59,0
12_11_53,54,3940.51,3878.46,4077.95,4091.79,4042.56,4083.08,4090.77,4099.49,4060.51,4085.13,4044.62,4092.82,4073.85,4046.67,0
12_11_53,55,3959.49,3880,4074.36,4107.18,4035.38,4076.92,4091.28,4100,4058.46,4086.15,4046.67,4093.85,4070.77,4048.72,0
12_11_53,56,3952.82,3872.31,4069.23,4093.85,4040.51,4073.85,4083.08,4098.97,4049.74,4070.26,4027.69,4084.1,4058.97,4036.41,0
12_11_53,57,3937.44,3858.97,4070.77,4082.56,4042.56,4072.82,4074.87,4100.51,4042.05,4068.21,4013.33,4075.9,4049.23,4024.1,0
12_11_53,58,3943.08,3869.23,4075.9,4089.74,4050.77,4081.03,4081.03,4100,4052.31,4087.18,4033.33,4085.13,4055.9,4034.36,0
12_11_53,59,3955.9,3896.41,4076.41,4098.97,4064.1,4088.21,4088.21,4098.97,4064.62,4099.49,4058.46,4095.38,4080.51,4055.9,0
12_11_53,60,3957.44,3890.26,4075.38,4107.69,4052.82,4080,4081.54,4099.49,4058.97,4096.41,4052.31,4089.23,4090.77,4059.49,0
12_11_53,61,3960,3867.18,4077.95,4108.72,4040,4074.87,4082.05,4098.97,4055.9,4094.87,4035.9,4087.18,4079.49,4051.28,0
12_11_53,62,3966.15,3883.08,4083.08,4105.64,4055.38,4085.13,4093.85,4096.92,4059.49,4098.46,4048.21,4097.44,4076.41,4052.82,0
12_11_53,63,3961.54,3910.26,4079.49,4107.69,4061.54,4085.64,4093.85,4095.38,4060.51,4108.72,4060.51,4096.41,4080,4054.36,0
12_11_53,63,3961.54,3910.26,4079.49,4107.69,4061.54,4085.64,4093.85,4095.38,4060.51,4108.72,4060.51,4096.41,4080,4054.36,0
12_11_53,64,3957.44,3897.95,4071.79,4104.62,4053.85,4082.56,4087.69,4096.41,4066.15,4115.9,4050.77,4089.74,4074.36,4048.21,0
12_11_53,65,3957.44,3878.97,4074.36,4095.9,4062.05,4090.26,4090.77,4095.38,4069.23,4106.15,4044.62,4091.79,4067.69,4041.54,0
12_11_53,66,3950.77,3880.51,4078.46,4095.9,4057.95,4089.74,4089.23,4094.87,4061.03,4100.51,4045.13,4088.72,4063.08,4040.51,0
12_11_53,67,3947.69,3880.51,4077.44,4101.54,4042.05,4079.49,4081.03,4097.95,4066.67,4121.03,4044.1,4080,4057.44,4042.56,0
12_11_53,68,3953.33,3876.92,4074.36,4105.13,4060,4082.56,4081.54,4096.41,4074.87,4133.85,4049.23,4082.56,4058.46,4044.1,0
12_11_53,69,3942.56,3874.87,4070.77,4097.95,4081.54,4093.33,4086.67,4094.36,4063.08,4124.62,4051.79,4082.05,4057.44,4036.92,0
12_11_53,70,3922.56,3862.05,4065.13,4079.49,4064.62,4085.13,4078.97,4098.46,4052.31,4117.44,4040.51,4062.56,4047.18,4018.46,0
12_11_53,71,3913.85,3851.79,4063.08,4074.87,4050.77,4070.77,4065.64,4101.03,4056.92,4115.38,4031.28,4048.21,4043.59,4004.62,0
12_11_53,72,3911.79,3857.95,4061.03,4084.62,4061.54,4080.51,4069.74,4096.41,4065.64,4121.03,4032.82,4054.87,4047.18,4000.51,0
12_11_53,73,3913.33,3868.72,4062.05,4091.28,4070.26,4095.38,4084.1,4093.85,4072.31,4138.46,4038.97,4061.54,4053.85,4002.56,0
12_11_53,74,3911.28,3866.15,4063.59,4089.74,4075.38,4093.33,4084.1,4096.92,4073.33,4144.62,4045.13,4056.92,4061.03,4000.51,0
12_11_53,75,3896.41,3851.79,4059.49,4087.18,4072.82,4085.64,4077.44,4095.9,4062.56,4129.23,4036.92,4048.72,4052.31,3989.23,0
12_11_53,76,3889.23,3844.1,4057.95,4080.51,4065.64,4090.26,4085.13,4089.74,4056.92,4120,4018.46,4043.08,4039.49,3985.13,0
12_11_53,77,3895.9,3847.69,4062.05,4073.33,4074.87,4097.44,4094.36,4091.28,4066.67,4128.72,4014.87,4045.64,4048.21,3989.23,0
12_11_53,78,3897.95,3850.77,4063.08,4084.62,4082.05,4096.41,4091.28,4097.95,4075.9,4141.03,4031.79,4050.26,4061.03,3988.72,0
12_11_53,79,3892.31,3845.13,4063.59,4091.28,4075.9,4095.38,4088.72,4094.36,4075.38,4142.56,4040.51,4049.23,4058.46,3986.67,0
12_11_53,80,3895.9,3832.82,4065.64,4080.51,4080.51,4095.9,4092.31,4090.26,4071.79,4147.69,4030.77,4050.26,4054.36,3989.74,0
12_11_53,81,3905.64,3830.26,4064.62,4078.46,4092.82,4094.36,4090.77,4098.97,4076.41,4164.62,4036.92,4054.87,4066.67,3995.38,0
12_11_53,82,3907.18,3837.95,4058.97,4082.05,4090.26,4090.77,4086.15,4102.05,4076.41,4170.26,4060.51,4055.38,4081.03,3999.49,0
12_11_54,91,3897.44,3769.74,4061.54,4045.13,4072.31,4082.05,4081.03,4091.79,4056.92,4151.79,4026.15,4043.59,4063.08,3997.95,0
12_11_54,92,3906.15,3763.08,4064.1,4054.87,4079.49,4082.56,4078.97,4097.95,4064.1,4150.77,4029.74,4041.03,4059.49,3994.87,0
12_11_54,93,3909.74,3758.97,4063.59,4052.82,4091.79,4092.82,4091.79,4098.46,4071.79,4154.87,4030.77,4041.03,4067.69,3997.95,0
12_11_54,94,3906.67,3757.44,4067.18,4043.08,4091.79,4094.36,4096.41,4098.97,4070.26,4164.62,4033.33,4042.56,4072.82,4002.05,0
12_11_54,95,3915.9,3761.03,4068.72,4057.44,4087.18,4089.74,4091.28,4102.56,4070.77,4170.77,4049.23,4049.74,4080,4008.21,0
12_11_54,96,3928.21,3764.1,4069.23,4080,4093.33,4093.33,4096.41,4103.08,4081.54,4181.54,4064.1,4064.62,4095.9,4017.95,0
12_11_54,97,3918.97,3750.77,4069.23,4071.28,4093.85,4093.33,4097.95,4101.03,4076.41,4185.13,4057.95,4065.13,4092.82,4017.44,0
12_11_54,98,3908.72,3743.59,4069.74,4056.41,4087.18,4089.23,4091.28,4102.56,4053.85,4171.28,4050.26,4055.9,4080,4012.82,0
12_11_54,99,3923.08,3755.9,4073.85,4071.28,4098.46,4092.31,4092.82,4102.56,4056.41,4167.18,4064.62,4065.64,4088.72,4025.13,0
12_11_54,100,3933.85,3756.92,4077.44,4077.95,4109.74,4093.85,4096.92,4100,4068.21,4175.38,4072.82,4075.38,4100,4034.36,0
12_11_54,101,3921.54,3741.03,4073.33,4054.36,4094.87,4089.74,4093.33,4097.44,4057.44,4172.82,4060,4061.54,4091.79,4024.62,0
12_11_54,102,3918.97,3738.46,4070.77,4049.23,4084.62,4088.72,4090.26,4097.44,4048.21,4166.67,4048.72,4047.18,4081.03,4017.44,0
12_11_54,103,3923.08,3743.08,4072.31,4060.51,4103.08,4092.82,4091.28,4098.46,4058.46,4167.18,4046.67,4046.15,4077.95,4021.54,0
12_11_54,104,3914.36,3738.97,4070.77,4049.74,4112.31,4092.31,4090.77,4097.44,4062.56,4169.74,4045.13,4047.69,4075.38,4021.54,0
12_11_54,105,3912.31,3732.31,4069.23,4037.95,4094.87,4089.23,4091.28,4096.92,4057.44,4170.26,4044.62,4046.15,4071.28,4016.92,0
12_11_54,106,3924.1,3733.85,4070.77,4045.13,4088.21,4092.31,4093.33,4096.92,4059.49,4169.23,4050.77,4047.69,4085.13,4023.59,0
12_11_54,107,3928.21,3743.08,4073.33,4050.77,4101.54,4090.77,4093.33,4096.92,4058.97,4175.38,4058.46,4051.79,4105.64,4035.38,0
12_11_54,108,3926.67,3748.21,4072.31,4047.18,4109.23,4083.59,4092.82,4096.92,4057.95,4184.1,4062.56,4051.79,4106.67,4037.95,0
12_11_54,109,3928.72,3741.54,4069.74,4040.51,4102.05,4084.1,4091.28,4096.92,4065.64,4187.18,4058.97,4048.21,4101.54,4035.38,0
12_11_54,110,3928.21,3731.28,4069.23,4037.95,4095.38,4087.69,4085.13,4096.92,4065.64,4184.62,4048.21,4047.18,4103.59,4032.82,0
12_11_54,111,3933.33,3737.44,4072.82,4043.59,4104.1,4083.59,4086.15,4096.92,4059.49,4185.13,4046.67,4053.85,4101.03,4037.95,0
12_11_54,112,3942.05,3749.74,4075.9,4045.64,4109.23,4080.51,4090.77,4096.41,4064.1,4185.13,4051.28,4061.54,4094.87,4046.15,0
12_11_54,113,3932.82,3735.38,4075.9,4042.05,4094.36,4079.49,4085.64,4097.95,4065.13,4173.85,4038.97,4052.31,4083.59,4036.92,0
12_11_54,114,3921.03,3721.03,4073.85,4042.05,4084.62,4075.38,4081.54,4096.41,4050.77,4161.54,4021.03,4035.9,4066.15,4020.51,0
12_11_54,115,3925.13,3731.79,4072.82,4040,4096.41,4080.51,4088.72,4094.36,4049.74,4163.08,4029.23,4038.46,4064.62,4026.67,0
12_11_54,116,3929.74,3733.85,4072.31,4031.79,4103.59,4089.23,4093.33,4095.38,4057.95,4171.79,4039.49,4046.15,4075.9,4036.92,0
12_11_54,117,3927.69,3722.56,4074.87,4033.33,4092.31,4082.56,4089.74,4095.38,4053.33,4171.79,4036.92,4041.54,4074.87,4034.36,0
12_11_54,118,3930.26,3724.62,4080.51,4034.87,4085.13,4075.38,4088.72,4093.85,4055.9,4167.69,4038.97,4043.08,4072.31,4035.9,0
12_11_54,119,3938.97,3733.85,4082.05,4032.82,4095.9,4084.62,4093.85,4094.36,4067.18,4176.41,4047.18,4056.41,4083.08,4048.21,0
12_11_54,120,3949.74,3743.08,4081.03,4040.51,4109.74,4097.44,4099.49,4097.44,4065.13,4189.23,4052.31,4064.62,4092.31,4059.49,0
12_11_54,121,3953.85,3751.79,4084.62,4042.56,4110.26,4093.85,4094.87,4096.41,4058.46,4184.62,4049.23,4062.56,4089.74,4061.54,0
12_11_54,122,3952.31,3747.69,4081.03,4036.41,4104.62,4086.15,4084.62,4095.38,4060,4174.87,4046.15,4057.44,4093.33,4058.97,0
12_11_54,123,3956.41,3741.54,4068.72,4040,4104.62,4088.21,4087.69,4097.95,4062.56,4180.51,4052.82,4064.62,4102.05,4063.08,0
12_11_54,3,3956.92,3745.13,4064.62,4043.08,4112.31,4092.31,4101.54,4094.87,4061.54,4187.18,4064.62,4077.95,4137.44,4076.41,0
12_11_54,4,3955.9,3748.72,4064.1,4047.18,4111.28,4092.82,4097.95,4096.92,4065.64,4202.05,4072.82,4081.54,4142.05,4079.49,0
12_11_54,5,3954.87,3754.36,4064.62,4041.54,4107.18,4090.77,4094.87,4098.97,4064.62,4197.44,4070.77,4083.08,4145.64,4077.44,0
12_11_54,6,3950.26,3735.9,4064.1,4037.95,4095.38,4087.69,4101.03,4096.41,4068.21,4196.92,4074.87,4087.18,4150.77,4076.41,0
12_11_54,7,3940.51,3720.51,4061.54,4029.23,4090.77,4084.62,4100,4094.87,4069.23,4203.08,4069.23,4081.03,4137.95,4065.13,0
12_11_54,8,3934.87,3734.87,4058.46,4029.74,4103.59,4086.67,4096.92,4097.95,4067.69,4201.54,4055.9,4072.82,4123.08,4056.92,0
12_11_54,9,3930.26,3741.54,4054.36,4034.87,4108.72,4087.69,4095.38,4099.49,4064.62,4195.38,4053.33,4073.33,4130.26,4055.9,0
12_11_54,10,3925.13,3725.13,4054.36,4034.36,4103.59,4086.15,4095.38,4098.97,4062.56,4196.92,4063.59,4076.92,4138.46,4053.33,0
12_11_54,11,3925.13,3721.03,4062.56,4033.85,4105.13,4092.31,4105.13,4098.97,4071.28,4209.23,4076.92,4081.54,4140.51,4055.9,0
12_11_54,12,3924.62,3734.36,4063.59,4030.26,4108.21,4096.41,4111.28,4098.46,4077.44,4214.87,4070.26,4081.03,4137.44,4053.33,0
12_11_54,13,3926.15,3742.56,4060.51,4032.82,4112.82,4094.36,4105.13,4098.46,4073.33,4216.41,4063.59,4079.49,4138.97,4048.21,0
12_11_54,14,3932.31,3740,4065.13,4048.21,4122.05,4093.33,4101.54,4099.49,4078.97,4227.69,4081.03,4091.28,4153.85,4055.9,0
12_11_54,15,3926.15,3737.44,4064.1,4043.59,4118.97,4094.36,4106.15,4096.92,4087.18,4228.72,4083.59,4096.41,4154.36,4054.87,0
12_11_54,16,3910.77,3731.28,4056.41,4017.95,4108.72,4098.97,4106.67,4095.38,4078.46,4216.41,4065.64,4083.59,4140.51,4035.9,0
12_11_54,17,3903.59,3718.46,4055.9,4020.51,4106.15,4103.59,4103.59,4095.9,4066.67,4211.79,4057.95,4073.33,4132.82,4027.69,0
12_11_54,18,3897.44,3713.85,4055.9,4031.28,4104.1,4096.92,4102.56,4094.87,4061.54,4206.67,4047.69,4064.62,4118.46,4020,0
12_11_54,19,3889.23,3718.46,4051.79,4016.92,4104.62,4091.28,4105.13,4095.38,4062.05,4192.31,4029.74,4055.9,4098.46,4002.05,0
12_11_54,20,3896.92,3724.62,4055.9,4017.44,4110.26,4094.87,4108.21,4098.97,4068.21,4197.95,4033.33,4063.59,4104.62,4004.1,0
12_11_54,21,3910.77,3731.28,4063.59,4037.44,4114.87,4094.36,4105.13,4098.46,4073.85,4215.38,4050.26,4075.9,4123.59,4019.49,0
12_11_54,22,3912.31,3736.92,4063.08,4036.41,4114.87,4093.85,4104.1,4096.41,4076.92,4220,4060.51,4077.95,4125.13,4023.59,0
12_11_54,23,3908.72,3738.97,4060,4023.59,4106.67,4095.9,4103.08,4097.95,4072.82,4213.33,4057.95,4072.31,4122.56,4018.97,0
12_11_54,24,3910.77,3740,4061.03,4035.38,4101.54,4092.82,4100,4098.46,4065.13,4204.62,4049.74,4069.74,4123.59,4017.95,0
12_11_54,25,3913.33,3744.1,4064.62,4045.64,4106.67,4090.26,4099.49,4097.44,4065.13,4201.54,4055.38,4075.38,4125.13,4025.13,0
12_11_54,26,3910.77,3739.49,4066.15,4036.92,4108.72,4091.28,4100.51,4097.95,4070.77,4207.69,4065.64,4083.59,4124.1,4029.23,0
12_11_54,27,3917.95,3740.51,4066.15,4035.38,4106.15,4091.28,4102.05,4096.92,4074.36,4215.9,4057.95,4089.74,4122.05,4028.72,0
12_11_54,28,3927.69,3754.36,4067.18,4041.03,4107.69,4091.79,4105.13,4098.46,4078.46,4216.92,4053.33,4093.33,4124.1,4033.33,0
12_11_54,29,3915.9,3751.79,4065.64,4034.36,4106.15,4094.87,4108.72,4098.97,4076.41,4214.36,4054.87,4088.21,4123.59,4031.79,0
12_11_54,30,3905.64,3743.08,4064.1,4028.72,4103.08,4095.9,4109.23,4092.82,4069.23,4214.87,4052.82,4081.54,4118.46,4022.05,0
12_11_54,31,3922.05,3758.46,4066.67,4043.08,4113.85,4095.38,4108.21,4088.72,4071.28,4215.38,4065.13,4087.69,4124.1,4031.28,0
12_11_54,32,3931.79,3771.79,4071.28,4055.38,4124.1,4098.97,4109.23,4093.85,4078.46,4218.97,4081.54,4095.38,4142.05,4048.21,0
12_11_54,33,3927.18,3761.54,4071.28,4053.85,4118.46,4098.46,4111.79,4098.46,4081.03,4227.69,4078.97,4093.33,4149.74,4045.13,0
12_11_54,34,3933.33,3768.21,4068.72,4050.26,4109.74,4094.36,4108.72,4097.95,4080.51,4230.26,4075.38,4090.77,4153.85,4041.54,0
12_11_54,35,3935.9,3783.08,4068.72,4050.77,4110.77,4100,4105.13,4098.46,4080,4221.54,4078.97,4092.31,4164.62,4044.62,0
12_11_54,36,3925.64,3775.38,4066.67,4052.31,4113.33,4107.69,4110.77,4095.9,4076.92,4217.44,4075.38,4090.77,4175.9,4041.03,0
12_11_54,37,3921.54,3767.18,4063.59,4047.18,4108.21,4101.03,4110.77,4094.36,4071.28,4212.31,4070.77,4081.54,4182.56,4032.31,0
12_11_54,38,3929.23,3774.87,4064.1,4052.82,4104.62,4097.95,4107.69,4099.49,4070.26,4206.15,4080,4082.56,4193.85,4033.33,0
12_11_54,39,3936.92,3782.56,4068.72,4062.56,4108.72,4106.15,4113.85,4099.49,4079.49,4218.97,4088.21,4098.97,4210.77,4042.05,0
12_11_54,40,3938.46,3789.23,4068.21,4058.46,4111.79,4108.21,4115.38,4095.38,4086.67,4235.9,4087.18,4105.13,4218.46,4045.64,0
12_11_54,41,3940,3797.95,4063.08,4054.36,4110.26,4105.13,4107.69,4096.41,4078.46,4231.28,4085.64,4094.87,4217.95,4043.08,0
12_11_54,42,3941.54,3797.44,4062.05,4056.92,4108.72,4103.59,4109.23,4098.46,4076.92,4226.15,4087.18,4093.33,4215.38,4042.05,0
12_11_54,43,3941.03,3794.36,4067.18,4049.74,4107.18,4097.44,4114.36,4096.41,4086.15,4234.36,4088.21,4103.08,4216.41,4047.69,0
12_11_54,44,3943.08,3796.92,4068.21,4043.59,4104.62,4094.36,4111.28,4096.92,4081.54,4232.31,4086.15,4104.1,4215.9,4054.36,0
12_11_54,45,3958.97,3806.15,4069.74,4057.44,4103.59,4101.54,4114.36,4098.46,4077.44,4230.77,4094.87,4109.23,4216.41,4063.59,0
12_11_54,46,3969.74,3816.92,4072.31,4064.62,4106.15,4109.23,4124.62,4098.46,4090.26,4239.49,4106.15,4122.05,4218.97,4071.79,0
12_11_54,47,3965.64,3820.51,4071.28,4056.41,4111.79,4109.23,4126.15,4098.97,4096.41,4239.49,4102.56,4120.51,4210.77,4067.69,0
12_11_54,48,3965.13,3820.51,4069.23,4049.23,4113.33,4106.15,4122.05,4097.95,4085.64,4233.85,4093.33,4106.67,4204.62,4063.59,0
12_11_54,49,3966.15,3817.44,4070.77,4044.62,4110.77,4108.72,4123.08,4097.95,4081.03,4229.23,4090.77,4105.13,4204.1,4066.15,0
12_11_54,50,3958.46,3812.31,4070.77,4043.59,4105.64,4108.72,4120.51,4100,4083.59,4223.59,4092.82,4109.23,4196.41,4062.56,0
12_11_54,51,3953.33,3810.26,4067.69,4044.62,4098.46,4095.9,4107.69,4096.41,4077.95,4215.38,4084.1,4099.49,4184.62,4051.79,0
12_11_54,52,3953.85,3812.31,4064.1,4039.49,4100,4086.67,4101.54,4090.77,4071.79,4212.82,4072.31,4087.69,4177.95,4047.69,0
12_11_54,53,3954.87,3821.03,4065.13,4034.36,4106.67,4095.38,4108.21,4093.33,4078.97,4219.49,4080.51,4088.72,4185.13,4053.33,0
12_11_54,54,3966.15,3831.79,4073.33,4043.08,4107.18,4100.51,4111.79,4098.97,4092.31,4232.82,4104.1,4101.03,4206.15,4068.21,0
12_11_54,55,3973.85,3830.26,4072.31,4051.28,4104.62,4093.85,4112.82,4098.46,4093.85,4240,4115.9,4108.72,4217.95,4076.41,0
12_11_54,56,3963.59,3822.56,4069.74,4048.21,4100,4093.85,4118.46,4094.87,4087.18,4230.77,4105.64,4105.13,4205.64,4070.26,0
12_11_54,57,3963.08,3824.62,4074.36,4047.18,4089.74,4094.36,4112.82,4091.79,4084.1,4228.21,4098.46,4104.1,4202.56,4069.74,0
12_11_54,58,3972.82,3832.31,4077.95,4048.72,4091.79,4091.79,4105.64,4091.79,4082.56,4229.74,4102.05,4106.67,4209.23,4077.44,0
12_11_54,59,3973.33,3838.46,4075.38,4046.67,4109.23,4100.51,4113.85,4096.41,4083.59,4223.08,4105.13,4107.69,4206.15,4077.44,0
12_11_54,60,3972.31,3844.1,4075.38,4048.21,4111.28,4105.13,4115.38,4096.41,4087.69,4224.1,4105.13,4108.21,4204.62,4074.36,0
12_11_54,61,3974.36,3847.69,4074.36,4055.38,4102.05,4095.38,4103.59,4094.36,4091.79,4233.33,4105.13,4108.21,4206.67,4076.41,0
12_11_54,62,3975.38,3849.74,4074.87,4061.54,4104.62,4091.28,4104.1,4096.92,4090.77,4234.87,4105.13,4105.64,4207.18,4077.95,0
12_11_54,63,3978.97,3851.28,4076.92,4062.05,4105.13,4094.87,4109.23,4098.97,4082.56,4228.72,4109.23,4106.15,4212.82,4078.46,0
12_11_54,64,3985.13,3848.72,4073.33,4057.95,4091.79,4092.82,4106.15,4098.46,4083.08,4230.77,4116.92,4108.72,4214.87,4080.51,0
12_11_54,65,3981.03,3844.1,4071.28,4058.97,4090.77,4090.26,4106.15,4096.92,4089.23,4229.74,4116.92,4106.67,4204.1,4077.95,0
12_11_54,66,3974.36,3848.21,4075.38,4064.1,4103.59,4091.28,4107.18,4096.92,4087.69,4221.03,4108.72,4105.13,4199.49,4076.92,0
12_11_54,67,3980,3862.56,4074.36,4065.13,4108.21,4090.77,4104.62,4097.95,4084.1,4217.44,4106.15,4105.64,4203.59,4084.62,0
12_11_54,68,3984.62,3863.59,4073.85,4061.03,4104.1,4090.77,4104.62,4098.97,4087.69,4216.41,4107.69,4101.54,4197.44,4086.67,0
12_11_54,69,3979.49,3853.85,4076.41,4063.59,4098.97,4092.31,4108.72,4098.46,4092.82,4215.9,4105.64,4096.41,4187.18,4076.92,0
12_11_54,70,3977.44,3858.46,4074.87,4072.82,4094.36,4093.33,4110.26,4097.95,4091.79,4214.87,4102.56,4096.41,4185.64,4073.33,0
12_11_54,71,3986.15,3864.1,4073.33,4075.9,4100.51,4097.44,4109.23,4098.97,4090.77,4216.41,4103.59,4098.46,4192.82,4076.41,0
12_11_54,72,3991.28,3863.08,4075.38,4072.82,4109.23,4102.05,4111.28,4098.97,4091.79,4219.49,4108.21,4098.46,4201.03,4076.41,0
12_11_54,73,3983.59,3872.31,4073.85,4073.85,4106.67,4098.97,4109.74,4096.92,4087.69,4217.95,4108.21,4094.36,4204.1,4074.87,0
12_11_54,74,3974.87,3878.97,4071.79,4075.38,4104.62,4090.77,4103.08,4095.38,4081.03,4211.28,4108.21,4092.82,4203.59,4075.9,0
12_11_54,75,3981.03,3874.36,4075.38,4073.85,4105.64,4089.74,4102.56,4098.97,4081.54,4213.33,4117.95,4102.56,4204.62,4078.97,0
12_11_54,76,3992.31,3877.44,4075.38,4076.41,4097.44,4092.31,4107.18,4098.46,4084.1,4216.92,4120.51,4107.69,4203.08,4082.05,0
12_11_54,77,3986.67,3876.41,4073.85,4077.95,4087.18,4087.69,4105.13,4094.36,4075.38,4204.62,4103.08,4092.82,4187.69,4073.85,0
12_11_54,78,3983.08,3871.28,4075.38,4071.79,4094.36,4088.21,4103.08,4096.41,4076.92,4195.9,4093.85,4087.69,4180,4070.26,0
12_11_54,79,3996.92,3885.64,4078.97,4070.77,4107.69,4095.38,4106.67,4097.95,4090.77,4205.13,4102.56,4104.1,4189.23,4085.64,0
12_11_54,80,3999.49,3893.33,4080,4072.82,4099.49,4088.21,4106.67,4094.36,4088.72,4204.1,4107.69,4109.23,4186.15,4089.23,0
