TIME, ED_COUNTER, AF3, F7, F3, FC5, T7, P7, O1, O2, P8, T8, FC6, F4, F8, AF4, LABEL
12_22_45,113,4095.38,4077.44,4108.72,4107.18,4095.9,4082.05,4102.56,4109.23,4094.87,4107.18,4125.13,4125.64,4103.08,4089.74,0
12_22_45,114,4093.33,4068.21,4107.18,4102.05,4092.31,4081.54,4096.41,4100.51,4092.82,4111.79,4121.03,4122.05,4103.08,4086.15,0
12_22_45,115,4100,4076.92,4102.05,4103.59,4094.36,4083.59,4094.36,4090.26,4094.87,4107.18,4116.41,4121.54,4106.15,4082.56,0
12_22_45,116,4094.87,4074.87,4099.49,4097.95,4090.77,4082.05,4092.82,4087.18,4093.85,4098.46,4113.85,4118.46,4107.18,4080,0
12_22_45,117,4091.28,4062.05,4103.59,4094.87,4093.85,4086.15,4097.44,4089.74,4093.33,4100,4115.38,4115.9,4103.59,4075.9,0
12_22_45,118,4102.05,4063.59,4106.67,4102.56,4104.62,4092.82,4105.64,4093.33,4104.1,4105.13,4119.49,4121.03,4107.69,4080.51,0
12_22_45,119,4110.77,4081.03,4108.72,4108.21,4108.72,4093.85,4106.67,4096.41,4117.44,4113.85,4124.62,4130.77,4120,4092.31,0
12_22_45,120,4109.23,4090.77,4112.31,4108.21,4107.18,4093.33,4106.67,4104.62,4124.1,4121.03,4127.69,4133.85,4126.67,4091.28,0
12_22_45,121,4106.15,4078.46,4113.33,4107.18,4106.67,4093.33,4108.72,4111.28,4128.72,4115.38,4125.13,4132.82,4122.56,4087.18,0
12_22_45,122,4107.18,4071.28,4110.77,4107.18,4107.69,4090.26,4108.72,4109.23,4132.82,4110.77,4115.9,4130.26,4122.56,4088.72,0
12_22_45,123,4105.13,4080,4107.69,4106.67,4106.67,4086.67,4106.67,4107.69,4131.28,4112.31,4112.82,4125.64,4126.15,4087.18,0
12_22_45,124,4097.44,4082.05,4106.67,4105.13,4104.62,4088.21,4106.15,4105.64,4124.62,4110.77,4113.85,4122.56,4122.05,4084.62,0
12_22_45,125,4090.77,4075.9,4107.18,4105.64,4105.13,4090.77,4105.13,4102.56,4120.51,4106.15,4112.82,4123.08,4118.97,4088.72,0
12_22_45,126,4089.74,4077.95,4107.18,4107.18,4107.69,4090.26,4105.64,4104.62,4125.64,4106.15,4111.79,4124.62,4122.05,4092.31,0
12_22_45,127,4090.26,4085.13,4106.15,4109.23,4108.21,4089.23,4105.13,4102.56,4123.59,4111.79,4110.26,4123.08,4124.62,4090.26,0
12_22_45,128,4090.77,4085.64,4107.18,4107.69,4107.69,4088.72,4100.51,4090.26,4109.74,4107.69,4107.69,4121.54,4121.54,4089.23,0
12_22_45,0,4092.31,4080.51,4106.67,4108.21,4108.21,4083.59,4097.44,4087.69,4105.13,4096.41,4105.64,4117.44,4112.31,4090.77,0
12_22_45,1,4091.28,4080,4105.13,4109.23,4107.69,4078.46,4095.9,4094.87,4111.28,4097.44,4105.64,4109.23,4107.18,4088.72,0
12_22_45,2,4084.62,4079.49,4105.13,4100.51,4102.56,4078.97,4095.38,4092.82,4109.23,4102.56,4105.64,4108.21,4107.69,4083.59,0
12_22_45,2,4084.62,4079.49,4105.13,4100.51,4102.56,4078.97,4095.38,4092.82,4109.23,4102.56,4105.64,4108.21,4107.69,4083.59,0
12_22_45,10,4097.95,4089.74,4112.31,4104.1,4106.15,4081.03,4092.82,4085.64,4101.03,4108.72,4120.51,4135.38,4118.97,4089.74,0
12_22_45,11,4095.38,4080.51,4108.72,4106.67,4107.69,4087.18,4101.54,4092.31,4108.21,4107.69,4125.64,4127.69,4112.31,4087.69,0
12_22_45,12,4091.79,4080.51,4108.21,4105.13,4106.15,4087.69,4107.69,4096.41,4121.03,4109.23,4119.49,4124.62,4107.69,4083.08,0
12_22_45,13,4086.15,4077.95,4103.59,4092.82,4100,4081.54,4098.97,4097.95,4116.41,4112.31,4112.82,4119.49,4108.72,4077.44,0
12_22_45,14,4081.54,4071.28,4099.49,4088.72,4097.95,4078.97,4091.79,4100,4107.69,4113.33,4111.79,4110.26,4109.74,4076.41,0
12_22_45,15,4078.46,4073.33,4095.9,4093.33,4097.95,4084.62,4093.85,4096.92,4104.1,4108.21,4108.72,4105.13,4101.03,4072.31,0
12_22_45,16,4077.44,4075.9,4092.31,4090.77,4094.87,4089.23,4094.87,4090.77,4097.95,4100.51,4105.13,4105.64,4090.26,4068.72,0
12_22_45,17,4077.44,4078.46,4094.87,4086.15,4093.85,4083.08,4091.79,4088.21,4091.28,4101.54,4106.15,4105.13,4094.36,4070.77,0
12_22_45,18,4084.1,4088.21,4102.56,4094.87,4098.97,4080,4092.31,4088.72,4093.33,4107.18,4113.85,4110.77,4106.15,4078.46,0
12_22_45,19,4098.97,4096.41,4109.23,4107.18,4106.15,4089.23,4097.95,4090.77,4096.41,4108.72,4122.05,4123.59,4111.79,4088.21,0
12_22_45,20,4105.13,4096.92,4110.77,4108.21,4108.21,4091.28,4098.46,4091.79,4098.97,4107.18,4125.13,4130.77,4117.44,4092.31,0
12_22_45,21,4102.05,4094.87,4111.79,4105.64,4104.62,4083.59,4092.82,4088.21,4104.1,4112.31,4126.67,4127.69,4122.05,4091.79,0
12_22_45,22,4100,4093.85,4111.28,4106.15,4104.62,4087.69,4097.44,4092.31,4105.64,4114.87,4128.21,4123.59,4114.87,4089.23,0
12_22_45,23,4098.46,4095.9,4107.18,4107.18,4106.67,4094.36,4108.21,4106.67,4105.64,4109.74,4124.1,4123.08,4107.69,4088.21,0
12_22_45,24,4093.33,4091.79,4107.18,4099.49,4097.95,4090.26,4103.59,4104.1,4104.62,4107.69,4114.87,4118.97,4106.15,4082.05,0
12_22_45,25,4085.13,4082.05,4107.69,4091.28,4087.69,4087.18,4095.38,4090.26,4095.38,4106.67,4107.69,4109.23,4099.49,4073.85,0
12_22_45,26,4080.51,4083.59,4102.05,4091.79,4096.92,4090.77,4101.03,4094.87,4091.28,4105.13,4107.69,4105.13,4096.92,4073.85,0
12_22_45,27,4078.46,4088.72,4092.82,4095.38,4106.15,4093.33,4103.59,4103.59,4101.03,4101.54,4106.67,4106.67,4099.49,4072.82,0
12_22_45,28,4075.9,4081.03,4091.28,4091.79,4093.85,4091.28,4095.9,4096.41,4102.05,4094.87,4101.54,4103.59,4094.87,4067.18,0
12_22_45,29,4071.79,4073.85,4093.85,4088.72,4085.64,4087.18,4091.79,4085.13,4089.23,4092.82,4101.54,4102.56,4088.72,4070.26,0
12_22_45,30,4073.85,4081.54,4093.85,4092.82,4092.82,4083.08,4091.79,4080.51,4084.1,4096.41,4104.62,4107.18,4089.74,4077.95,0
12_22_45,31,4078.97,4086.67,4092.82,4093.33,4095.9,4081.03,4090.26,4082.56,4084.1,4092.82,4101.03,4098.97,4090.77,4072.82,0
12_22_45,32,4078.46,4085.64,4093.85,4091.28,4091.79,4080.51,4091.28,4089.74,4086.15,4089.74,4098.97,4089.23,4089.74,4068.21,0
12_22_45,33,4078.46,4084.62,4093.33,4088.72,4090.77,4078.46,4092.31,4092.82,4092.31,4099.49,4106.15,4094.87,4092.82,4075.9,0
12_22_45,34,4077.95,4078.46,4090.77,4083.59,4090.26,4079.49,4091.28,4094.36,4100.51,4108.21,4107.18,4099.49,4094.36,4077.95,0
12_22_45,35,4075.9,4078.97,4092.31,4085.13,4091.28,4086.67,4094.87,4100,4103.08,4108.21,4105.64,4097.95,4094.87,4073.33,0
12_22_45,36,4075.9,4087.69,4093.33,4089.74,4092.82,4090.26,4096.41,4094.87,4095.9,4101.03,4107.69,4103.08,4094.36,4073.33,0
12_22_45,37,4075.9,4088.72,4093.85,4088.72,4091.28,4086.67,4093.85,4092.82,4092.31,4098.97,4106.67,4106.67,4090.26,4074.87,0
12_22_45,38,4078.46,4084.1,4097.95,4090.26,4091.79,4084.62,4094.36,4106.15,4103.08,4103.59,4108.72,4108.21,4092.82,4079.49,0
12_22_45,39,4078.97,4082.05,4101.03,4092.31,4089.74,4082.05,4094.36,4102.05,4098.97,4102.05,4109.74,4111.28,4095.38,4082.05,0
12_22_45,40,4071.79,4079.49,4094.87,4085.13,4083.59,4076.41,4089.23,4084.1,4080.51,4098.46,4101.54,4106.15,4088.21,4073.33,0
12_22_45,41,4067.18,4078.97,4090.26,4081.54,4084.62,4072.82,4088.72,4084.62,4083.59,4102.56,4098.46,4098.97,4085.13,4068.21,0
12_22_46,42,4076.41,4084.1,4100,4090.26,4092.82,4075.38,4092.82,4100,4100,4110.77,4109.74,4107.18,4091.79,4078.46,0
12_22_46,43,4081.54,4081.03,4105.13,4092.31,4092.82,4077.95,4093.85,4103.59,4099.49,4108.72,4112.82,4111.79,4086.67,4079.49,0
12_22_46,44,4072.31,4076.92,4091.79,4081.03,4086.67,4077.44,4092.31,4094.36,4088.21,4096.41,4098.97,4096.92,4074.36,4065.13,0
12_22_46,45,4065.13,4074.36,4083.59,4073.85,4087.18,4075.9,4091.79,4088.72,4085.13,4097.44,4095.9,4088.21,4076.92,4061.03,0
12_22_46,46,4062.56,4067.18,4089.23,4071.79,4091.28,4076.92,4091.28,4090.77,4090.77,4106.15,4099.49,4092.31,4077.44,4063.59,0
12_22_46,47,4063.08,4072.82,4086.67,4070.26,4090.26,4076.41,4091.79,4090.77,4091.79,4093.33,4092.31,4089.23,4066.15,4059.49,0
12_22_46,48,4071.79,4081.54,4084.62,4076.92,4088.21,4075.9,4091.79,4090.77,4090.77,4087.18,4092.82,4090.77,4074.36,4061.54,0
12_22_46,49,4085.64,4085.64,4100,4090.77,4091.79,4076.92,4091.28,4094.36,4091.79,4108.21,4108.72,4105.64,4094.87,4076.92,0
12_22_46,50,4098.97,4100,4108.72,4096.92,4094.87,4077.44,4089.74,4087.18,4082.56,4109.23,4109.74,4111.79,4093.33,4089.23,0
12_22_46,51,4105.64,4108.72,4105.64,4094.36,4092.82,4078.97,4090.77,4082.56,4076.92,4094.87,4104.1,4113.33,4085.13,4091.79,0
12_22_46,52,4103.59,4093.85,4108.21,4093.33,4091.79,4082.56,4093.33,4100,4091.79,4102.56,4114.87,4122.56,4092.82,4092.31,0
12_22_46,53,4100,4086.67,4111.28,4093.33,4096.92,4086.67,4094.87,4107.18,4097.44,4113.33,4115.38,4126.15,4095.38,4091.79,0
12_22_46,54,4104.62,4103.08,4108.21,4095.38,4103.08,4089.23,4101.54,4096.41,4088.21,4105.64,4104.1,4119.49,4085.13,4091.28,0
12_22_46,55,4106.15,4110.77,4105.13,4097.95,4102.05,4091.79,4104.62,4098.46,4090.26,4095.9,4104.62,4112.82,4075.38,4088.72,0
12_22_46,56,4103.59,4106.15,4104.1,4096.92,4098.97,4093.33,4100.51,4105.64,4092.82,4095.9,4106.15,4108.21,4071.79,4083.59,0
12_22_46,57,4103.59,4104.62,4102.05,4094.87,4106.15,4093.33,4097.95,4100,4088.72,4096.41,4100.51,4107.18,4072.31,4081.54,0
12_22_46,58,4106.67,4113.33,4100,4098.46,4107.69,4092.82,4097.95,4098.97,4087.69,4090.77,4094.87,4106.15,4068.21,4083.08,0
12_22_46,59,4114.87,4123.59,4100.51,4104.62,4094.87,4089.74,4093.33,4103.59,4082.56,4088.21,4092.31,4105.13,4063.59,4086.15,0
12_22_46,60,4127.18,4128.72,4105.64,4106.67,4091.79,4086.67,4090.26,4092.31,4072.82,4094.36,4094.36,4111.28,4068.21,4094.36,0
12_22_46,61,4140,4142.05,4110.77,4111.79,4107.18,4088.21,4092.31,4079.49,4073.85,4096.92,4105.13,4121.03,4075.9,4106.15,0
12_22_46,62,4141.03,4151.79,4109.23,4112.82,4108.72,4090.77,4088.72,4083.08,4079.49,4091.79,4103.59,4120,4070.77,4105.64,0
12_22_46,63,4135.38,4143.59,4106.15,4106.15,4097.44,4091.28,4085.64,4083.59,4075.38,4088.21,4088.72,4107.18,4058.46,4097.44,0
12_22_46,64,4144.1,4144.1,4111.28,4106.67,4099.49,4091.28,4089.74,4080.51,4075.38,4089.23,4092.31,4107.69,4062.56,4101.03,0
12_22_46,65,4154.36,4155.38,4121.54,4114.87,4104.62,4087.69,4093.33,4089.74,4081.54,4092.82,4109.23,4125.64,4076.92,4113.85,0
12_22_46,66,4144.62,4147.18,4119.49,4110.77,4095.9,4080.51,4090.26,4090.77,4073.85,4089.23,4102.56,4125.64,4070.77,4112.31,0
12_22_46,67,4132.31,4130.77,4105.64,4097.44,4086.67,4081.03,4088.72,4077.44,4065.13,4080,4086.15,4107.18,4055.9,4097.95,0
12_22_46,68,4136.41,4130.77,4102.05,4097.95,4086.67,4082.05,4091.28,4073.85,4068.21,4073.33,4085.64,4103.08,4057.95,4096.41,0
12_22_46,69,4140.51,4137.95,4107.18,4105.13,4092.31,4082.05,4091.79,4074.87,4066.15,4075.38,4089.74,4110.26,4061.54,4104.1,0
12_22_46,70,4136.92,4142.56,4108.72,4110.77,4101.54,4085.13,4090.77,4073.33,4068.21,4082.05,4091.79,4109.23,4061.54,4102.56,0
12_22_46,71,4143.08,4148.72,4113.85,4116.41,4103.08,4084.1,4091.28,4076.92,4077.44,4089.23,4101.03,4115.9,4070.77,4103.59,0
12_22_46,72,4151.28,4153.85,4119.49,4117.44,4101.03,4082.05,4091.28,4074.36,4072.82,4095.38,4108.21,4127.18,4080,4113.85,0
12_22_46,73,4145.13,4153.33,4116.41,4112.31,4102.56,4082.05,4089.23,4068.72,4066.15,4092.82,4105.64,4119.49,4072.31,4108.21,0
12_22_46,74,4135.38,4143.59,4111.79,4107.18,4097.44,4076.92,4088.21,4074.36,4074.87,4087.18,4100.51,4105.64,4060.51,4096.41,0
12_22_46,75,4135.38,4136.41,4109.74,4107.18,4091.28,4073.33,4090.77,4077.44,4077.44,4088.72,4098.46,4106.67,4063.08,4104.62,0
12_22_46,76,4137.44,4143.08,4106.15,4106.67,4094.87,4079.49,4092.82,4074.36,4067.18,4090.77,4093.85,4108.72,4066.67,4110.26,0
12_22_46,77,4135.9,4146.67,4104.62,4105.13,4093.33,4079.49,4090.26,4074.87,4062.05,4081.54,4090.77,4102.05,4059.49,4103.08,0
12_22_46,78,4137.95,4139.49,4105.64,4103.59,4087.69,4075.38,4089.23,4075.9,4068.72,4078.46,4097.95,4105.64,4061.54,4108.72,0
12_22_46,79,4140.51,4138.46,4106.15,4104.1,4096.41,4084.62,4092.82,4079.49,4076.92,4089.74,4108.21,4116.92,4075.38,4122.05,0
12_22_46,80,4141.03,4143.08,4111.28,4109.74,4104.62,4092.82,4092.31,4084.1,4076.92,4096.41,4110.26,4120.51,4078.46,4123.08,0
12_22_46,81,4141.54,4140,4114.87,4108.72,4096.41,4084.62,4083.08,4077.95,4072.31,4090.26,4108.72,4123.59,4078.46,4119.49,0
12_22_46,82,4141.03,4138.46,4110.77,4105.64,4092.31,4079.49,4081.54,4074.87,4073.85,4089.23,4109.23,4125.64,4088.72,4122.05,0
12_22_46,83,4138.46,4141.54,4109.23,4107.18,4098.97,4082.05,4089.23,4077.95,4081.03,4096.41,4109.23,4124.1,4093.85,4122.56,0
12_22_46,84,4135.38,4133.85,4110.77,4108.72,4098.97,4082.05,4090.77,4075.38,4086.67,4093.33,4109.23,4122.56,4090.26,4116.92,0
12_22_46,85,4135.9,4129.74,4109.23,4107.18,4092.82,4086.15,4090.26,4080.51,4092.31,4087.69,4106.67,4122.56,4092.82,4111.79,0
12_22_46,86,4131.79,4130.77,4108.21,4107.18,4093.85,4090.77,4094.36,4090.26,4096.92,4095.9,4104.1,4121.03,4102.05,4108.72,0
12_22_46,87,4124.1,4127.69,4105.13,4107.69,4096.41,4087.69,4094.36,4088.21,4099.49,4103.59,4106.15,4116.92,4106.15,4107.18,0
12_22_46,88,4123.08,4132.31,4101.03,4107.18,4101.03,4088.72,4094.36,4085.13,4105.13,4097.44,4104.62,4113.33,4105.64,4106.15,0
12_22_46,89,4126.15,4136.92,4101.54,4108.21,4107.69,4096.92,4098.46,4090.77,4112.31,4098.46,4102.56,4108.72,4106.67,4107.69,0
12_22_46,90,4123.59,4128.21,4105.64,4107.18,4103.08,4094.36,4094.87,4093.33,4112.82,4105.13,4102.05,4110.77,4108.72,4110.77,0
12_22_46,91,4123.59,4124.1,4105.13,4106.15,4097.44,4085.13,4087.69,4090.26,4109.23,4099.49,4097.95,4113.85,4109.23,4110.77,0
12_22_46,92,4123.08,4128.72,4105.13,4107.69,4098.46,4082.05,4088.72,4089.23,4106.15,4091.28,4093.85,4109.23,4105.64,4105.13,0
12_22_46,93,4122.56,4126.67,4109.74,4108.21,4099.49,4082.05,4091.79,4092.82,4106.67,4095.38,4099.49,4112.31,4106.67,4107.18,0
12_22_46,94,4130.26,4127.69,4110.77,4108.72,4103.59,4086.67,4092.31,4101.54,4114.87,4106.15,4108.21,4124.62,4112.31,4117.44,0
12_22_46,95,4132.82,4131.28,4107.18,4110.77,4108.21,4090.77,4095.9,4108.72,4123.08,4104.62,4106.67,4126.67,4107.69,4115.38,0
12_22_46,96,4126.15,4128.21,4107.69,4110.77,4105.13,4088.72,4098.97,4107.18,4121.03,4095.9,4103.59,4120.51,4098.46,4111.28,0
12_22_46,97,4127.18,4134.36,4110.26,4111.79,4106.67,4089.74,4098.46,4105.64,4121.54,4103.08,4107.69,4123.59,4105.64,4120.51,0
12_22_46,98,4130.77,4140,4108.72,4115.9,4112.31,4093.33,4094.36,4107.18,4124.1,4110.77,4109.74,4125.13,4112.82,4125.64,0
12_22_46,99,4126.67,4130.26,4105.64,4115.38,4105.64,4084.1,4087.69,4101.03,4113.33,4100,4105.64,4118.97,4105.13,4121.03,0
12_22_46,100,4126.15,4126.15,4108.21,4108.72,4099.49,4076.92,4085.64,4091.79,4108.72,4096.41,4111.28,4117.44,4106.67,4118.46,0
12_22_46,101,4131.79,4135.38,4110.26,4109.23,4105.64,4087.69,4089.74,4089.23,4118.97,4108.72,4122.56,4121.54,4119.49,4123.08,0
12_22_46,102,4134.36,4142.05,4113.85,4120.51,4112.31,4095.38,4093.85,4096.92,4123.59,4112.31,4126.67,4129.23,4126.15,4131.79,0
12_22_46,103,4126.67,4135.38,4111.28,4116.92,4105.64,4088.21,4092.82,4103.08,4120,4106.67,4122.56,4125.13,4119.49,4126.15,0
12_22_46,104,4114.36,4122.05,4101.54,4101.03,4095.38,4081.03,4091.79,4101.03,4117.44,4103.59,4111.28,4109.23,4108.21,4111.28,0
12_22_46,105,4115.9,4120,4100.51,4100.51,4096.41,4081.54,4091.28,4101.54,4119.49,4105.64,4105.64,4107.18,4108.72,4113.85,0
12_22_46,106,4119.49,4128.72,4103.08,4106.15,4100.51,4084.1,4091.28,4105.64,4121.54,4107.69,4114.36,4114.87,4112.82,4121.03,0
12_22_46,107,4110.77,4120.51,4102.56,4097.44,4094.87,4088.21,4091.28,4107.69,4125.13,4105.64,4110.26,4112.31,4107.18,4110.26,0
12_22_46,108,4105.64,4105.13,4103.59,4091.28,4091.28,4090.26,4091.79,4104.62,4125.64,4101.54,4083.59,4108.21,4103.59,4102.56,0
12_22_46,109,4114.36,4119.49,4103.08,4101.54,4100.51,4090.77,4091.28,4105.64,4122.56,4105.64,4067.69,4109.23,4107.69,4111.79,0
12_22_46,110,4126.15,4144.62,4103.08,4111.79,4107.18,4088.21,4088.21,4108.21,4122.05,4112.31,4074.36,4113.33,4111.79,4120,0
12_22_46,111,4132.31,4144.62,4108.72,4111.79,4104.1,4087.18,4087.69,4102.05,4121.03,4109.74,4081.54,4124.1,4118.97,4126.15,0
12_22_46,112,4130.77,4135.9,4106.67,4107.69,4102.56,4090.26,4089.74,4093.33,4117.44,4106.67,4082.05,4123.59,4123.59,4127.69,0
12_22_46,113,4125.64,4136.92,4101.03,4106.15,4105.64,4091.28,4091.28,4097.95,4117.44,4109.23,4084.1,4113.33,4120.51,4123.08,0
12_22_46,114,4127.18,4136.41,4104.1,4107.18,4107.69,4090.77,4091.28,4109.74,4124.1,4111.28,4087.69,4120,4123.59,4124.1,0
12_22_46,115,4127.69,4131.79,4102.56,4107.18,4105.13,4092.82,4089.74,4108.72,4124.62,4110.77,4081.54,4126.15,4124.1,4128.21,0
12_22_46,116,4120,4125.13,4097.95,4105.64,4102.56,4094.87,4091.28,4106.67,4122.05,4110.77,4074.87,4112.82,4109.23,4121.54,0
12_22_46,117,4114.87,4114.87,4104.1,4102.05,4102.05,4089.74,4092.31,4110.77,4128.21,4108.21,4080,4113.33,4105.64,4113.85,0
12_22_46,118,4124.62,4120,4109.23,4107.69,4104.62,4088.72,4091.28,4110.26,4125.64,4108.21,4086.67,4126.15,4120,4119.49,0
12_22_46,119,4137.95,4141.54,4108.72,4121.54,4107.69,4095.9,4091.28,4108.21,4117.95,4108.21,4082.56,4121.54,4123.08,4123.59,0
12_22_46,120,4139.49,4146.15,4112.31,4121.54,4108.21,4093.85,4092.82,4105.13,4120,4107.18,4078.97,4115.38,4117.95,4122.05,0
12_22_46,121,4135.38,4132.82,4115.9,4106.67,4107.18,4087.18,4091.79,4099.49,4123.59,4107.69,4084.62,4122.56,4121.54,4129.74,0
12_22_46,122,4138.97,4134.87,4112.82,4104.1,4106.67,4090.26,4090.77,4097.44,4115.9,4108.72,4085.13,4124.1,4124.62,4138.46,0
12_22_46,123,4141.54,4137.95,4109.23,4109.23,4103.59,4091.28,4092.31,4097.44,4105.64,4103.08,4077.44,4118.46,4120.51,4136.92,0
12_22_46,124,4135.9,4125.64,4105.64,4102.05,4097.44,4086.15,4092.31,4093.33,4103.08,4094.36,4075.9,4120.51,4118.97,4135.38,0
12_22_46,125,4134.36,4119.49,4104.1,4093.33,4095.9,4090.77,4092.82,4097.44,4107.18,4092.82,4078.97,4124.1,4122.56,4137.95,0
12_22_46,126,4135.38,4121.54,4105.64,4094.87,4094.36,4089.74,4092.31,4104.62,4106.67,4094.87,4076.92,4120,4120,4134.36,0
12_22_46,127,4140,4125.64,4108.72,4099.49,4093.85,4080,4089.23,4100,4102.56,4097.95,4077.95,4121.03,4120,4132.31,0
12_22_46,128,4150.26,4137.44,4109.23,4106.15,4104.1,4084.1,4089.23,4098.46,4108.21,4106.15,4088.72,4134.87,4134.36,4146.15,0
12_22_46,0,4154.36,4142.56,4109.23,4112.31,4107.69,4092.31,4092.31,4108.21,4111.79,4109.74,4091.79,4138.97,4140.51,4154.87,0
12_22_46,1,4144.62,4130.26,4107.18,4107.69,4095.38,4085.13,4089.74,4106.15,4100.51,4100.51,4081.03,4126.67,4127.18,4142.56,0
12_22_46,2,4142.05,4121.03,4104.62,4097.44,4088.72,4076.41,4085.13,4091.79,4091.28,4091.79,4075.38,4121.54,4120,4136.41,0
12_22_46,3,4151.79,4127.18,4106.67,4097.95,4092.82,4077.95,4087.69,4086.15,4088.21,4090.77,4075.9,4127.18,4123.59,4144.62,0
12_22_46,4,4155.9,4136.92,4108.21,4105.64,4094.36,4083.59,4093.33,4090.26,4083.08,4089.23,4075.9,4126.15,4122.05,4142.56,0
12_22_46,5,4154.36,4135.9,4106.67,4108.21,4093.85,4089.23,4093.33,4093.85,4084.62,4092.31,4080,4124.1,4122.05,4140.51,0
12_22_46,6,4149.23,4125.64,4105.13,4105.13,4094.36,4091.28,4090.26,4092.82,4091.79,4098.97,4084.62,4125.64,4126.67,4151.79,0
12_22_46,7,4142.05,4120,4106.67,4103.59,4094.87,4090.26,4090.77,4095.9,4094.36,4100,4084.1,4126.15,4129.23,4152.82,0
12_22_46,8,4141.03,4126.15,4108.72,4107.69,4097.95,4087.18,4092.82,4105.64,4096.92,4104.62,4089.23,4135.38,4136.41,4144.62,0
12_22_46,9,4143.59,4129.23,4105.64,4110.26,4100.51,4086.15,4091.79,4108.21,4102.05,4111.28,4093.33,4137.44,4139.49,4143.08,0
12_22_46,10,4141.54,4125.13,4102.05,4106.15,4096.41,4087.69,4088.21,4104.1,4105.13,4111.79,4090.26,4125.13,4135.9,4142.05,0
12_22_46,11,4141.54,4130.77,4101.54,4104.62,4099.49,4089.23,4091.28,4105.13,4108.72,4114.87,4092.82,4125.64,4140,4138.97,0
12_22_46,12,4143.59,4139.49,4097.95,4110.26,4106.67,4089.23,4096.92,4106.15,4108.21,4118.97,4095.9,4134.87,4139.49,4140,0
12_22_46,13,4132.82,4129.23,4091.79,4102.05,4097.44,4082.56,4093.85,4101.03,4094.36,4109.23,4084.1,4126.67,4122.05,4136.92,0
12_22_46,14,4126.15,4116.41,4092.31,4089.74,4086.67,4075.9,4089.23,4102.56,4084.62,4100,4077.95,4114.87,4116.41,4132.82,0
12_22_46,15,4136.92,4123.59,4101.03,4098.46,4098.46,4081.54,4092.82,4109.74,4097.44,4111.28,4096.41,4125.13,4135.38,4144.1,0
12_22_46,16,4143.59,4129.23,4103.08,4108.21,4106.15,4087.69,4091.79,4110.26,4109.23,4120,4107.69,4135.38,4145.13,4152.82,0
12_22_46,17,4136.92,4125.64,4094.36,4106.15,4094.87,4082.05,4082.05,4103.59,4105.64,4112.82,4097.44,4126.15,4134.87,4143.59,0
12_22_46,18,4135.9,4126.67,4093.85,4102.56,4092.31,4075.9,4082.05,4096.92,4099.49,4106.15,4090.77,4118.46,4125.64,4135.38,0
12_22_46,19,4140.51,4124.62,4102.56,4100,4097.44,4075.9,4089.23,4092.31,4096.41,4108.21,4094.36,4122.05,4123.59,4139.49,0
12_22_46,20,4138.97,4122.05,4101.54,4100.51,4098.46,4081.03,4090.26,4089.74,4096.92,4110.77,4095.9,4124.62,4128.72,4142.56,0
12_22_46,21,4140,4133.33,4102.05,4107.69,4103.08,4088.72,4090.26,4094.36,4100.51,4111.28,4102.05,4129.74,4137.95,4147.69,0
12_22_46,22,4142.05,4137.44,4109.23,4109.74,4108.72,4092.82,4095.38,4104.62,4099.49,4112.82,4109.74,4138.97,4139.49,4151.28,0
12_22_46,23,4136.41,4124.62,4105.64,4104.1,4107.69,4090.77,4097.95,4108.72,4092.82,4109.74,4101.54,4136.41,4131.79,4140.51,0
12_22_46,24,4135.9,4118.46,4103.08,4105.13,4104.62,4090.77,4096.41,4107.69,4092.82,4107.69,4091.79,4135.9,4127.69,4136.92,0
12_22_46,25,4135.38,4123.59,4106.15,4107.18,4099.49,4090.77,4095.38,4109.74,4096.41,4108.21,4091.79,4138.97,4127.69,4141.03,0
12_22_46,26,4125.13,4118.97,4100,4101.03,4094.36,4087.18,4091.79,4107.69,4090.77,4103.08,4087.69,4126.67,4123.08,4131.79,0
12_22_46,27,4124.62,4117.95,4100.51,4101.54,4100.51,4090.26,4092.31,4104.1,4088.21,4100,4085.64,4127.18,4118.97,4128.72,0
12_22_46,28,4141.54,4131.79,4113.85,4115.9,4110.26,4095.9,4099.49,4111.28,4098.46,4105.13,4097.95,4146.15,4128.72,4142.05,0
12_22_46,29,4141.54,4137.44,4113.33,4121.54,4109.23,4092.31,4097.44,4111.28,4102.05,4111.79,4107.18,4143.08,4140.51,4143.59,0
12_22_46,30,4126.67,4126.15,4105.64,4111.28,4101.54,4085.64,4084.62,4093.33,4083.59,4108.72,4097.44,4126.15,4133.33,4129.74,0
12_22_46,31,4120.51,4111.28,4107.69,4102.05,4095.9,4081.54,4083.59,4087.18,4071.79,4102.05,4087.69,4125.64,4119.49,4123.08,0
12_22_46,32,4117.95,4110.77,4107.18,4099.49,4092.82,4080.51,4090.77,4101.03,4080.51,4102.05,4090.77,4124.62,4118.97,4120,0
12_22_46,33,4118.46,4118.97,4105.13,4104.1,4096.92,4086.15,4095.38,4110.77,4091.79,4106.67,4096.92,4121.03,4125.64,4121.54,0
12_22_46,34,4118.97,4115.38,4106.15,4108.21,4102.56,4089.23,4094.87,4108.72,4089.74,4109.23,4095.9,4125.64,4125.64,4125.13,0
12_22_46,35,4107.69,4104.62,4096.41,4097.44,4096.41,4082.05,4085.13,4098.46,4080.51,4105.13,4089.74,4117.44,4120.51,4116.41,0
12_22_46,36,4103.08,4103.08,4087.69,4088.72,4089.74,4077.95,4081.54,4094.36,4083.59,4103.59,4088.72,4106.15,4118.46,4111.79,0
12_22_47,37,4111.79,4108.21,4096.41,4093.85,4091.28,4081.03,4088.21,4098.97,4091.79,4108.21,4094.36,4113.85,4122.05,4121.03,0
12_22_47,38,4110.26,4108.72,4099.49,4095.38,4092.31,4081.54,4085.13,4099.49,4090.77,4109.23,4095.38,4122.05,4124.62,4125.13,0
12_22_47,39,4102.05,4107.18,4090.77,4091.28,4089.74,4080,4073.85,4088.21,4081.03,4105.64,4093.33,4118.97,4122.05,4122.05,0
12_22_47,40,4106.15,4102.05,4092.31,4091.28,4091.28,4077.44,4077.44,4081.03,4073.33,4106.67,4098.46,4124.1,4121.03,4126.15,0
12_22_47,41,4108.72,4095.38,4096.41,4090.26,4091.28,4078.97,4088.21,4091.79,4075.38,4108.21,4103.08,4129.23,4123.59,4128.72,0
12_22_47,42,4096.92,4094.36,4089.74,4090.26,4091.28,4088.21,4092.31,4107.69,4085.64,4106.15,4097.44,4120.51,4120.51,4123.08,0
12_22_47,43,4094.36,4097.44,4091.28,4093.85,4100.51,4093.33,4093.85,4114.87,4096.92,4113.85,4096.41,4123.08,4114.87,4123.08,0
12_22_47,44,4101.54,4095.9,4094.87,4091.28,4106.67,4092.82,4094.36,4110.26,4097.95,4122.05,4103.59,4132.82,4117.95,4127.18,0
12_22_47,45,4095.38,4091.28,4089.23,4085.64,4096.41,4086.67,4090.77,4104.62,4091.79,4115.38,4104.1,4127.18,4121.03,4126.67,0
12_22_47,46,4091.79,4098.97,4093.33,4090.26,4089.74,4081.54,4088.72,4103.59,4088.21,4112.82,4104.62,4122.56,4122.56,4125.13,0
12_22_47,47,4100,4111.79,4102.05,4098.46,4101.03,4088.72,4091.28,4106.67,4093.85,4124.62,4109.23,4129.74,4128.21,4126.67,0
12_22_47,48,4097.44,4106.15,4094.36,4093.85,4104.62,4094.87,4090.26,4104.1,4094.36,4125.64,4104.62,4126.15,4126.15,4125.13,0
12_22_47,49,4087.18,4090.77,4087.69,4083.59,4091.79,4083.08,4080.51,4091.28,4075.38,4106.15,4092.82,4110.77,4111.79,4114.87,0
12_22_47,50,4087.69,4088.21,4090.26,4079.49,4085.13,4072.82,4076.41,4086.15,4057.44,4090.26,4087.69,4106.15,4101.54,4107.18,0
12_22_47,51,4085.64,4087.69,4091.28,4077.44,4088.72,4073.33,4081.03,4089.74,4056.92,4088.21,4081.03,4104.1,4096.92,4105.64,0
12_22_47,52,4074.36,4081.03,4090.26,4074.87,4086.67,4075.38,4081.54,4091.28,4062.56,4090.77,4073.85,4097.44,4093.85,4105.13,0
12_22_47,53,4069.23,4080,4084.1,4074.87,4082.05,4076.41,4078.97,4090.77,4061.54,4089.23,4074.36,4091.28,4092.82,4100,0
12_22_47,54,4072.31,4084.62,4077.95,4072.31,4085.64,4074.87,4081.54,4084.1,4058.97,4087.18,4074.87,4088.72,4089.23,4096.41,0
12_22_47,55,4076.41,4089.23,4083.08,4074.36,4091.79,4078.46,4083.08,4078.97,4065.13,4093.33,4074.87,4091.79,4091.28,4100,0
12_22_47,56,4076.41,4092.82,4086.67,4086.15,4094.36,4088.72,4082.56,4082.05,4070.26,4094.36,4074.87,4093.85,4096.92,4105.13,0
12_22_47,57,4077.95,4094.87,4085.13,4092.31,4094.36,4091.79,4087.18,4083.59,4067.69,4090.77,4075.38,4097.44,4096.41,4106.67,0
12_22_47,58,4077.95,4093.33,4089.23,4084.1,4090.77,4083.59,4088.72,4080.51,4060.51,4088.21,4073.33,4097.95,4090.26,4106.67,0
12_22_47,59,4074.87,4091.28,4092.31,4075.9,4089.74,4077.44,4084.1,4089.74,4058.46,4082.56,4071.28,4097.44,4087.18,4105.13,0
12_22_47,60,4082.05,4092.31,4093.33,4081.54,4093.33,4080.51,4087.69,4106.15,4064.62,4086.15,4077.44,4102.05,4094.87,4107.69,0
12_22_47,61,4092.82,4096.41,4095.9,4092.82,4096.92,4087.69,4095.9,4112.31,4074.87,4105.13,4089.74,4111.28,4109.23,4113.85,0
12_22_47,62,4087.69,4095.9,4091.79,4092.82,4101.54,4091.79,4096.41,4114.87,4083.59,4111.79,4093.33,4112.82,4111.28,4111.79,0
12_22_47,63,4078.46,4093.33,4086.67,4088.21,4107.69,4091.79,4095.9,4117.95,4088.72,4104.1,4087.18,4109.23,4108.21,4106.15,0
12_22_47,64,4084.62,4095.9,4090.26,4089.74,4109.23,4094.87,4097.44,4120,4097.95,4109.23,4086.67,4108.72,4117.95,4109.23,0
12_22_47,65,4092.82,4098.97,4092.82,4092.82,4106.15,4096.92,4095.38,4125.13,4109.74,4115.9,4091.79,4109.74,4127.69,4114.87,0
12_22_47,66,4085.64,4093.33,4091.28,4087.18,4100.51,4093.33,4091.79,4123.59,4111.79,4111.28,4088.21,4106.15,4127.69,4111.28,0
12_22_47,67,4075.9,4084.1,4089.23,4081.03,4097.44,4091.28,4090.26,4111.79,4107.18,4108.21,4082.05,4105.13,4126.15,4106.15,0
12_22_47,68,4079.49,4081.54,4090.26,4084.62,4098.46,4090.26,4089.74,4104.1,4104.62,4106.15,4085.13,4114.36,4126.15,4109.23,0
12_22_47,69,4084.1,4081.54,4092.31,4089.74,4100,4088.21,4090.77,4105.64,4104.62,4103.08,4088.21,4118.46,4124.62,4113.85,0
12_22_47,70,4078.46,4080.51,4088.72,4086.67,4098.46,4088.21,4092.31,4109.23,4108.72,4104.1,4087.18,4112.82,4128.72,4113.33,0
12_22_47,71,4072.82,4080.51,4085.13,4080.51,4097.44,4090.77,4096.41,4117.44,4118.46,4107.69,4089.74,4113.85,4133.33,4111.28,0
12_22_47,72,4075.9,4083.08,4090.26,4084.1,4096.92,4092.31,4097.95,4123.59,4124.62,4107.69,4092.82,4115.9,4131.28,4111.79,0
12_22_47,73,4078.97,4084.1,4093.85,4088.21,4095.38,4092.31,4096.92,4120.51,4123.59,4106.15,4090.26,4112.82,4131.79,4116.41,0
12_22_47,74,4077.95,4083.08,4091.28,4084.62,4098.46,4097.44,4100,4115.9,4124.1,4112.31,4090.77,4111.79,4136.41,4120.51,0
12_22_47,75,4081.54,4087.18,4090.26,4085.64,4105.64,4102.56,4101.54,4118.97,4130.26,4121.03,4097.44,4110.77,4140,4120.51,0
12_22_47,76,4086.67,4093.33,4092.31,4092.82,4108.72,4100,4094.87,4125.13,4140,4126.15,4098.46,4108.72,4137.44,4121.54,0
12_22_47,77,4082.56,4092.31,4092.31,4092.82,4106.67,4094.87,4094.36,4126.15,4140.51,4123.59,4090.26,4107.69,4129.74,4121.54,0
12_22_47,78,4076.41,4089.74,4090.26,4089.23,4108.21,4093.85,4102.56,4118.46,4128.21,4114.36,4088.72,4106.15,4128.21,4119.49,0
12_22_47,79,4082.56,4091.79,4093.85,4091.79,4109.74,4096.92,4103.08,4115.9,4122.05,4111.28,4096.92,4113.85,4136.92,4120.51,0
12_22_47,80,4087.18,4092.82,4095.38,4093.33,4107.18,4101.54,4098.97,4121.03,4123.59,4114.87,4094.87,4118.97,4137.44,4122.56,0
12_22_47,81,4084.62,4095.38,4096.41,4089.74,4104.62,4099.49,4098.46,4123.59,4125.13,4113.85,4091.28,4117.95,4130.77,4127.69,0
12_22_47,82,4091.28,4101.54,4104.1,4091.79,4107.18,4098.46,4100,4127.18,4136.41,4116.41,4105.13,4126.15,4137.44,4138.46,0
12_22_47,83,4094.87,4101.54,4108.21,4092.82,4108.72,4105.13,4103.59,4130.26,4142.56,4126.15,4111.79,4131.28,4143.08,4138.97,0
12_22_47,84,4091.28,4098.97,4103.08,4090.26,4105.64,4102.05,4102.56,4123.59,4127.69,4124.1,4102.05,4126.15,4134.36,4127.69,0
12_22_47,85,4091.79,4097.95,4098.97,4090.26,4105.13,4096.41,4098.97,4119.49,4120,4117.95,4100.51,4125.13,4130.26,4125.13,0
12_22_47,86,4090.77,4094.36,4095.9,4088.72,4106.15,4102.56,4097.44,4123.59,4129.23,4122.56,4102.56,4117.44,4136.92,4126.67,0
12_22_47,87,4085.13,4089.74,4089.74,4086.15,4101.03,4102.05,4094.36,4115.38,4124.1,4120,4098.97,4109.74,4140,4122.05,0
12_22_47,88,4086.15,4089.23,4089.74,4088.21,4092.31,4089.74,4089.23,4101.03,4105.13,4109.74,4099.49,4115.9,4134.87,4122.56,0
12_22_47,89,4092.31,4092.31,4091.28,4091.79,4097.44,4093.85,4092.82,4105.64,4101.03,4106.15,4098.46,4118.97,4130.26,4124.1,0
12_22_47,90,4089.74,4094.87,4087.69,4090.77,4107.69,4107.18,4096.41,4120,4112.31,4109.74,4096.92,4112.82,4129.23,4121.03,0
12_22_47,91,4085.64,4094.36,4087.18,4090.77,4104.62,4102.05,4093.33,4124.62,4121.03,4113.85,4104.1,4112.82,4130.77,4123.08,0
12_22_47,92,4088.21,4099.49,4088.72,4091.28,4100.51,4092.82,4094.36,4126.67,4124.1,4118.97,4107.18,4112.31,4130.77,4126.67,0
12_22_47,93,4093.33,4103.08,4090.26,4090.77,4105.64,4092.82,4095.9,4125.64,4119.49,4121.03,4103.59,4111.79,4128.72,4129.23,0
12_22_47,94,4093.33,4100.51,4091.79,4096.92,4107.69,4094.36,4094.87,4123.59,4110.77,4118.46,4106.15,4119.49,4127.18,4130.26,0
12_22_47,95,4093.85,4105.64,4093.33,4106.67,4107.18,4093.33,4096.41,4124.62,4108.21,4117.44,4108.21,4123.08,4129.23,4129.23,0
12_22_47,96,4098.97,4108.72,4097.95,4103.59,4107.18,4092.31,4096.41,4116.41,4109.23,4117.95,4106.67,4121.54,4136.41,4133.33,0
12_22_47,97,4095.38,4095.38,4097.95,4091.79,4097.95,4090.77,4091.79,4104.62,4104.62,4112.82,4105.13,4122.05,4134.36,4137.44,0
12_22_47,98,4090.26,4088.21,4094.36,4090.26,4089.23,4090.26,4092.31,4109.74,4098.97,4107.18,4105.64,4123.59,4123.59,4132.31,0
12_22_47,99,4088.72,4092.31,4090.77,4091.79,4092.31,4090.77,4096.41,4122.05,4095.38,4104.1,4097.44,4119.49,4122.05,4125.64,0
12_22_47,100,4079.49,4084.1,4088.72,4082.56,4089.74,4085.13,4094.36,4121.54,4095.38,4101.54,4084.62,4108.72,4120,4120,0
12_22_47,101,4070.77,4079.49,4086.67,4078.97,4086.15,4082.05,4096.41,4124.62,4104.1,4104.1,4084.62,4100,4112.82,4113.33,0
12_22_47,102,4074.36,4087.69,4084.1,4087.18,4091.28,4087.69,4100.51,4123.08,4103.08,4107.69,4092.31,4102.56,4114.36,4116.41,0
12_22_47,103,4081.03,4090.26,4086.15,4090.26,4093.33,4091.79,4095.9,4107.69,4087.69,4104.1,4093.33,4109.74,4120.51,4125.13,0
12_22_47,104,4081.03,4088.21,4086.67,4086.67,4089.74,4090.26,4096.92,4106.67,4090.77,4101.54,4091.79,4107.69,4116.41,4121.54,0
12_22_47,105,4080,4088.72,4086.15,4090.26,4094.36,4092.31,4105.13,4124.1,4112.31,4107.69,4096.41,4107.18,4114.87,4119.49,0
12_22_47,106,4079.49,4084.62,4087.18,4094.36,4098.97,4093.85,4102.05,4125.64,4114.87,4110.77,4096.92,4112.82,4119.49,4123.08,0
12_22_47,107,4076.92,4072.82,4086.15,4086.15,4088.72,4085.64,4088.72,4105.64,4094.36,4103.59,4085.64,4107.69,4112.31,4116.41,0
12_22_47,108,4073.85,4068.21,4082.56,4082.05,4081.54,4082.05,4086.67,4101.54,4085.64,4098.46,4077.44,4099.49,4104.1,4110.77,0
12_22_47,109,4076.92,4076.92,4083.59,4089.74,4088.21,4088.21,4098.97,4118.97,4101.03,4101.54,4086.15,4105.64,4109.23,4118.46,0
12_22_47,110,4083.08,4084.62,4093.85,4094.36,4093.85,4091.79,4109.74,4133.85,4110.77,4106.67,4094.87,4113.85,4116.92,4121.03,0
12_22_47,111,4080,4081.03,4094.87,4090.77,4091.28,4091.28,4108.21,4131.28,4103.59,4106.15,4089.23,4110.26,4114.87,4110.77,0
12_22_47,112,4074.87,4077.95,4088.72,4088.21,4091.79,4092.31,4098.97,4124.1,4104.1,4103.08,4088.72,4106.67,4112.31,4107.18,0
12_22_47,113,4073.85,4071.79,4089.74,4082.05,4091.79,4091.28,4100,4125.13,4105.13,4100.51,4093.85,4108.21,4114.36,4109.74,0
12_22_47,114,4072.82,4065.13,4090.26,4074.87,4089.23,4089.23,4106.67,4125.13,4094.87,4094.36,4086.15,4108.21,4106.67,4106.15,0
12_22_47,115,4077.44,4075.9,4089.23,4081.03,4094.87,4092.82,4105.13,4121.03,4093.85,4095.38,4085.64,4110.26,4103.59,4107.69,0
12_22_47,116,4089.74,4092.82,4097.44,4090.77,4103.08,4096.41,4104.1,4120,4106.67,4111.79,4106.67,4120.51,4127.69,4126.67,0
12_22_47,117,4099.49,4099.49,4107.18,4096.92,4105.64,4095.9,4108.72,4123.59,4110.77,4127.18,4119.49,4128.72,4145.13,4140.51,0
12_22_47,118,4103.59,4105.13,4100.51,4101.54,4103.59,4094.36,4107.18,4126.15,4108.21,4125.13,4111.28,4122.05,4138.46,4134.87,0
12_22_47,119,4102.05,4107.69,4088.72,4095.38,4097.95,4093.85,4101.54,4123.08,4106.15,4115.9,4105.64,4113.85,4132.31,4126.15,0
12_22_47,120,4096.41,4096.92,4091.28,4088.21,4092.82,4095.9,4106.15,4124.62,4104.1,4116.92,4106.67,4116.41,4132.31,4124.62,0
12_22_47,121,4098.97,4091.79,4100.51,4095.9,4095.9,4100.51,4110.77,4134.36,4111.79,4123.59,4109.74,4122.05,4129.74,4128.72,0
12_22_47,122,4108.21,4104.62,4103.59,4104.1,4105.64,4105.13,4108.21,4139.49,4120.51,4128.21,4120,4126.67,4135.9,4138.97,0
12_22_47,123,4109.74,4111.79,4105.64,4105.64,4110.26,4108.21,4109.74,4135.9,4118.46,4130.26,4126.15,4127.69,4144.62,4144.62,0
12_22_47,124,4104.62,4105.64,4106.15,4100.51,4101.54,4102.05,4108.72,4126.15,4109.23,4124.1,4117.44,4123.59,4136.41,4136.41,0
12_22_47,125,4104.1,4100.51,4104.1,4093.33,4095.9,4091.79,4099.49,4111.28,4101.03,4110.77,4106.15,4120,4124.1,4132.31,0
12_22_47,126,4106.67,4107.69,4104.1,4095.9,4100.51,4090.77,4098.97,4108.21,4098.46,4108.21,4105.13,4123.08,4120.51,4138.97,0
12_22_47,127,4100.51,4111.79,4102.56,4100,4101.03,4096.92,4106.67,4120,4099.49,4110.77,4103.59,4120,4115.9,4135.9,0
12_22_47,128,4090.77,4099.49,4094.36,4091.28,4093.85,4096.41,4106.67,4124.1,4095.9,4101.54,4090.77,4104.62,4102.05,4121.03,0
12_22_47,0,4087.18,4088.72,4087.69,4083.08,4088.21,4093.33,4103.08,4120.51,4089.74,4089.23,4082.56,4097.44,4092.82,4113.85,0
12_22_47,1,4090.77,4095.9,4095.9,4088.72,4095.38,4101.54,4107.69,4121.54,4093.85,4096.41,4090.77,4104.62,4102.56,4121.03,0
12_22_47,2,4096.41,4106.67,4101.03,4095.38,4107.69,4109.23,4110.77,4116.41,4096.92,4108.72,4099.49,4111.28,4110.26,4125.64,0
12_22_47,3,4094.87,4103.08,4094.87,4092.82,4104.62,4102.05,4106.15,4105.13,4088.72,4100.51,4094.87,4107.18,4103.59,4121.54,0
12_22_47,4,4094.36,4098.97,4092.31,4090.77,4096.92,4098.46,4104.1,4106.15,4087.18,4092.82,4091.28,4107.18,4100.51,4121.03,0
12_22_47,5,4099.49,4106.15,4095.9,4093.85,4105.13,4103.59,4105.13,4114.36,4092.82,4102.56,4099.49,4111.28,4107.69,4121.54,0
12_22_47,6,4101.54,4107.69,4097.44,4095.38,4109.23,4102.56,4102.05,4114.36,4090.77,4111.28,4106.15,4111.28,4110.26,4121.03,0
12_22_47,7,4092.31,4097.95,4093.85,4090.77,4095.9,4096.92,4097.44,4107.18,4080.51,4101.54,4100,4108.72,4102.05,4120.51,0
12_22_47,8,4085.13,4092.31,4092.31,4090.77,4090.26,4095.9,4100.51,4104.62,4075.9,4091.79,4091.79,4106.15,4093.33,4116.41,0
12_22_47,9,4088.21,4091.28,4091.79,4092.82,4093.33,4095.9,4102.56,4108.21,4077.44,4093.85,4091.79,4107.69,4089.23,4111.79,0
12_22_47,10,4087.69,4090.26,4092.31,4090.77,4089.23,4095.38,4095.9,4110.26,4076.41,4095.38,4092.82,4109.23,4087.69,4109.23,0
12_22_47,11,4080,4088.21,4091.28,4088.72,4084.1,4094.87,4093.33,4108.72,4074.36,4093.33,4090.26,4101.03,4088.21,4107.18,0
12_22_47,12,4075.9,4084.1,4090.26,4091.79,4087.18,4094.87,4101.03,4109.74,4081.54,4088.72,4088.72,4094.36,4087.18,4106.15,0
12_22_47,13,4078.46,4082.56,4092.31,4094.87,4090.77,4096.92,4105.64,4111.79,4086.15,4089.23,4089.23,4101.54,4082.05,4107.18,0
12_22_47,14,4077.95,4085.13,4092.31,4092.31,4089.74,4095.9,4100.51,4109.74,4078.97,4093.85,4089.74,4104.62,4080,4107.69,0
12_22_47,15,4073.33,4087.18,4090.77,4090.77,4090.77,4098.97,4095.9,4106.15,4072.31,4090.77,4085.13,4094.87,4080,4107.18,0
12_22_47,16,4076.41,4085.64,4089.23,4096.92,4093.33,4104.62,4097.95,4100,4071.79,4082.56,4080,4092.31,4077.44,4106.15,0
12_22_47,17,4087.69,4092.31,4093.85,4105.64,4098.46,4107.69,4102.05,4097.44,4076.41,4087.69,4084.62,4104.1,4080,4106.67,0
12_22_47,18,4094.87,4103.08,4100.51,4109.74,4108.72,4116.92,4107.69,4105.64,4083.59,4103.59,4092.31,4109.23,4083.08,4109.74,0
12_22_47,19,4086.15,4098.46,4094.36,4107.69,4111.79,4123.08,4109.74,4112.31,4087.18,4106.67,4092.82,4100,4078.46,4109.23,0
12_22_47,20,4072.82,4082.56,4082.05,4097.44,4098.46,4111.79,4100.51,4108.21,4088.72,4100,4087.18,4086.67,4075.38,4102.05,0
12_22_47,21,4071.79,4081.54,4080,4091.28,4090.77,4103.08,4094.87,4107.18,4089.74,4096.41,4083.59,4086.67,4076.92,4100,0
12_22_47,22,4077.44,4089.23,4084.1,4097.95,4099.49,4107.18,4102.56,4111.79,4086.67,4101.03,4087.69,4097.95,4081.03,4105.64,0
12_22_47,23,4078.46,4086.15,4079.49,4101.03,4103.08,4108.72,4105.13,4110.26,4087.18,4108.72,4093.85,4102.56,4088.72,4108.72,0
12_22_47,24,4074.36,4080,4077.44,4094.87,4095.9,4104.62,4094.87,4109.23,4090.26,4109.23,4093.33,4100.51,4087.69,4106.67,0
12_22_47,25,4074.87,4080,4083.59,4094.36,4096.41,4102.05,4093.33,4109.23,4088.72,4106.67,4093.33,4102.05,4079.49,4106.67,0
12_22_47,26,4080,4082.05,4086.67,4100,4098.97,4098.46,4098.46,4107.18,4082.56,4106.15,4094.36,4104.62,4081.54,4105.64,0
12_22_47,27,4082.56,4085.64,4086.67,4104.1,4093.33,4095.38,4092.31,4104.62,4075.38,4106.15,4093.33,4104.62,4085.13,4104.1,0
12_22_47,28,4086.67,4091.28,4090.77,4109.74,4096.41,4098.46,4093.85,4105.13,4078.46,4104.62,4099.49,4110.77,4084.62,4108.21,0
12_22_47,29,4091.28,4092.82,4095.38,4112.82,4105.13,4105.13,4103.08,4107.18,4086.15,4106.67,4104.1,4117.44,4087.18,4113.33,0
12_22_47,30,4091.28,4090.77,4093.33,4108.72,4102.05,4102.05,4103.08,4109.23,4085.13,4108.72,4097.44,4111.28,4089.74,4109.74,0
12_22_47,31,4087.69,4090.26,4091.28,4108.21,4102.56,4093.85,4101.03,4111.28,4082.05,4108.72,4093.33,4106.15,4085.64,4107.18,0
12_22_47,32,4083.59,4087.69,4091.28,4110.26,4108.72,4092.31,4101.54,4105.64,4081.03,4108.21,4094.36,4110.26,4081.03,4108.72,0
12_22_47,33,4077.95,4081.54,4088.21,4105.13,4102.56,4090.77,4099.49,4095.38,4074.87,4103.59,4092.31,4107.18,4078.46,4101.03,0
12_22_47,34,4071.79,4075.38,4087.69,4097.44,4094.87,4084.62,4096.92,4094.87,4072.82,4098.46,4088.21,4097.44,4074.36,4087.69,0
12_22_47,35,4076.41,4076.41,4090.26,4101.03,4102.56,4085.13,4098.97,4105.13,4081.03,4102.56,4090.77,4101.54,4075.9,4090.26,0
12_22_48,36,4089.23,4084.1,4092.82,4109.23,4108.21,4089.74,4097.44,4112.31,4091.28,4109.74,4102.05,4111.79,4087.69,4105.64,0
12_22_48,37,4087.69,4082.56,4092.31,4107.18,4103.08,4091.28,4093.33,4105.64,4090.77,4108.72,4105.13,4110.77,4094.36,4107.69,0
12_22_48,38,4077.44,4078.46,4093.33,4106.15,4098.97,4088.21,4093.85,4094.87,4075.38,4104.1,4095.38,4107.69,4090.26,4097.95,0
12_22_48,39,4074.87,4075.38,4092.31,4105.13,4097.44,4082.05,4096.92,4090.77,4066.67,4099.49,4090.26,4107.69,4088.21,4093.85,0
12_22_48,40,4072.31,4065.13,4088.21,4096.41,4090.77,4080.51,4096.92,4090.77,4078.46,4098.46,4092.31,4100.51,4089.23,4089.74,0
12_22_48,41,4066.15,4060,4087.69,4093.33,4093.33,4088.72,4093.85,4096.41,4093.33,4101.03,4088.21,4096.41,4094.36,4085.64,0
12_22_48,42,4072.82,4073.85,4092.82,4107.69,4106.15,4093.85,4099.49,4106.67,4108.72,4110.77,4091.28,4105.64,4106.15,4092.82,0
12_22_48,43,4084.1,4084.1,4098.97,4117.95,4110.26,4092.82,4107.18,4111.28,4121.54,4120.51,4102.56,4111.28,4109.23,4098.97,0
12_22_48,44,4085.13,4080,4103.08,4115.38,4108.21,4097.44,4108.72,4109.23,4125.64,4121.03,4103.59,4110.26,4108.21,4098.46,0
12_22_48,45,4087.18,4084.1,4106.67,4115.38,4109.74,4101.03,4108.21,4111.79,4125.64,4116.92,4102.05,4117.44,4115.38,4105.13,0
12_22_48,46,4091.28,4091.28,4106.15,4117.44,4110.77,4095.9,4104.62,4113.85,4128.72,4123.08,4102.56,4122.05,4122.05,4107.18,0
12_22_48,47,4090.77,4089.23,4103.59,4112.82,4108.21,4093.33,4098.46,4107.69,4125.13,4125.64,4098.46,4116.41,4116.41,4098.46,0
12_22_48,48,4088.21,4080,4102.05,4108.21,4104.1,4092.31,4092.82,4097.95,4114.36,4111.28,4092.82,4109.74,4106.67,4095.9,0
12_22_48,49,4087.18,4074.87,4098.46,4107.18,4099.49,4084.1,4089.74,4091.28,4107.18,4104.1,4093.85,4108.21,4103.08,4097.95,0
12_22_48,50,4086.15,4077.95,4093.33,4107.18,4096.92,4083.59,4091.28,4090.26,4105.64,4108.72,4091.79,4109.23,4101.54,4093.85,0
12_22_48,51,4083.08,4076.92,4091.28,4104.1,4098.46,4090.77,4093.33,4095.9,4108.72,4106.67,4085.64,4106.15,4097.44,4088.72,0
12_22_48,52,4082.05,4073.85,4091.79,4105.64,4101.54,4091.79,4091.79,4102.05,4113.85,4109.23,4087.69,4102.56,4098.46,4089.23,0
12_22_48,53,4083.08,4078.46,4092.82,4107.69,4105.13,4091.28,4094.36,4107.18,4123.08,4122.05,4093.85,4104.62,4106.67,4090.77,0
12_22_48,54,4082.05,4081.03,4093.33,4107.18,4106.67,4094.87,4102.05,4108.21,4125.64,4120,4094.36,4102.05,4108.72,4092.31,0
12_22_48,55,4078.46,4078.46,4094.36,4108.21,4107.69,4096.41,4103.08,4101.03,4113.85,4108.72,4091.79,4093.33,4102.05,4091.28,0
12_22_48,56,4074.87,4076.41,4093.85,4108.21,4109.74,4094.87,4102.05,4091.79,4109.23,4114.87,4090.26,4094.36,4103.08,4089.23,0
12_22_48,57,4075.38,4076.92,4091.79,4105.64,4111.28,4098.46,4106.67,4094.87,4119.49,4124.62,4092.31,4101.54,4110.26,4089.74,0
12_22_48,58,4079.49,4078.97,4096.92,4105.64,4111.28,4098.97,4105.13,4102.56,4123.08,4123.08,4098.97,4105.64,4110.77,4092.31,0
12_22_48,59,4081.03,4081.03,4102.56,4104.62,4109.74,4094.36,4096.92,4101.54,4117.95,4121.03,4102.56,4108.21,4107.18,4091.28,0
12_22_48,60,4074.36,4074.36,4095.38,4096.92,4106.15,4093.33,4096.41,4102.56,4120.51,4121.03,4096.41,4107.69,4105.64,4088.72,0
12_22_48,61,4071.79,4071.79,4089.23,4094.36,4107.69,4096.41,4098.46,4109.74,4124.62,4119.49,4092.82,4107.18,4106.67,4090.77,0
12_22_48,62,4081.54,4083.59,4095.38,4101.54,4108.72,4100,4096.41,4107.69,4123.08,4122.05,4097.95,4109.23,4108.21,4094.36,0
12_22_48,63,4087.69,4087.18,4102.56,4106.67,4107.69,4104.1,4098.97,4107.18,4123.08,4125.64,4106.15,4109.74,4111.79,4100,0
12_22_48,64,4086.67,4083.59,4102.56,4107.18,4107.69,4106.15,4104.1,4106.15,4115.9,4124.62,4107.69,4111.28,4112.31,4106.67,0
12_22_48,65,4087.69,4088.21,4098.46,4105.13,4108.72,4105.64,4104.62,4094.36,4107.18,4120,4098.46,4109.23,4107.69,4109.23,0
12_22_48,66,4092.31,4092.82,4102.05,4110.26,4113.85,4106.67,4106.67,4094.87,4113.85,4121.54,4095.9,4104.1,4109.74,4108.72,0
12_22_48,67,4096.92,4091.79,4109.23,4118.46,4115.9,4108.21,4109.23,4103.08,4120,4124.62,4106.67,4108.72,4115.9,4110.26,0
12_22_48,68,4094.87,4090.26,4103.08,4113.33,4110.77,4104.62,4106.15,4095.38,4109.23,4116.41,4108.21,4110.77,4111.28,4110.26,0
12_22_48,69,4091.28,4091.28,4096.41,4105.13,4108.72,4103.59,4105.13,4091.79,4104.62,4113.85,4103.08,4105.13,4102.05,4105.13,0
12_22_48,70,4091.79,4091.28,4105.64,4108.72,4112.31,4104.62,4106.15,4103.59,4110.77,4122.05,4106.15,4110.26,4106.15,4098.46,0
12_22_48,71,4093.33,4091.28,4109.74,4109.74,4110.26,4104.62,4105.13,4106.15,4106.67,4123.08,4110.26,4117.44,4113.33,4093.33,0
12_22_48,72,4091.28,4090.77,4102.56,4107.18,4112.31,4108.21,4106.67,4106.15,4109.23,4120.51,4109.23,4112.31,4111.79,4092.31,0
12_22_48,73,4088.72,4089.23,4099.49,4106.15,4116.41,4111.28,4110.26,4108.72,4120.51,4120.51,4105.64,4103.59,4107.18,4091.28,0
12_22_48,74,4083.08,4085.64,4097.44,4103.08,4109.23,4105.64,4108.21,4103.59,4113.33,4111.79,4093.33,4099.49,4100.51,4084.62,0
12_22_48,75,4073.33,4077.44,4093.85,4096.92,4103.59,4098.46,4098.97,4097.44,4097.95,4097.95,4084.62,4095.9,4094.87,4078.46,0
12_22_48,76,4073.33,4073.85,4094.87,4094.87,4107.69,4095.9,4092.31,4095.38,4098.46,4099.49,4090.26,4095.38,4097.95,4083.59,0
12_22_48,77,4078.97,4080.51,4098.97,4095.38,4107.69,4095.9,4098.97,4093.33,4104.62,4107.18,4092.31,4100.51,4105.13,4090.77,0
12_22_48,78,4080.51,4084.62,4101.54,4096.41,4105.64,4102.05,4104.62,4091.79,4104.62,4109.74,4091.28,4107.69,4108.21,4089.74,0
12_22_48,79,4081.03,4083.08,4103.08,4097.95,4109.23,4105.64,4098.46,4091.28,4104.62,4110.77,4102.05,4113.33,4112.31,4089.23,0
12_22_48,80,4081.03,4082.56,4101.54,4100.51,4109.74,4100.51,4099.49,4096.92,4108.21,4110.26,4110.26,4112.31,4116.41,4092.31,0
12_22_48,81,4079.49,4083.08,4098.97,4102.05,4107.69,4094.87,4106.15,4106.15,4108.72,4108.21,4102.05,4109.23,4113.33,4086.15,0
12_22_48,82,4076.41,4080,4094.36,4098.46,4104.1,4094.36,4100.51,4101.54,4102.56,4107.18,4091.28,4105.13,4104.1,4077.44,0
12_22_48,83,4073.33,4078.46,4090.26,4097.95,4098.97,4092.82,4091.28,4091.28,4100,4107.18,4091.79,4101.03,4099.49,4078.46,0
12_22_48,84,4080,4082.05,4096.92,4100.51,4101.54,4091.79,4094.87,4098.46,4105.13,4106.67,4100.51,4104.62,4105.64,4081.03,0
12_22_48,85,4090.26,4087.18,4106.67,4102.05,4108.21,4092.82,4104.1,4110.26,4107.69,4109.74,4106.15,4113.33,4112.82,4077.44,0
12_22_48,86,4083.59,4084.1,4101.03,4098.46,4106.67,4090.77,4104.1,4103.59,4105.64,4112.31,4100.51,4111.28,4103.59,4070.77,0
12_22_48,87,4069.23,4074.87,4091.28,4092.31,4102.56,4090.77,4095.38,4097.95,4101.54,4106.67,4091.28,4103.08,4091.28,4066.15,0
12_22_48,88,4071.28,4074.87,4091.28,4092.82,4106.67,4094.36,4093.33,4101.54,4100.51,4105.64,4091.28,4103.08,4096.92,4070.77,0
12_22_48,89,4078.46,4080.51,4092.82,4098.97,4109.23,4096.41,4101.03,4100.51,4104.1,4111.79,4098.46,4110.26,4107.18,4078.46,0
12_22_48,90,4076.41,4080,4095.38,4099.49,4105.64,4094.87,4103.08,4097.44,4106.15,4110.77,4103.59,4114.87,4106.67,4080.51,0
12_22_48,91,4076.41,4074.87,4103.08,4096.41,4106.15,4097.44,4099.49,4104.1,4106.67,4112.82,4104.62,4117.44,4099.49,4084.1,0
12_22_48,92,4080,4078.46,4107.18,4102.05,4108.21,4103.08,4098.97,4106.67,4107.18,4119.49,4104.62,4118.46,4095.9,4088.72,0
12_22_48,93,4079.49,4088.72,4102.05,4101.54,4103.08,4096.41,4094.36,4098.46,4102.05,4117.44,4103.59,4114.87,4098.46,4088.72,0
12_22_48,94,4078.97,4090.26,4096.41,4096.92,4098.97,4091.28,4093.85,4096.92,4100,4112.82,4098.46,4107.18,4096.41,4084.62,0
12_22_48,95,4087.18,4091.28,4100.51,4104.62,4105.64,4102.05,4102.56,4106.67,4106.67,4118.46,4097.44,4110.77,4096.41,4085.13,0
12_22_48,96,4096.92,4100.51,4108.72,4110.77,4110.77,4111.79,4107.18,4109.23,4110.26,4124.1,4105.13,4123.08,4107.18,4089.74,0
12_22_48,97,4095.9,4102.05,4103.08,4103.59,4107.18,4102.05,4098.97,4098.97,4105.64,4120,4107.18,4121.03,4112.31,4094.36,0
12_22_48,98,4090.26,4091.79,4091.28,4101.03,4098.46,4089.23,4092.82,4091.79,4097.44,4112.82,4102.05,4109.23,4106.15,4096.41,0
12_22_48,99,4090.77,4091.28,4092.31,4106.15,4091.28,4090.26,4092.82,4093.33,4088.72,4108.72,4102.05,4108.21,4105.13,4093.85,0
12_22_48,100,4097.95,4101.54,4098.46,4105.64,4094.36,4093.85,4092.82,4090.77,4087.18,4105.64,4101.54,4109.74,4102.56,4091.28,0
12_22_48,101,4106.15,4108.72,4101.03,4108.72,4106.15,4092.82,4094.87,4088.72,4092.82,4104.62,4102.56,4114.87,4102.56,4098.46,0
12_22_48,102,4108.72,4108.72,4105.64,4113.33,4110.77,4096.41,4101.54,4095.9,4096.41,4114.36,4114.87,4123.59,4117.95,4108.21,0
12_22_48,103,4110.26,4107.18,4108.72,4111.79,4107.69,4105.64,4106.67,4102.05,4097.95,4125.13,4120,4125.64,4123.59,4108.21,0
12_22_48,104,4112.82,4108.72,4107.18,4109.23,4106.67,4104.62,4103.59,4096.41,4097.44,4118.46,4111.79,4123.59,4112.82,4106.15,0
12_22_48,105,4106.15,4104.62,4101.54,4107.18,4106.15,4094.87,4096.92,4090.77,4089.74,4106.15,4104.62,4118.46,4103.59,4104.1,0
12_22_48,106,4096.41,4097.95,4094.87,4105.64,4103.59,4094.87,4098.46,4092.31,4086.15,4105.13,4098.97,4108.21,4097.95,4096.41,0
12_22_48,107,4095.9,4094.87,4094.87,4101.54,4103.08,4099.49,4105.13,4092.31,4087.69,4108.72,4094.36,4105.13,4094.87,4093.33,0
12_22_48,108,4097.44,4091.79,4098.97,4100,4102.56,4095.38,4106.67,4091.28,4085.13,4108.21,4098.97,4111.28,4092.82,4096.41,0
12_22_48,109,4096.41,4091.28,4101.03,4102.05,4103.59,4093.85,4104.62,4094.36,4085.64,4107.69,4105.13,4112.82,4091.79,4096.92,0
12_22_48,110,4094.36,4092.82,4101.03,4102.56,4107.18,4098.46,4107.69,4094.87,4088.72,4104.1,4097.44,4109.23,4091.79,4095.9,0
12_22_48,111,4091.28,4091.79,4095.38,4097.95,4103.59,4094.36,4104.62,4088.21,4080.51,4096.41,4087.69,4105.64,4087.69,4093.33,0
12_22_48,112,4088.72,4090.26,4089.23,4093.33,4095.9,4087.18,4093.85,4085.13,4072.82,4094.87,4089.23,4105.13,4083.08,4090.77,0
12_22_48,113,4086.67,4090.77,4091.79,4097.44,4094.36,4088.72,4091.79,4089.74,4077.95,4100,4093.33,4106.67,4087.69,4091.28,0
12_22_48,114,4090.77,4092.82,4095.38,4106.67,4098.97,4095.38,4097.44,4093.33,4081.54,4105.64,4093.85,4108.21,4092.31,4092.31,0
12_22_48,115,4090.77,4094.36,4091.28,4104.1,4101.03,4096.92,4097.44,4091.28,4076.41,4108.72,4094.87,4108.21,4089.74,4090.26,0
12_22_48,116,4078.97,4086.15,4089.74,4091.28,4100.51,4092.31,4091.79,4089.23,4075.38,4101.54,4095.38,4104.1,4091.28,4083.59,0
12_22_48,117,4073.85,4082.05,4091.79,4089.74,4101.54,4093.85,4095.9,4088.72,4080.51,4094.36,4090.26,4098.97,4092.82,4077.95,0
12_22_48,118,4082.56,4090.26,4092.82,4095.9,4107.18,4104.1,4106.15,4091.28,4086.67,4102.56,4090.77,4097.95,4094.36,4082.05,0
12_22_48,119,4083.59,4090.26,4092.82,4092.31,4109.23,4101.54,4105.64,4090.77,4086.15,4110.77,4093.33,4101.03,4094.87,4089.74,0
12_22_48,120,4074.87,4078.46,4090.77,4088.21,4100,4092.82,4098.97,4084.62,4081.54,4100.51,4090.77,4101.54,4092.82,4091.28,0
12_22_48,121,4077.95,4079.49,4092.31,4092.31,4095.38,4095.9,4099.49,4077.95,4079.49,4096.41,4088.21,4103.08,4091.28,4093.33,0
12_22_48,122,4083.59,4088.21,4097.44,4095.9,4099.49,4096.92,4098.97,4075.9,4075.38,4102.05,4089.74,4106.15,4091.28,4096.41,0
12_22_48,123,4082.05,4090.77,4097.44,4094.36,4103.08,4090.26,4094.87,4080.51,4072.82,4100.51,4091.79,4108.72,4089.74,4097.44,0
12_22_48,124,4080.51,4087.18,4096.92,4093.33,4102.56,4088.21,4097.44,4084.1,4074.36,4097.95,4090.77,4106.67,4090.26,4102.05,0
12_22_48,125,4079.49,4082.05,4095.9,4091.79,4095.38,4087.18,4096.92,4082.56,4074.36,4104.1,4090.77,4104.1,4091.79,4106.15,0
12_22_48,126,4080.51,4083.59,4096.41,4091.79,4094.87,4087.69,4095.9,4085.13,4080.51,4110.77,4097.95,4112.82,4093.33,4107.69,0
12_22_48,127,4087.69,4092.31,4100.51,4095.38,4105.64,4096.41,4102.56,4092.31,4092.82,4109.74,4107.69,4125.64,4098.46,4113.85,0
12_22_48,128,4090.26,4091.28,4102.05,4095.38,4107.18,4100,4100.51,4091.28,4092.31,4108.21,4104.62,4121.54,4100.51,4111.79,0
12_22_48,0,4084.1,4081.03,4095.38,4093.85,4099.49,4096.41,4096.41,4085.13,4083.08,4109.23,4096.92,4109.74,4092.82,4101.54,0
12_22_48,1,4085.13,4081.54,4096.92,4093.33,4103.59,4099.49,4104.1,4086.67,4083.08,4109.74,4097.95,4112.31,4089.74,4109.23,0
12_22_48,2,4088.72,4090.26,4104.62,4092.31,4110.77,4103.08,4106.15,4090.26,4085.64,4109.23,4096.41,4117.44,4093.33,4123.59,0
12_22_48,3,4087.18,4091.79,4102.05,4095.38,4107.18,4098.97,4098.97,4091.79,4085.13,4107.69,4089.74,4109.23,4089.74,4116.41,0
12_22_48,4,4089.74,4089.74,4100,4102.05,4103.08,4093.85,4096.92,4086.15,4084.1,4106.15,4090.77,4107.69,4087.18,4105.13,0
12_22_48,5,4094.36,4091.28,4105.64,4102.05,4103.08,4090.26,4094.36,4077.44,4078.97,4107.18,4101.54,4120.51,4098.46,4114.87,0
12_22_48,6,4093.33,4093.33,4108.72,4098.46,4104.62,4086.15,4089.74,4082.05,4076.41,4110.77,4109.23,4125.13,4105.64,4135.9,0
12_22_48,7,4090.26,4090.26,4105.64,4095.9,4106.15,4086.67,4092.82,4085.64,4077.95,4108.21,4101.54,4113.85,4094.36,4136.41,0
12_22_48,8,4090.26,4091.79,4102.56,4094.36,4105.13,4090.77,4095.9,4080,4074.36,4103.08,4091.28,4105.64,4088.72,4125.13,0
12_22_48,9,4092.31,4097.95,4105.64,4095.9,4105.13,4092.82,4093.33,4084.62,4074.87,4105.64,4094.36,4107.18,4096.92,4125.64,0
12_22_48,10,4090.26,4098.97,4107.69,4097.44,4107.18,4090.77,4092.82,4090.77,4079.49,4109.23,4097.44,4109.74,4098.46,4122.05,0
12_22_48,11,4082.56,4087.69,4098.97,4091.28,4102.05,4082.05,4091.79,4077.95,4071.79,4101.03,4089.74,4105.64,4091.28,4103.59,0
12_22_48,12,4083.59,4081.54,4093.33,4088.21,4095.38,4081.03,4091.79,4070.77,4063.59,4094.87,4087.69,4107.69,4087.69,4099.49,0
12_22_48,13,4094.36,4093.85,4103.59,4098.46,4103.08,4092.31,4095.38,4081.03,4070.77,4102.05,4098.97,4117.44,4092.31,4107.69,0
12_22_48,14,4097.44,4098.46,4110.77,4105.64,4108.72,4093.85,4096.41,4086.15,4076.41,4102.56,4103.59,4124.1,4094.36,4102.05,0
12_22_48,15,4090.77,4085.13,4101.03,4096.41,4096.41,4083.08,4090.26,4077.44,4071.28,4091.79,4091.79,4117.95,4086.15,4092.31,0
12_22_48,16,4086.67,4080,4094.36,4087.69,4087.69,4082.56,4086.67,4069.74,4062.56,4089.74,4085.13,4111.28,4078.97,4090.26,0
12_22_48,17,4094.36,4092.82,4103.59,4096.41,4098.97,4091.79,4093.33,4075.9,4064.62,4097.44,4099.49,4117.95,4085.64,4098.46,0
12_22_48,18,4103.59,4098.46,4111.28,4105.13,4109.74,4093.33,4098.46,4085.13,4073.85,4102.56,4110.77,4128.72,4094.87,4106.67,0
12_22_48,19,4098.46,4093.33,4104.62,4097.44,4108.21,4090.77,4097.44,4082.05,4076.92,4105.13,4103.08,4126.15,4093.33,4098.97,0
12_22_48,20,4086.15,4090.26,4098.46,4088.21,4105.13,4092.82,4096.41,4084.62,4081.54,4106.67,4093.85,4113.85,4086.67,4087.18,0
12_22_48,21,4083.59,4087.69,4098.46,4089.74,4108.21,4095.38,4096.92,4093.33,4089.23,4109.23,4093.85,4107.69,4086.67,4083.08,0
12_22_48,22,4084.1,4082.56,4096.41,4091.79,4104.62,4090.77,4092.82,4083.59,4083.59,4106.15,4090.77,4105.13,4088.21,4078.97,0
12_22_48,23,4080,4076.41,4092.31,4089.23,4093.33,4088.21,4093.33,4070.26,4077.95,4101.03,4085.13,4100,4088.72,4073.85,0
12_22_48,24,4078.46,4081.54,4091.79,4089.74,4095.9,4096.41,4101.54,4079.49,4093.85,4105.13,4093.33,4101.54,4096.92,4073.85,0
12_22_48,25,4082.56,4091.28,4097.95,4092.82,4108.72,4100,4101.54,4087.69,4107.69,4111.28,4104.1,4109.23,4110.77,4082.05,0
12_22_48,26,4086.67,4091.79,4106.67,4092.82,4108.72,4091.79,4091.79,4082.05,4104.62,4108.72,4100.51,4110.26,4112.82,4097.44,0
12_22_48,27,4090.77,4091.28,4108.21,4095.9,4105.13,4089.74,4089.23,4083.08,4107.18,4108.72,4093.85,4107.18,4110.77,4108.21,0
12_22_48,28,4091.28,4093.33,4103.08,4099.49,4107.69,4092.82,4096.92,4088.72,4109.74,4111.28,4095.38,4110.26,4117.44,4105.64,0
12_22_48,29,4086.15,4090.77,4100.51,4097.44,4108.72,4092.82,4104.62,4089.23,4106.67,4110.77,4095.38,4112.31,4118.46,4105.64,0
12_22_48,30,4082.05,4089.23,4099.49,4095.38,4108.21,4095.9,4108.21,4091.79,4116.92,4108.21,4090.26,4106.67,4108.21,4107.18,0
12_22_49,31,4084.62,4092.31,4098.46,4102.05,4108.72,4098.97,4108.72,4095.38,4127.69,4107.18,4088.72,4106.67,4105.13,4104.1,0
12_22_49,32,4087.69,4092.31,4103.08,4106.15,4112.31,4099.49,4108.21,4094.87,4124.1,4111.79,4092.82,4115.38,4111.79,4110.77,0
12_22_49,33,4086.67,4093.33,4107.69,4104.1,4119.49,4105.13,4107.69,4102.05,4131.28,4122.05,4101.54,4119.49,4119.49,4120.51,0
12_22_49,34,4088.21,4093.85,4105.13,4105.64,4125.13,4110.77,4109.23,4110.26,4147.18,4124.62,4107.69,4121.54,4128.21,4114.87,0
12_22_49,35,4089.23,4092.82,4103.08,4104.62,4121.03,4106.15,4106.67,4096.41,4137.95,4115.9,4101.03,4124.1,4123.08,4105.13,0
12_22_49,36,4081.03,4093.33,4103.59,4095.38,4112.31,4098.46,4096.92,4075.9,4119.49,4105.13,4088.21,4112.31,4105.13,4102.05,0
12_22_49,37,4078.46,4090.26,4102.05,4093.85,4106.15,4091.79,4089.74,4073.33,4116.41,4101.03,4085.64,4102.05,4106.15,4104.62,0
12_22_49,38,4089.74,4091.28,4105.13,4104.62,4111.28,4094.36,4092.82,4082.56,4119.49,4107.18,4093.85,4116.41,4123.59,4108.72,0
12_22_49,39,4095.38,4102.05,4110.26,4109.23,4120,4104.1,4102.56,4089.74,4128.72,4112.31,4097.95,4121.54,4123.08,4102.05,0
12_22_49,40,4091.28,4101.54,4108.72,4100.51,4115.9,4100.51,4105.13,4092.82,4135.38,4108.72,4093.85,4108.21,4114.36,4093.85,0
12_22_49,41,4091.28,4089.23,4105.64,4097.44,4107.18,4094.87,4102.56,4091.79,4127.69,4111.28,4096.41,4113.33,4117.95,4103.59,0
12_22_49,42,4091.28,4089.23,4108.72,4103.08,4111.28,4105.64,4103.59,4094.36,4123.08,4117.44,4099.49,4120,4117.44,4113.33,0
12_22_49,43,4084.1,4092.82,4110.77,4103.08,4115.38,4111.79,4108.21,4095.9,4128.72,4113.33,4094.36,4108.72,4109.23,4108.21,0
12_22_49,44,4076.92,4083.59,4101.03,4092.31,4106.15,4102.05,4108.21,4095.38,4129.23,4106.67,4087.18,4103.59,4104.1,4104.1,0
12_22_49,45,4071.28,4071.28,4089.74,4080,4100,4096.41,4101.03,4096.41,4124.62,4104.62,4081.54,4102.05,4097.95,4100,0
12_22_49,46,4070.77,4073.33,4092.82,4082.05,4104.1,4096.41,4094.87,4092.82,4122.05,4104.1,4079.49,4092.82,4091.79,4091.79,0
12_22_49,47,4081.54,4086.15,4107.69,4095.38,4107.18,4095.38,4098.97,4089.74,4126.15,4110.77,4085.64,4100.51,4098.46,4092.31,0
12_22_49,48,4087.18,4090.77,4107.69,4096.41,4107.18,4095.38,4104.1,4092.82,4130.77,4115.9,4093.33,4112.31,4108.21,4094.36,0
12_22_49,49,4076.41,4081.54,4092.82,4086.15,4104.62,4093.33,4098.97,4094.36,4127.18,4110.77,4092.31,4101.54,4108.21,4090.77,0
12_22_49,50,4070.77,4076.92,4095.9,4086.67,4104.1,4093.33,4098.46,4091.79,4124.1,4109.23,4090.77,4099.49,4106.15,4089.74,0
12_22_49,51,4078.97,4086.67,4106.15,4092.82,4106.15,4094.87,4103.59,4091.79,4124.1,4110.77,4092.82,4111.28,4107.69,4091.28,0
12_22_49,52,4080.51,4088.72,4096.92,4088.72,4106.67,4097.95,4104.62,4092.82,4120.51,4108.72,4093.33,4109.23,4107.69,4090.26,0
12_22_49,53,4074.87,4080.51,4090.77,4084.62,4106.15,4102.56,4103.08,4092.82,4115.38,4108.21,4091.79,4101.54,4107.69,4094.36,0
12_22_49,54,4076.41,4076.92,4100.51,4087.69,4101.54,4101.03,4099.49,4091.79,4111.28,4109.74,4092.31,4109.23,4107.18,4099.49,0
12_22_49,55,4077.95,4077.95,4094.87,4090.26,4096.92,4096.41,4096.41,4090.26,4110.77,4108.21,4091.28,4109.74,4100,4092.31,0
12_22_49,56,4073.85,4077.44,4080.51,4088.72,4101.03,4101.54,4100,4092.31,4116.41,4107.18,4088.72,4096.92,4096.92,4086.67,0
12_22_49,57,4073.33,4075.9,4092.82,4088.72,4107.69,4109.23,4098.97,4094.87,4114.36,4107.69,4090.77,4100,4103.59,4092.82,0
12_22_49,58,4077.95,4077.44,4110.26,4092.31,4105.13,4103.08,4092.82,4088.72,4104.62,4106.67,4090.26,4112.31,4105.64,4093.33,0
12_22_49,59,4078.97,4077.95,4098.97,4092.82,4101.03,4098.97,4100,4092.31,4106.67,4109.74,4091.28,4111.28,4102.56,4084.62,0
12_22_49,60,4073.33,4075.38,4082.05,4089.74,4101.54,4104.62,4106.15,4101.54,4112.82,4114.36,4098.46,4103.59,4105.13,4084.1,0
12_22_49,61,4074.87,4075.9,4088.72,4089.74,4105.13,4110.26,4098.97,4098.97,4110.77,4113.85,4100,4108.72,4108.21,4092.31,0
12_22_49,62,4081.03,4082.56,4097.95,4091.28,4106.67,4105.13,4094.36,4091.79,4108.21,4109.74,4090.26,4108.72,4100.51,4088.21,0
12_22_49,63,4080,4084.62,4090.26,4090.77,4100.51,4096.41,4095.38,4091.79,4108.72,4109.23,4088.72,4094.36,4094.36,4080,0
12_22_49,64,4077.95,4083.59,4087.69,4090.77,4097.95,4094.87,4094.36,4092.31,4107.69,4109.23,4094.87,4093.85,4098.46,4084.1,0
12_22_49,65,4077.95,4087.69,4091.28,4089.23,4103.08,4095.9,4091.28,4091.79,4107.69,4106.67,4093.85,4101.54,4099.49,4085.64,0
12_22_49,66,4074.36,4088.72,4084.1,4088.72,4105.13,4095.9,4093.85,4093.85,4112.82,4110.77,4093.33,4095.38,4092.82,4080,0
12_22_49,67,4076.92,4088.21,4081.03,4092.31,4103.08,4094.87,4096.92,4093.85,4114.87,4119.49,4097.95,4094.36,4096.92,4086.67,0
12_22_49,68,4085.13,4092.31,4090.26,4093.33,4100.51,4093.85,4095.38,4091.79,4110.77,4121.54,4100.51,4108.72,4107.69,4094.36,0
12_22_49,69,4081.54,4091.28,4092.82,4089.23,4097.44,4091.79,4089.74,4088.21,4106.67,4114.36,4096.41,4108.21,4102.05,4082.56,0
12_22_49,70,4077.44,4087.18,4089.23,4090.26,4094.87,4091.28,4089.23,4079.49,4103.08,4107.69,4091.28,4098.97,4094.36,4075.9,0
12_22_49,71,4082.56,4088.72,4090.26,4090.77,4093.85,4092.82,4090.77,4075.9,4101.54,4109.74,4091.79,4106.15,4099.49,4095.9,0
12_22_49,72,4083.59,4090.26,4088.72,4088.21,4094.87,4090.26,4089.23,4080.51,4104.62,4109.23,4095.38,4109.74,4103.59,4106.67,0
12_22_49,73,4087.69,4092.82,4090.26,4090.77,4100.51,4089.74,4091.28,4090.26,4110.77,4110.26,4096.92,4107.18,4102.05,4094.87,0
12_22_49,74,4090.77,4093.85,4093.33,4094.87,4099.49,4094.87,4096.41,4093.33,4113.33,4117.95,4097.44,4109.74,4100,4087.69,0
12_22_49,75,4081.54,4089.74,4086.15,4091.28,4092.31,4096.92,4097.44,4090.77,4110.77,4120.51,4103.08,4108.21,4097.44,4089.74,0
12_22_49,76,4078.97,4089.23,4082.56,4090.77,4097.44,4093.85,4096.92,4096.41,4114.36,4119.49,4108.72,4111.28,4102.05,4091.28,0
12_22_49,77,4091.28,4092.82,4091.28,4095.38,4103.59,4094.87,4096.92,4101.54,4120.51,4122.05,4109.74,4121.54,4107.69,4096.41,0
12_22_49,78,4094.87,4096.41,4091.28,4096.92,4097.44,4098.46,4095.38,4094.36,4114.87,4125.13,4109.23,4118.97,4103.59,4097.44,0
12_22_49,79,4085.13,4092.82,4082.05,4092.82,4090.26,4092.31,4092.31,4089.74,4104.62,4115.38,4106.67,4107.18,4098.97,4089.74,0
12_22_49,80,4085.64,4092.31,4083.59,4092.82,4093.33,4088.72,4092.31,4091.79,4106.15,4109.23,4105.13,4112.31,4104.1,4090.77,0
12_22_49,81,4093.33,4096.92,4089.23,4098.97,4097.44,4093.85,4094.36,4092.31,4109.74,4120,4110.26,4121.03,4109.74,4095.38,0
12_22_49,82,4087.18,4092.31,4083.08,4097.95,4095.9,4093.85,4093.33,4090.77,4108.21,4123.59,4111.28,4111.28,4106.67,4089.23,0
12_22_49,83,4073.33,4083.59,4074.36,4090.77,4094.36,4090.77,4091.79,4089.74,4103.08,4109.74,4102.56,4103.08,4099.49,4081.54,0
12_22_49,84,4075.9,4088.21,4075.9,4091.79,4098.46,4092.31,4093.33,4089.74,4098.46,4105.13,4103.08,4105.64,4095.9,4082.56,0
12_22_49,85,4085.64,4095.38,4082.05,4097.44,4102.56,4093.33,4097.44,4088.72,4095.38,4113.85,4108.21,4109.23,4094.36,4083.08,0
12_22_49,86,4080.51,4088.72,4079.49,4094.87,4099.49,4090.26,4095.9,4084.62,4092.82,4109.23,4101.54,4105.64,4092.82,4079.49,0
12_22_49,87,4073.33,4082.56,4074.36,4090.26,4093.33,4089.23,4091.79,4081.54,4089.23,4096.92,4093.33,4097.95,4091.28,4076.41,0
12_22_49,88,4073.85,4084.1,4076.92,4090.77,4089.23,4088.72,4089.74,4080,4090.26,4097.95,4095.9,4096.41,4091.79,4075.38,0
12_22_49,89,4081.03,4087.69,4082.05,4092.31,4093.33,4089.74,4088.72,4081.54,4092.31,4105.13,4101.54,4103.08,4091.79,4082.56,0
12_22_49,90,4089.74,4094.87,4084.1,4094.87,4104.1,4098.46,4090.26,4084.1,4092.82,4109.74,4107.18,4109.74,4098.97,4092.82,0
12_22_49,91,4089.74,4102.56,4086.15,4095.38,4109.74,4104.62,4092.82,4081.54,4094.87,4112.82,4114.36,4111.28,4108.72,4090.77,0
12_22_49,92,4080,4097.95,4084.1,4092.31,4103.59,4097.95,4092.31,4074.36,4091.28,4109.23,4109.23,4108.72,4103.08,4073.85,0
12_22_49,93,4073.85,4086.67,4076.41,4089.74,4094.36,4088.72,4088.72,4071.79,4083.59,4100.51,4101.03,4099.49,4090.26,4064.62,0
12_22_49,94,4076.41,4086.15,4077.95,4089.74,4097.95,4092.82,4089.23,4080.51,4086.15,4102.05,4106.15,4096.41,4088.21,4069.23,0
12_22_49,95,4081.03,4092.82,4086.15,4093.33,4108.21,4105.13,4097.95,4090.77,4095.38,4110.26,4114.87,4108.21,4093.85,4078.46,0
12_22_49,96,4085.64,4095.38,4088.21,4096.41,4110.26,4109.23,4106.67,4094.36,4098.46,4108.21,4113.85,4113.85,4095.9,4085.64,0
12_22_49,97,4087.69,4096.92,4082.05,4094.87,4106.15,4099.49,4104.1,4090.77,4093.33,4106.15,4109.74,4104.62,4095.38,4084.62,0
12_22_49,98,4083.59,4093.33,4083.59,4092.82,4104.62,4094.87,4100,4091.79,4092.82,4108.72,4113.85,4108.21,4095.38,4083.59,0
12_22_49,99,4083.08,4089.23,4087.69,4092.31,4106.15,4104.62,4103.08,4094.36,4096.41,4109.23,4116.41,4118.97,4093.33,4081.54,0
12_22_49,100,4086.67,4093.33,4082.05,4097.95,4107.69,4107.69,4100,4093.85,4096.92,4109.23,4116.41,4112.31,4092.82,4076.41,0
12_22_49,101,4082.56,4096.41,4075.9,4102.56,4107.18,4098.46,4090.77,4092.31,4094.36,4109.23,4114.87,4103.59,4091.79,4074.87,0
12_22_49,102,4078.46,4090.26,4079.49,4095.9,4102.05,4094.36,4090.26,4088.21,4090.26,4105.13,4109.23,4108.72,4089.74,4075.9,0
12_22_49,103,4085.64,4088.72,4081.54,4088.72,4100.51,4096.41,4094.87,4088.72,4088.72,4104.1,4108.21,4111.28,4089.23,4073.33,0
12_22_49,104,4089.23,4094.87,4081.03,4095.38,4103.59,4096.41,4095.38,4091.79,4091.79,4108.21,4116.92,4109.74,4090.26,4075.9,0
12_22_49,105,4089.74,4102.56,4088.21,4104.62,4106.15,4102.05,4094.36,4091.79,4095.38,4108.72,4126.15,4121.03,4090.77,4091.28,0
12_22_49,106,4096.92,4108.72,4094.36,4107.18,4108.21,4109.74,4097.95,4097.95,4097.95,4112.31,4126.67,4130.26,4092.31,4097.95,0
12_22_49,107,4097.95,4105.64,4091.28,4103.59,4105.13,4102.05,4099.49,4103.08,4096.41,4119.49,4125.64,4126.15,4095.38,4089.74,0
12_22_49,108,4089.74,4093.85,4088.21,4094.87,4098.97,4090.77,4094.36,4094.87,4093.33,4118.97,4124.62,4123.59,4095.38,4086.15,0
12_22_49,109,4083.59,4088.72,4083.08,4091.28,4095.9,4092.82,4092.31,4088.21,4089.74,4112.31,4118.46,4120,4090.26,4086.15,0
12_22_49,110,4080,4090.77,4079.49,4094.36,4095.38,4095.9,4097.44,4092.31,4087.18,4107.69,4112.82,4111.79,4086.67,4083.08,0
12_22_49,111,4076.92,4086.67,4082.56,4093.85,4092.82,4091.28,4096.41,4093.33,4086.67,4106.15,4113.33,4109.74,4083.59,4081.03,0
12_22_49,112,4076.41,4081.54,4087.18,4091.79,4090.77,4087.18,4089.74,4088.72,4084.62,4103.59,4112.31,4110.26,4081.54,4080,0
12_22_49,113,4077.95,4086.15,4089.74,4095.9,4098.46,4094.36,4089.74,4088.72,4083.59,4104.1,4109.74,4106.15,4086.67,4075.9,0
12_22_49,114,4077.44,4091.28,4088.21,4098.97,4107.69,4101.54,4094.87,4091.28,4088.21,4109.23,4111.28,4105.64,4093.33,4075.38,0
12_22_49,115,4076.41,4090.26,4086.67,4094.36,4106.15,4100.51,4096.41,4091.28,4091.79,4107.69,4111.28,4107.69,4091.79,4073.33,0
12_22_49,116,4076.41,4086.67,4086.67,4091.79,4098.97,4100,4095.38,4089.23,4086.67,4101.03,4105.64,4104.62,4085.13,4066.67,0
12_22_49,117,4073.33,4077.95,4087.18,4091.28,4094.36,4104.62,4095.38,4088.21,4083.08,4098.97,4102.05,4101.54,4080,4067.18,0
12_22_49,118,4074.87,4077.44,4087.18,4093.33,4096.92,4107.18,4098.97,4091.79,4090.26,4106.67,4106.15,4106.15,4083.08,4075.38,0
12_22_49,119,4078.97,4081.03,4084.62,4097.95,4103.08,4106.15,4100,4094.36,4094.36,4110.26,4111.79,4113.85,4088.72,4077.95,0
12_22_49,120,4078.97,4076.92,4085.13,4101.54,4106.15,4105.13,4094.36,4092.82,4089.23,4108.21,4108.72,4112.82,4084.62,4074.87,0
12_22_49,121,4077.44,4076.92,4087.69,4100.51,4105.64,4105.64,4093.33,4092.31,4086.67,4105.13,4102.05,4107.69,4079.49,4073.85,0
12_22_49,122,4084.62,4089.23,4091.79,4105.13,4110.26,4113.33,4104.62,4098.46,4091.79,4108.21,4110.77,4113.85,4087.18,4083.08,0
12_22_49,123,4094.36,4096.41,4096.92,4112.82,4112.31,4117.44,4111.28,4106.15,4095.9,4121.03,4125.64,4128.72,4101.03,4095.38,0
12_22_49,124,4089.74,4087.18,4094.87,4103.59,4105.13,4108.72,4101.54,4101.54,4095.38,4121.54,4123.59,4127.18,4104.62,4090.26,0
12_22_49,125,4080.51,4082.05,4090.26,4094.87,4102.56,4105.64,4091.79,4092.31,4091.28,4108.21,4111.79,4112.31,4098.97,4078.46,0
12_22_49,126,4082.05,4085.64,4091.28,4098.97,4104.62,4105.13,4092.31,4089.23,4085.13,4104.62,4109.23,4108.21,4093.33,4082.56,0
12_22_49,127,4087.18,4086.15,4093.33,4096.41,4101.03,4099.49,4095.38,4091.28,4085.64,4108.21,4110.26,4113.33,4091.28,4086.67,0
12_22_49,128,4082.05,4086.15,4086.67,4089.23,4100,4098.97,4096.92,4094.87,4091.28,4106.15,4107.18,4103.59,4092.82,4077.95,0
12_22_49,0,4074.36,4091.28,4085.64,4092.31,4107.69,4104.62,4096.92,4094.36,4092.31,4106.15,4106.67,4091.79,4091.79,4070.77,0
12_22_49,1,4074.36,4091.28,4092.82,4094.36,4105.13,4105.13,4095.9,4090.77,4090.77,4108.21,4107.69,4101.03,4090.77,4074.87,0
12_22_49,2,4075.38,4085.64,4089.74,4089.23,4095.38,4104.62,4096.41,4089.74,4087.69,4105.64,4106.15,4106.15,4090.77,4074.87,0
12_22_49,3,4075.9,4088.72,4084.62,4090.26,4095.38,4107.18,4095.38,4090.77,4085.13,4104.62,4104.1,4099.49,4089.74,4070.77,0
12_22_49,4,4078.97,4090.77,4088.72,4092.31,4096.41,4105.64,4092.31,4092.31,4085.64,4104.62,4105.13,4102.56,4090.26,4075.9,0
12_22_49,5,4084.62,4089.74,4093.33,4093.85,4098.46,4104.62,4096.41,4099.49,4095.38,4109.23,4111.79,4110.77,4096.41,4083.59,0
12_22_49,6,4090.77,4102.56,4098.46,4103.59,4107.69,4109.23,4105.13,4107.18,4104.62,4119.49,4121.54,4114.36,4103.08,4086.15,0
12_22_49,7,4093.85,4108.72,4110.26,4108.72,4112.31,4110.26,4106.15,4106.67,4103.59,4122.56,4123.59,4121.54,4097.95,4087.18,0
12_22_49,8,4093.85,4096.92,4107.69,4103.59,4107.18,4106.15,4106.15,4106.67,4099.49,4119.49,4119.49,4126.15,4096.41,4083.59,0
12_22_49,9,4089.23,4090.26,4092.31,4098.97,4105.13,4103.59,4108.72,4109.74,4104.62,4121.03,4117.95,4115.38,4105.13,4077.95,0
12_22_49,10,4087.18,4093.85,4093.85,4096.92,4106.67,4106.67,4106.15,4108.21,4109.74,4123.59,4120.51,4108.21,4105.64,4080,0
12_22_49,11,4094.36,4095.9,4102.56,4094.87,4106.15,4108.21,4103.59,4110.26,4104.1,4121.03,4123.59,4117.44,4102.56,4085.13,0
12_22_49,12,4097.44,4095.38,4095.9,4096.41,4107.69,4108.21,4107.18,4117.44,4108.21,4123.59,4124.1,4123.59,4106.15,4083.08,0
12_22_49,13,4085.64,4084.1,4084.62,4092.31,4103.08,4107.69,4107.18,4113.33,4115.9,4120.51,4115.38,4112.31,4099.49,4074.36,0
12_22_49,14,4077.44,4071.28,4085.13,4082.05,4095.38,4106.67,4104.1,4103.59,4113.33,4110.77,4107.18,4103.08,4089.23,4072.82,0
12_22_49,15,4086.67,4075.38,4092.82,4084.1,4099.49,4106.67,4106.67,4103.59,4114.36,4110.77,4110.77,4112.82,4100,4078.46,0
12_22_49,16,4091.28,4081.54,4093.85,4092.82,4104.62,4102.56,4109.74,4107.69,4121.54,4109.23,4109.23,4119.49,4108.72,4077.95,0
12_22_49,17,4080.51,4076.41,4089.74,4093.85,4102.56,4097.44,4107.69,4106.15,4122.05,4103.08,4100.51,4108.72,4101.03,4069.23,0
12_22_49,18,4071.28,4069.74,4088.21,4085.64,4097.95,4095.38,4105.13,4102.56,4118.46,4104.62,4100,4101.54,4098.46,4063.08,0
12_22_49,19,4078.97,4069.74,4092.31,4087.18,4100.51,4097.95,4104.62,4105.13,4123.59,4111.28,4106.67,4111.28,4106.67,4066.67,0
12_22_49,20,4087.69,4076.41,4094.87,4097.44,4105.64,4100.51,4105.64,4106.67,4126.15,4110.77,4106.15,4113.85,4108.21,4070.26,0
12_22_49,21,4080,4076.41,4092.31,4098.97,4102.05,4097.44,4104.1,4098.46,4122.05,4102.56,4096.92,4099.49,4094.36,4063.59,0
12_22_49,22,4076.41,4071.79,4092.31,4092.31,4097.95,4092.82,4100,4093.85,4120.51,4100,4089.74,4095.9,4085.64,4058.97,0
12_22_49,23,4082.05,4075.38,4093.85,4091.79,4098.97,4092.31,4096.41,4096.92,4123.59,4104.62,4091.79,4101.03,4089.23,4064.62,0
12_22_49,24,4079.49,4076.92,4093.85,4096.92,4101.03,4093.33,4096.92,4097.95,4129.23,4108.72,4095.9,4097.95,4090.77,4067.18,0
12_22_49,25,4080.51,4077.44,4092.82,4102.05,4105.64,4094.87,4103.59,4104.62,4137.95,4108.72,4095.38,4098.46,4089.74,4067.69,0
12_22_49,26,4091.79,4086.67,4093.85,4108.21,4112.82,4097.44,4109.74,4108.21,4138.97,4109.23,4101.03,4108.21,4094.36,4074.87,0
12_22_49,27,4090.26,4086.67,4093.33,4102.56,4105.13,4095.38,4103.59,4095.9,4126.67,4106.15,4102.56,4105.13,4092.82,4075.38,0
12_22_49,28,4082.56,4081.03,4091.28,4090.26,4094.36,4088.21,4094.87,4087.18,4123.08,4100.51,4094.87,4097.95,4083.08,4070.26,0
12_22_49,29,4086.15,4087.69,4089.23,4089.23,4101.54,4089.23,4101.03,4096.41,4131.28,4104.62,4100.51,4106.15,4087.69,4074.36,0
12_22_50,30,4088.21,4088.21,4093.85,4097.44,4107.18,4097.44,4108.72,4104.62,4134.87,4108.21,4111.79,4111.79,4102.05,4080.51,0
12_22_50,31,4091.79,4091.28,4104.62,4104.1,4106.15,4102.05,4106.67,4106.67,4136.92,4108.21,4110.77,4108.21,4105.64,4080.51,0
12_22_50,32,4093.33,4091.28,4105.64,4096.92,4106.67,4102.05,4107.18,4111.28,4141.03,4114.36,4110.77,4112.82,4099.49,4081.03,0
12_22_50,33,4088.72,4075.9,4100,4088.21,4106.67,4104.62,4110.77,4114.36,4141.03,4117.44,4118.46,4120.51,4097.44,4081.03,0
12_22_50,34,4090.26,4083.59,4100.51,4098.46,4105.64,4106.67,4109.23,4112.82,4140.51,4113.33,4112.82,4111.79,4094.87,4077.44,0
12_22_50,35,4094.36,4109.23,4101.03,4106.67,4104.1,4103.59,4104.1,4110.77,4137.44,4107.18,4097.44,4098.46,4081.54,4069.74,0
12_22_50,36,4089.74,4110.77,4095.9,4099.49,4104.1,4100,4098.46,4101.03,4125.13,4100,4090.77,4092.82,4068.21,4061.03,0
12_22_50,37,4089.23,4103.59,4092.31,4096.92,4103.08,4095.9,4093.33,4088.21,4116.41,4091.28,4087.69,4087.18,4063.59,4056.92,0
12_22_50,38,4090.77,4105.64,4092.31,4098.46,4098.97,4089.74,4092.82,4088.21,4116.92,4089.23,4082.56,4084.62,4063.08,4058.46,0
12_22_50,39,4082.56,4095.9,4091.28,4091.79,4093.33,4090.77,4094.36,4090.77,4116.41,4091.79,4078.97,4087.18,4061.54,4058.97,0
12_22_50,40,4078.97,4087.69,4090.77,4088.72,4092.31,4095.38,4091.79,4089.74,4114.87,4089.23,4077.95,4086.15,4058.46,4059.49,0
12_22_50,41,4088.21,4093.85,4091.79,4095.9,4097.44,4095.38,4094.87,4095.9,4117.95,4092.31,4084.1,4093.33,4062.05,4067.69,0
12_22_50,42,4093.85,4097.95,4094.87,4101.03,4103.08,4094.87,4104.1,4098.97,4123.59,4104.62,4094.87,4105.13,4071.28,4073.85,0
12_22_50,43,4090.26,4095.38,4094.87,4095.9,4101.03,4094.87,4102.05,4093.33,4121.54,4106.67,4093.85,4101.03,4067.69,4067.69,0
12_22_50,44,4090.26,4095.9,4092.82,4091.79,4096.41,4097.95,4094.36,4092.82,4114.36,4102.05,4088.72,4094.36,4060,4063.59,0
12_22_50,45,4095.9,4105.64,4097.95,4100,4102.05,4103.08,4100,4097.95,4115.9,4105.13,4097.95,4104.1,4069.74,4072.31,0
12_22_50,46,4097.44,4106.67,4102.05,4104.62,4105.64,4101.03,4108.72,4098.97,4121.03,4108.72,4103.59,4110.77,4077.44,4080,0
12_22_50,47,4092.31,4093.85,4096.41,4093.33,4096.92,4093.33,4101.03,4093.85,4112.82,4101.03,4093.85,4099.49,4065.13,4072.31,0
12_22_50,48,4085.13,4087.69,4088.21,4085.13,4090.26,4090.77,4091.79,4089.74,4102.05,4090.77,4088.72,4091.28,4057.95,4061.03,0
12_22_50,49,4083.08,4088.72,4091.79,4087.69,4090.77,4092.82,4093.85,4091.79,4104.62,4086.15,4090.26,4096.41,4063.59,4063.08,0
12_22_50,50,4088.72,4089.23,4095.9,4089.74,4091.79,4091.79,4095.38,4093.33,4109.23,4087.18,4090.77,4104.62,4063.08,4072.82,0
12_22_50,51,4092.82,4090.77,4092.82,4089.74,4091.79,4091.28,4093.85,4090.26,4106.67,4090.26,4094.87,4107.18,4064.62,4076.92,0
12_22_50,52,4090.77,4091.79,4097.95,4090.26,4090.77,4091.79,4093.85,4090.77,4101.54,4091.79,4097.95,4108.21,4072.82,4075.9,0
12_22_50,53,4093.33,4091.28,4103.59,4090.26,4093.33,4091.79,4094.87,4093.85,4100,4092.82,4095.38,4108.72,4076.41,4075.9,0
12_22_50,54,4096.41,4092.31,4096.41,4091.28,4097.95,4094.87,4097.95,4091.28,4101.03,4093.85,4098.46,4107.18,4072.31,4076.92,0
12_22_50,55,4093.33,4090.26,4091.28,4090.26,4100,4095.9,4097.44,4084.62,4094.87,4091.28,4101.03,4108.21,4070.77,4076.41,0
12_22_50,56,4091.28,4090.77,4093.33,4089.74,4102.05,4093.85,4092.31,4083.08,4089.74,4090.26,4096.92,4106.67,4073.85,4073.33,0
12_22_50,57,4087.69,4090.26,4090.26,4089.23,4102.56,4093.33,4089.23,4083.08,4093.33,4093.33,4091.79,4094.87,4073.85,4071.28,0
12_22_50,58,4081.03,4083.59,4084.1,4081.54,4093.85,4092.82,4087.69,4074.36,4090.77,4089.74,4090.26,4086.15,4067.69,4065.64,0
12_22_50,59,4081.54,4083.08,4086.67,4074.36,4088.72,4090.26,4086.67,4073.85,4086.67,4083.59,4088.21,4088.21,4061.03,4059.49,0
12_22_50,60,4088.21,4091.28,4091.79,4080,4096.92,4089.23,4088.21,4088.21,4096.92,4091.28,4089.23,4090.77,4066.15,4065.64,0
12_22_50,61,4089.74,4093.85,4091.79,4089.74,4102.56,4095.9,4091.79,4093.85,4107.69,4104.1,4093.33,4092.31,4074.87,4074.87,0
12_22_50,62,4088.21,4092.31,4091.79,4089.23,4098.97,4104.1,4093.85,4091.79,4106.15,4108.21,4093.85,4094.87,4075.38,4074.36,0
12_22_50,63,4089.23,4094.36,4093.85,4088.72,4101.03,4105.13,4095.38,4095.38,4108.72,4108.72,4094.36,4094.87,4076.41,4072.82,0
12_22_50,64,4092.31,4095.9,4094.87,4091.28,4101.54,4098.46,4094.36,4095.9,4108.21,4108.21,4098.46,4099.49,4079.49,4075.38,0
12_22_50,65,4091.79,4092.82,4095.38,4088.72,4094.87,4092.82,4089.74,4091.79,4096.41,4105.64,4101.03,4105.13,4074.36,4076.92,0
12_22_50,66,4089.23,4088.72,4096.41,4087.18,4092.31,4092.82,4091.79,4091.28,4090.77,4104.1,4097.44,4102.56,4067.18,4074.36,0
12_22_50,67,4089.74,4090.77,4094.87,4090.77,4097.44,4093.33,4095.9,4092.82,4097.44,4106.67,4098.46,4104.62,4070.77,4074.36,0
12_22_50,68,4088.21,4091.79,4091.79,4089.74,4097.44,4092.31,4094.36,4092.31,4097.95,4106.15,4097.44,4108.21,4071.79,4074.36,0
12_22_50,69,4082.05,4089.23,4092.31,4087.18,4094.36,4091.79,4090.26,4091.79,4090.26,4097.95,4088.21,4097.95,4062.56,4068.72,0
12_22_50,70,4085.13,4095.38,4095.9,4092.31,4100.51,4092.82,4090.26,4090.26,4090.77,4097.44,4092.82,4095.9,4063.08,4066.15,0
12_22_50,71,4092.31,4099.49,4097.95,4096.92,4104.1,4093.85,4092.31,4088.72,4092.82,4106.67,4102.05,4106.15,4073.85,4073.85,0
12_22_50,72,4088.72,4096.92,4094.36,4093.85,4100,4091.28,4090.26,4088.21,4091.28,4107.18,4093.85,4103.08,4076.41,4075.9,0
12_22_50,73,4085.13,4101.03,4094.87,4092.31,4100.51,4094.36,4089.23,4092.82,4097.95,4106.15,4091.79,4098.46,4075.9,4071.79,0
12_22_50,74,4090.77,4108.21,4100.51,4100,4107.69,4104.62,4095.9,4098.97,4104.62,4111.79,4102.56,4107.18,4079.49,4074.87,0
12_22_50,75,4094.36,4107.18,4101.54,4106.67,4108.21,4104.1,4100,4095.38,4096.92,4109.23,4100,4109.74,4078.46,4078.97,0
12_22_50,76,4096.92,4106.67,4101.54,4107.69,4106.67,4097.95,4095.38,4089.74,4089.23,4103.59,4093.85,4104.62,4077.44,4080.51,0
12_22_50,77,4105.13,4110.77,4108.21,4108.72,4111.28,4102.05,4096.92,4092.31,4095.9,4109.74,4105.13,4112.82,4083.59,4087.69,0
12_22_50,78,4109.74,4111.79,4112.31,4111.79,4112.82,4105.13,4105.64,4094.87,4099.49,4111.79,4113.33,4121.03,4085.64,4092.82,0
12_22_50,79,4101.54,4105.13,4107.69,4104.62,4106.15,4096.92,4102.05,4090.77,4093.85,4098.46,4102.05,4111.79,4074.87,4086.67,0
12_22_50,80,4092.31,4094.87,4103.08,4092.82,4097.95,4090.77,4089.74,4089.23,4088.72,4089.23,4089.74,4100,4068.72,4074.87,0
12_22_50,81,4088.21,4088.21,4105.13,4090.77,4094.87,4092.31,4091.28,4091.28,4085.64,4093.33,4089.23,4099.49,4070.26,4070.77,0
12_22_50,82,4087.69,4083.08,4104.62,4092.31,4094.36,4091.28,4098.46,4092.82,4086.67,4095.9,4092.82,4105.13,4071.79,4075.9,0
12_22_50,83,4085.64,4080,4100,4086.67,4089.23,4089.23,4094.36,4093.33,4088.21,4091.28,4090.77,4105.13,4067.18,4077.44,0
12_22_50,84,4086.67,4084.1,4101.03,4085.13,4088.72,4092.31,4092.82,4094.36,4090.77,4092.31,4090.26,4104.1,4064.62,4077.95,0
12_22_50,85,4097.44,4093.85,4108.72,4095.38,4096.92,4097.44,4095.38,4096.92,4098.46,4102.56,4101.03,4112.82,4074.87,4087.18,0
12_22_50,86,4107.69,4102.05,4112.31,4099.49,4099.49,4094.87,4089.74,4095.38,4101.03,4109.23,4110.77,4124.1,4084.1,4094.36,0
12_22_50,87,4108.21,4105.64,4110.77,4100,4098.46,4093.33,4087.18,4090.77,4095.9,4104.62,4109.74,4125.64,4084.1,4095.38,0
12_22_50,88,4107.69,4106.67,4108.72,4106.15,4106.15,4096.92,4093.85,4087.69,4092.82,4098.46,4106.67,4122.56,4085.13,4094.87,0
12_22_50,89,4110.77,4107.18,4107.18,4104.62,4111.79,4096.92,4095.38,4083.59,4086.15,4095.9,4108.21,4117.95,4083.59,4087.69,0
12_22_50,90,4102.56,4104.62,4106.67,4097.44,4107.69,4092.82,4092.31,4074.36,4075.9,4095.9,4106.67,4109.74,4075.9,4077.95,0
12_22_50,91,4090.26,4100.51,4102.56,4097.95,4105.64,4096.41,4094.36,4075.9,4080,4100.51,4103.59,4107.18,4074.87,4082.05,0
12_22_50,92,4089.74,4099.49,4096.92,4098.46,4103.59,4103.08,4095.38,4088.21,4087.69,4103.08,4104.62,4109.74,4075.38,4093.33,0
12_22_50,93,4090.77,4095.9,4091.28,4091.79,4095.9,4102.05,4094.87,4091.79,4086.67,4100.51,4106.67,4103.59,4069.23,4092.31,0
12_22_50,94,4080,4088.72,4085.13,4088.21,4090.77,4096.41,4093.33,4087.18,4086.67,4102.05,4105.64,4095.38,4068.21,4082.56,0
12_22_50,95,4073.33,4083.59,4083.08,4086.15,4088.72,4091.28,4086.67,4085.64,4087.18,4101.03,4099.49,4091.79,4067.18,4078.97,0
12_22_50,96,4081.03,4083.59,4088.72,4083.59,4086.67,4088.21,4083.59,4089.23,4086.67,4096.41,4096.92,4090.26,4067.18,4078.46,0
12_22_50,97,4088.21,4090.26,4096.92,4088.21,4093.85,4094.87,4089.23,4091.28,4089.23,4101.54,4103.08,4094.87,4072.82,4078.97,0
12_22_50,98,4094.87,4102.56,4105.13,4097.44,4104.1,4106.15,4095.9,4092.31,4093.85,4109.74,4110.77,4108.21,4082.05,4085.13,0
12_22_50,99,4106.15,4112.31,4111.28,4106.67,4111.28,4108.72,4097.44,4091.79,4094.36,4110.26,4113.33,4115.38,4090.26,4094.36,0
12_22_50,100,4103.59,4110.77,4107.18,4108.72,4112.82,4105.64,4094.36,4089.23,4086.15,4107.18,4109.74,4109.23,4087.18,4093.85,0
12_22_50,101,4090.26,4103.08,4100,4098.46,4110.77,4107.69,4093.85,4089.74,4077.44,4101.03,4106.67,4104.1,4076.41,4088.21,0
12_22_50,102,4093.85,4103.59,4104.62,4094.36,4109.23,4110.77,4099.49,4090.26,4083.08,4100.51,4107.69,4107.69,4077.95,4089.74,0
12_22_50,103,4102.05,4109.23,4109.23,4101.03,4111.28,4111.79,4100.51,4089.74,4093.85,4106.15,4108.72,4109.23,4085.64,4089.74,0
12_22_50,104,4093.85,4106.67,4102.05,4100,4112.82,4109.74,4096.92,4095.9,4096.41,4106.15,4105.64,4105.13,4078.46,4083.08,0
12_22_50,105,4088.21,4102.05,4094.36,4093.85,4110.26,4108.72,4097.44,4105.13,4095.9,4106.15,4106.15,4104.1,4075.38,4082.56,0
12_22_50,106,4093.33,4104.1,4097.44,4097.95,4106.67,4108.72,4096.41,4103.08,4092.31,4106.67,4108.72,4108.21,4083.59,4091.28,0
12_22_50,107,4094.87,4106.15,4098.97,4102.05,4107.18,4104.1,4093.85,4095.38,4089.74,4104.62,4107.18,4109.23,4083.59,4090.77,0
12_22_50,108,4090.26,4105.13,4094.87,4095.38,4106.67,4101.03,4094.87,4095.9,4089.23,4103.08,4104.62,4105.13,4080,4082.56,0
12_22_50,109,4089.23,4105.64,4095.38,4093.85,4104.1,4105.13,4098.97,4098.46,4090.77,4105.64,4105.64,4106.15,4086.15,4086.15,0
12_22_50,110,4098.97,4108.72,4101.54,4104.62,4105.64,4106.67,4100.51,4096.92,4093.33,4108.21,4108.72,4110.77,4093.33,4093.33,0
12_22_50,111,4103.08,4106.67,4103.08,4104.62,4109.23,4104.1,4097.44,4092.31,4088.72,4107.18,4106.15,4107.18,4089.23,4091.28,0
12_22_50,112,4097.95,4105.13,4099.49,4097.44,4109.74,4106.67,4097.95,4094.36,4085.64,4104.1,4104.1,4103.08,4085.64,4089.74,0
12_22_50,113,4096.41,4106.15,4095.9,4098.46,4109.23,4106.15,4103.59,4100,4090.26,4107.18,4107.69,4108.21,4092.31,4090.77,0
12_22_50,114,4096.92,4104.1,4092.31,4097.95,4108.72,4102.05,4101.03,4096.41,4088.72,4105.13,4105.64,4108.72,4090.26,4087.69,0
12_22_50,115,4090.77,4096.92,4089.74,4093.33,4107.18,4101.54,4095.9,4089.74,4084.1,4094.87,4098.46,4097.44,4084.62,4086.67,0
12_22_50,116,4089.23,4093.85,4090.77,4095.38,4106.67,4097.95,4094.87,4089.74,4087.69,4097.44,4098.46,4090.77,4088.21,4089.74,0
12_22_50,117,4092.82,4098.97,4092.31,4102.05,4108.21,4096.41,4098.46,4095.38,4091.28,4107.69,4104.1,4097.44,4092.31,4091.28,0
12_22_50,118,4092.31,4105.64,4093.33,4106.15,4112.31,4105.64,4105.64,4106.67,4091.79,4108.21,4107.69,4107.18,4091.79,4091.79,0
12_22_50,119,4090.77,4103.08,4094.36,4105.13,4115.38,4111.28,4108.21,4110.77,4092.82,4106.15,4107.18,4104.1,4092.31,4089.74,0
12_22_50,120,4091.79,4095.9,4092.82,4098.46,4112.31,4107.18,4099.49,4099.49,4091.28,4108.21,4106.15,4097.95,4092.31,4088.72,0
12_22_50,121,4090.26,4094.87,4090.77,4097.44,4108.72,4105.64,4095.9,4095.9,4091.79,4105.13,4105.13,4100.51,4087.69,4088.72,0
12_22_50,122,4092.82,4098.97,4094.36,4104.62,4108.72,4105.64,4101.03,4106.67,4097.44,4103.08,4107.18,4107.18,4092.31,4090.77,0
12_22_50,123,4102.56,4104.1,4104.62,4106.67,4108.21,4099.49,4098.97,4105.64,4097.95,4113.85,4116.92,4116.41,4104.62,4099.49,0
12_22_50,124,4111.28,4110.26,4108.72,4107.69,4106.15,4093.33,4092.31,4095.9,4095.9,4120.51,4124.62,4126.67,4111.28,4107.18,0
12_22_50,125,4107.69,4107.18,4101.03,4107.18,4101.03,4090.77,4090.26,4091.79,4092.31,4111.28,4116.92,4126.15,4107.69,4101.03,0
12_22_50,126,4095.38,4095.38,4092.82,4103.08,4100,4090.77,4090.77,4091.79,4089.74,4103.08,4106.67,4120,4097.44,4092.31,0
12_22_50,127,4095.9,4096.92,4092.31,4103.08,4104.62,4093.33,4092.31,4095.38,4090.77,4107.18,4105.13,4121.03,4095.9,4093.85,0
12_22_50,128,4105.64,4109.23,4094.87,4107.69,4108.21,4095.38,4093.33,4101.03,4091.79,4111.28,4108.72,4122.56,4102.56,4096.41,0
12_22_50,0,4100.51,4097.44,4090.77,4101.54,4105.64,4092.31,4092.31,4102.56,4092.31,4109.74,4110.77,4115.38,4102.05,4091.79,0
12_22_50,1,4087.18,4077.95,4081.54,4090.26,4102.05,4088.21,4090.26,4098.46,4087.18,4105.64,4100.51,4106.67,4083.59,4078.46,0
12_22_50,2,4091.28,4088.72,4081.54,4096.41,4102.05,4091.28,4090.77,4096.92,4082.05,4100.51,4089.74,4102.05,4073.33,4071.79,0
12_22_50,3,4107.18,4108.21,4090.26,4107.18,4105.64,4094.87,4091.79,4101.03,4088.21,4102.56,4100,4106.67,4086.67,4083.59,0
12_22_50,4,4117.44,4114.36,4094.36,4111.28,4108.21,4092.31,4092.31,4108.72,4097.95,4107.69,4113.33,4116.41,4100,4100,0
12_22_50,5,4124.1,4119.49,4095.38,4117.44,4106.67,4089.74,4092.31,4108.72,4093.33,4108.72,4111.79,4122.56,4096.92,4105.64,0
12_22_50,6,4129.74,4128.21,4102.56,4121.54,4106.67,4090.26,4090.26,4100.51,4082.56,4105.13,4107.18,4123.08,4085.64,4105.13,0
12_22_50,7,4129.23,4122.05,4107.18,4113.33,4105.64,4091.28,4090.77,4095.9,4080,4096.41,4105.64,4121.03,4082.56,4105.13,0
12_22_50,8,4124.62,4109.74,4105.13,4108.21,4103.59,4090.26,4091.79,4094.87,4080.51,4094.36,4106.67,4121.03,4091.79,4112.82,0
12_22_50,9,4124.1,4109.74,4106.15,4116.41,4106.67,4090.26,4091.28,4094.87,4083.08,4104.1,4110.26,4123.08,4100,4122.05,0
12_22_50,10,4126.15,4109.74,4107.18,4117.44,4108.21,4093.33,4093.85,4097.44,4089.74,4110.26,4109.74,4123.08,4099.49,4123.59,0
12_22_50,19,4123.59,4109.23,4103.59,4107.69,4098.46,4082.56,4079.49,4085.13,4107.69,4092.82,4099.49,4113.85,4120.51,4111.28,0
12_22_50,20,4122.05,4101.03,4099.49,4103.08,4094.87,4082.05,4083.08,4087.18,4106.15,4088.21,4087.69,4108.21,4115.9,4108.21,0
12_22_50,21,4124.1,4097.95,4096.41,4100.51,4094.87,4080.51,4091.28,4082.56,4106.67,4085.64,4081.03,4103.59,4108.72,4103.59,0
12_22_50,22,4120.51,4098.46,4097.44,4099.49,4091.79,4081.03,4087.18,4080,4104.1,4082.56,4084.62,4104.1,4104.1,4103.08,0
12_22_50,23,4121.03,4103.59,4096.92,4096.41,4093.85,4087.18,4085.13,4087.18,4110.26,4087.18,4089.74,4104.1,4109.74,4105.13,0
12_22_50,24,4120.51,4100,4091.79,4092.31,4101.03,4090.77,4090.77,4090.77,4118.97,4089.74,4084.62,4096.92,4107.69,4097.44,0
12_22_50,25,4114.87,4093.85,4088.72,4093.33,4104.62,4089.74,4091.79,4089.74,4117.95,4085.64,4077.95,4088.72,4103.59,4089.74,0
12_22_50,26,4116.41,4101.54,4092.82,4100.51,4106.15,4092.31,4090.26,4090.26,4116.92,4089.23,4084.1,4089.23,4110.26,4094.36,0
12_22_50,27,4123.08,4110.26,4095.38,4104.1,4108.21,4095.38,4095.38,4090.77,4122.56,4097.95,4093.33,4093.33,4114.87,4098.46,0
12_22_50,28,4121.03,4107.69,4093.85,4101.03,4112.82,4095.9,4103.59,4094.87,4124.62,4095.38,4090.77,4090.26,4113.85,4098.97,0
12_22_51,29,4120,4109.23,4098.46,4104.1,4116.41,4102.05,4107.69,4106.15,4122.56,4089.74,4086.67,4091.79,4117.44,4103.59,0
12_22_51,30,4130.26,4122.56,4108.21,4110.77,4114.36,4108.21,4109.23,4110.26,4123.59,4101.03,4097.95,4103.59,4124.1,4109.23,0
12_22_51,31,4133.33,4124.1,4107.69,4110.26,4110.77,4101.03,4108.72,4099.49,4123.59,4108.21,4106.15,4109.23,4120,4110.77,0
12_22_51,32,4123.08,4108.72,4103.08,4106.67,4108.21,4090.26,4107.18,4094.87,4119.49,4093.33,4095.9,4103.08,4107.69,4107.69,0
12_22_51,33,4119.49,4105.13,4106.15,4109.23,4106.67,4089.23,4101.54,4105.13,4121.03,4090.26,4095.38,4104.1,4105.13,4108.21,0
12_22_51,34,4129.23,4113.33,4109.23,4108.72,4106.15,4095.38,4099.49,4108.72,4130.77,4106.15,4105.64,4109.23,4116.41,4109.74,0
12_22_51,35,4133.85,4113.85,4106.67,4106.67,4107.69,4098.97,4102.05,4105.64,4141.03,4111.79,4107.69,4107.69,4123.59,4111.28,0
12_22_51,36,4126.15,4108.21,4106.67,4109.74,4106.67,4094.36,4100.51,4109.74,4140.51,4107.69,4106.67,4107.69,4122.56,4113.33,0
12_22_51,37,4121.03,4105.64,4105.64,4106.67,4101.03,4089.23,4092.82,4107.69,4132.31,4105.64,4103.59,4109.23,4116.92,4110.77,0
12_22_51,38,4123.59,4106.15,4104.1,4098.97,4098.46,4089.74,4089.74,4097.95,4125.13,4103.08,4097.44,4107.18,4111.28,4107.18,0
12_22_51,39,4124.1,4105.64,4105.64,4094.36,4097.44,4088.72,4089.23,4095.38,4119.49,4098.46,4100.51,4107.69,4114.87,4106.15,0
12_22_51,40,4123.08,4103.59,4106.67,4096.92,4097.44,4086.15,4089.74,4095.38,4120.51,4102.56,4107.18,4112.82,4124.1,4105.13,0
12_22_51,41,4126.15,4104.62,4105.13,4102.56,4102.05,4089.23,4095.38,4095.9,4123.08,4106.67,4106.67,4118.97,4124.1,4105.64,0
12_22_51,42,4126.67,4107.69,4104.1,4107.18,4108.72,4093.33,4098.46,4099.49,4118.97,4103.08,4107.18,4120,4120,4108.72,0
12_22_51,43,4123.08,4106.67,4107.18,4106.15,4106.15,4091.28,4093.85,4095.38,4112.82,4100,4108.72,4120.51,4121.03,4108.21,0
12_22_51,44,4123.59,4107.69,4107.69,4105.13,4105.13,4089.74,4089.74,4089.74,4115.9,4105.13,4108.21,4124.1,4124.62,4108.21,0
12_22_51,45,4125.64,4108.72,4102.56,4108.72,4107.18,4091.28,4092.31,4096.41,4123.59,4110.77,4108.72,4121.54,4125.13,4109.23,0
12_22_51,46,4116.92,4101.03,4098.46,4102.56,4097.95,4089.74,4091.79,4101.54,4119.49,4102.56,4104.1,4109.74,4116.41,4101.54,0
12_22_51,47,4104.1,4092.82,4101.54,4091.79,4089.23,4082.56,4084.62,4093.85,4109.23,4092.82,4098.97,4105.13,4108.72,4093.85,0
12_22_51,48,4105.13,4093.85,4106.15,4093.33,4092.31,4078.46,4081.54,4091.28,4108.72,4093.85,4099.49,4109.23,4111.28,4096.41,0
12_22_51,49,4109.74,4093.85,4103.59,4096.92,4093.33,4078.97,4081.54,4092.31,4109.23,4093.85,4096.41,4109.23,4108.72,4095.9,0
12_22_51,50,4108.72,4091.79,4101.54,4095.38,4088.72,4078.46,4080.51,4087.69,4103.59,4089.74,4091.28,4105.64,4104.62,4091.28,0
12_22_51,51,4109.23,4093.85,4106.15,4094.36,4089.74,4075.9,4085.13,4087.18,4103.59,4088.21,4093.85,4107.18,4109.23,4094.36,0
12_22_51,52,4110.77,4093.85,4108.21,4093.33,4091.79,4074.36,4090.26,4090.26,4102.56,4091.28,4097.44,4108.72,4109.23,4096.41,0
12_22_51,53,4105.64,4091.28,4103.59,4091.79,4089.23,4074.87,4086.67,4082.56,4091.28,4091.79,4095.38,4107.18,4103.59,4091.79,0
12_22_51,54,4103.08,4088.21,4096.92,4092.82,4088.72,4075.38,4080,4076.41,4086.67,4089.23,4092.82,4105.13,4102.56,4090.77,0
12_22_51,55,4107.69,4092.31,4095.38,4094.87,4090.77,4076.41,4083.59,4083.59,4098.46,4088.21,4092.31,4105.13,4106.15,4092.31,0
12_22_51,56,4109.23,4101.54,4098.97,4100.51,4093.33,4083.08,4091.28,4093.85,4113.85,4097.95,4100.51,4109.23,4116.92,4094.87,0
12_22_51,57,4109.23,4101.03,4106.15,4107.18,4097.95,4091.79,4094.87,4102.05,4125.13,4110.26,4114.87,4119.49,4126.67,4103.59,0
12_22_51,58,4109.23,4094.87,4106.67,4105.13,4097.95,4089.74,4091.79,4101.54,4124.62,4109.74,4117.44,4121.54,4126.15,4108.72,0
12_22_51,59,4111.28,4098.46,4103.08,4102.05,4094.36,4083.08,4088.21,4093.33,4120.51,4108.72,4112.31,4115.9,4123.59,4106.67,0
12_22_51,60,4112.31,4106.67,4106.15,4106.67,4096.92,4087.69,4091.79,4092.31,4122.56,4113.85,4112.31,4116.92,4124.1,4105.64,0
12_22_51,61,4108.72,4100,4104.1,4105.64,4100,4090.77,4093.33,4096.92,4119.49,4111.79,4112.82,4117.95,4123.59,4104.1,0
12_22_51,62,4104.62,4090.26,4096.41,4098.97,4094.87,4084.1,4092.31,4095.38,4108.21,4105.13,4110.26,4112.31,4121.54,4104.1,0
12_22_51,63,4102.05,4090.77,4093.33,4095.9,4089.74,4080,4094.87,4092.82,4102.05,4101.54,4106.67,4107.69,4118.46,4102.56,0
12_22_51,64,4094.87,4086.67,4094.36,4092.31,4089.74,4081.54,4094.87,4092.82,4096.41,4092.31,4097.44,4098.97,4107.69,4091.28,0
12_22_51,65,4088.72,4080,4090.77,4089.23,4089.74,4082.05,4090.26,4090.26,4091.79,4085.13,4087.69,4091.28,4100,4087.18,0
12_22_51,66,4095.9,4085.64,4091.79,4092.31,4088.21,4082.05,4089.23,4088.72,4098.97,4093.33,4091.28,4090.77,4101.54,4092.82,0
12_22_51,67,4103.59,4092.82,4097.44,4095.9,4092.31,4084.62,4091.79,4090.26,4107.69,4100,4098.46,4096.41,4108.21,4095.9,0
12_22_51,68,4100,4091.79,4097.44,4093.33,4094.87,4083.59,4092.82,4091.28,4107.69,4095.38,4098.46,4103.59,4109.23,4098.97,0
12_22_51,69,4095.9,4089.23,4094.36,4091.28,4089.23,4076.41,4089.74,4088.72,4103.59,4091.28,4093.85,4101.03,4101.03,4096.41,0
12_22_51,70,4096.92,4087.69,4093.85,4090.77,4085.64,4073.33,4083.59,4080.51,4096.41,4091.28,4090.77,4097.44,4095.38,4091.28,0
12_22_51,71,4096.92,4088.72,4092.82,4090.26,4090.77,4078.97,4083.59,4077.44,4091.28,4090.77,4093.33,4105.64,4096.41,4102.05,0
12_22_51,72,4100,4092.31,4090.26,4095.9,4091.79,4079.49,4088.72,4079.49,4091.79,4093.33,4098.46,4108.21,4100,4109.74,0
12_22_51,73,4105.13,4091.79,4096.92,4101.03,4087.18,4071.79,4089.74,4079.49,4093.85,4095.38,4104.1,4105.64,4103.59,4105.64,0
12_22_51,74,4103.59,4091.28,4102.56,4096.92,4090.26,4074.87,4089.74,4084.62,4097.44,4093.33,4103.59,4110.26,4103.59,4106.67,0
12_22_51,75,4097.95,4089.74,4092.82,4089.74,4091.79,4085.64,4091.79,4089.23,4096.92,4090.26,4092.31,4104.62,4095.9,4103.59,0
12_22_51,76,4093.33,4081.54,4087.18,4086.67,4084.62,4086.67,4092.31,4085.64,4092.82,4090.77,4084.62,4089.23,4085.13,4089.74,0
12_22_51,77,4085.64,4074.87,4093.33,4080.51,4084.1,4078.97,4089.74,4082.56,4090.26,4090.77,4082.05,4089.23,4080,4086.67,0
12_22_51,78,4076.92,4076.41,4088.21,4076.41,4090.26,4078.46,4088.21,4083.08,4089.74,4086.67,4079.49,4091.28,4079.49,4089.23,0
12_22_51,79,4082.56,4080.51,4082.56,4083.08,4091.79,4087.69,4087.69,4085.13,4091.79,4086.67,4083.59,4086.67,4080,4090.77,0
12_22_51,80,4091.28,4083.08,4088.21,4090.77,4089.74,4092.82,4091.79,4090.77,4096.41,4091.28,4090.77,4094.87,4080.51,4095.9,0
12_22_51,81,4086.67,4080,4089.74,4088.72,4090.26,4089.74,4093.33,4092.82,4097.44,4092.31,4090.26,4105.13,4081.03,4096.92,0
12_22_51,82,4081.54,4077.95,4087.18,4088.72,4092.31,4085.13,4090.26,4091.79,4098.46,4092.31,4089.74,4103.59,4085.13,4097.95,0
12_22_51,83,4082.05,4077.95,4089.74,4091.28,4090.77,4081.54,4089.74,4091.79,4094.87,4092.31,4090.77,4098.97,4083.08,4100.51,0
12_22_51,84,4080.51,4075.9,4088.72,4087.18,4084.62,4075.38,4090.77,4090.26,4086.67,4089.74,4088.21,4097.95,4075.9,4091.79,0
12_22_51,85,4082.56,4080,4085.64,4086.67,4086.15,4077.95,4090.77,4092.82,4090.77,4095.38,4089.74,4102.56,4080.51,4089.74,0
12_22_51,86,4087.18,4089.74,4082.56,4089.23,4093.85,4088.72,4091.79,4095.9,4098.46,4105.64,4094.87,4101.54,4090.26,4102.05,0
12_22_51,87,4085.13,4088.72,4075.38,4085.64,4091.79,4090.77,4092.82,4090.26,4092.31,4103.59,4090.77,4090.26,4088.72,4098.97,0
12_22_51,88,4086.15,4087.69,4078.97,4087.69,4092.31,4090.26,4093.85,4090.77,4096.92,4102.56,4090.26,4093.85,4088.72,4091.28,0
12_22_51,89,4094.87,4100.51,4090.26,4093.33,4103.08,4094.87,4094.87,4095.38,4107.18,4110.77,4098.97,4109.74,4093.85,4101.54,0
12_22_51,90,4097.44,4108.21,4090.77,4092.31,4103.08,4096.41,4093.85,4091.28,4100,4108.72,4102.56,4105.13,4092.31,4104.1,0
12_22_51,91,4096.41,4103.08,4091.28,4093.85,4096.41,4092.31,4091.79,4091.79,4093.85,4101.03,4096.92,4094.87,4091.79,4097.44,0
12_22_51,92,4096.41,4096.92,4092.82,4095.9,4094.36,4087.18,4090.77,4093.85,4094.36,4096.41,4091.79,4097.95,4089.74,4096.41,0
12_22_51,93,4092.31,4095.38,4089.74,4089.74,4095.9,4084.1,4090.26,4084.1,4085.64,4091.79,4091.28,4094.87,4078.46,4095.38,0
12_22_51,94,4092.31,4096.41,4090.26,4089.74,4098.97,4086.15,4090.77,4081.54,4084.1,4091.79,4092.31,4091.28,4075.38,4092.31,0
12_22_51,95,4094.87,4092.82,4088.21,4093.33,4097.44,4088.21,4091.28,4086.67,4092.82,4094.36,4092.82,4093.85,4078.97,4092.31,0
12_22_51,96,4087.69,4088.21,4079.49,4088.72,4091.79,4082.05,4089.74,4082.05,4085.13,4090.26,4087.69,4090.77,4074.36,4091.79,0
12_22_51,97,4082.56,4088.21,4077.44,4089.23,4091.28,4079.49,4089.23,4077.44,4072.31,4087.18,4083.59,4088.72,4071.79,4086.67,0
12_22_51,98,4088.21,4091.28,4085.13,4093.85,4093.33,4082.56,4089.23,4078.97,4081.03,4091.79,4087.18,4092.82,4076.92,4088.21,0
12_22_51,99,4093.85,4092.82,4088.21,4093.33,4093.85,4080.51,4090.26,4083.08,4092.31,4094.87,4091.79,4096.92,4080,4095.38,0
12_22_51,100,4092.31,4092.31,4086.15,4089.74,4092.82,4076.92,4091.28,4088.72,4089.23,4098.97,4096.41,4101.03,4083.59,4097.44,0
12_22_51,101,4091.28,4090.77,4088.21,4088.21,4091.79,4081.54,4090.77,4093.33,4092.82,4107.18,4101.54,4106.15,4091.79,4097.44,0
12_22_51,102,4096.92,4097.44,4091.28,4095.38,4100,4090.26,4093.85,4098.97,4105.64,4110.26,4103.59,4105.64,4095.38,4102.56,0
12_22_51,103,4102.05,4110.26,4090.77,4104.62,4108.72,4092.31,4095.38,4102.05,4108.72,4110.77,4107.69,4107.69,4095.9,4110.26,0
12_22_51,104,4101.03,4106.67,4092.31,4102.05,4101.54,4086.15,4090.26,4093.85,4097.95,4108.72,4107.18,4109.74,4093.85,4107.69,0
12_22_51,105,4093.85,4092.31,4092.31,4092.31,4091.28,4078.97,4087.18,4080.51,4080.51,4098.97,4095.9,4107.18,4087.18,4099.49,0
12_22_51,106,4089.23,4091.79,4090.77,4089.23,4089.74,4076.92,4089.23,4077.44,4074.36,4093.85,4093.33,4105.13,4085.13,4094.36,0
12_22_51,107,4098.46,4100,4095.38,4093.85,4093.33,4083.59,4091.79,4084.62,4086.15,4101.03,4103.08,4108.72,4090.77,4095.38,0
12_22_51,108,4108.21,4101.03,4102.56,4099.49,4097.95,4092.31,4097.44,4096.92,4095.38,4106.15,4104.1,4112.82,4093.85,4098.97,0
12_22_51,109,4098.97,4094.87,4100.51,4094.87,4096.41,4090.77,4100,4102.05,4091.28,4105.64,4101.54,4111.79,4090.26,4095.9,0
12_22_51,110,4093.33,4095.38,4096.41,4089.74,4093.33,4088.21,4096.92,4100,4091.79,4108.21,4107.18,4109.74,4089.23,4094.36,0
12_22_51,111,4103.59,4101.03,4096.92,4097.44,4102.05,4094.87,4097.44,4105.64,4097.95,4110.77,4106.67,4110.77,4092.82,4097.44,0
12_22_51,112,4098.97,4097.95,4094.87,4100,4107.18,4096.41,4098.46,4105.13,4095.9,4105.64,4096.41,4107.18,4087.69,4090.77,0
12_22_51,113,4083.08,4088.72,4090.26,4088.72,4096.41,4090.26,4093.33,4092.31,4088.21,4093.85,4087.69,4096.41,4073.85,4077.44,0
12_22_51,114,4088.21,4087.69,4090.77,4088.72,4096.92,4092.31,4092.31,4089.23,4089.74,4092.31,4089.74,4096.92,4073.33,4078.97,0
12_22_51,115,4103.59,4095.9,4095.9,4095.9,4106.15,4092.31,4094.36,4096.41,4100,4104.62,4101.54,4108.21,4087.69,4096.41,0
12_22_51,116,4107.18,4101.54,4096.92,4093.85,4100,4084.1,4091.79,4092.82,4098.46,4108.72,4110.77,4115.9,4095.38,4106.15,0
12_22_51,117,4108.21,4106.15,4095.9,4096.92,4094.87,4084.1,4089.23,4086.15,4087.18,4104.1,4111.28,4120,4098.46,4107.69,0
12_22_51,118,4112.31,4111.28,4097.44,4103.08,4105.64,4093.33,4090.77,4091.28,4089.74,4105.64,4108.21,4123.08,4101.54,4107.18,0
12_22_51,119,4109.74,4105.64,4095.9,4095.9,4108.72,4093.85,4094.36,4093.85,4094.87,4106.15,4105.13,4122.05,4095.9,4100.51,0
12_22_51,120,4106.15,4099.49,4097.95,4090.26,4097.95,4090.77,4096.41,4092.31,4090.77,4105.64,4106.15,4120.51,4092.82,4098.46,0
12_22_51,121,4108.72,4103.59,4106.67,4100.51,4094.36,4090.77,4095.38,4093.85,4096.41,4108.72,4109.23,4124.1,4099.49,4105.13,0
12_22_51,122,4111.28,4107.69,4105.13,4105.64,4104.1,4092.82,4096.92,4096.92,4109.23,4109.74,4107.69,4124.1,4103.59,4110.26,0
12_22_51,123,4108.72,4099.49,4094.36,4096.41,4109.23,4095.38,4097.44,4097.95,4108.21,4107.18,4101.54,4115.38,4096.92,4103.08,0
12_22_51,124,4103.08,4090.77,4091.28,4091.28,4100,4093.33,4093.33,4098.97,4103.59,4106.67,4096.41,4107.69,4089.23,4097.95,0
12_22_51,125,4100.51,4093.85,4092.82,4091.79,4096.92,4089.74,4094.36,4105.13,4108.72,4107.69,4095.38,4107.69,4087.69,4101.54,0
12_22_51,126,4102.56,4098.46,4091.79,4091.79,4103.08,4091.79,4096.41,4105.13,4109.23,4108.21,4095.9,4108.21,4088.72,4101.03,0
12_22_51,127,4100.51,4096.41,4091.79,4090.77,4100.51,4091.79,4092.82,4095.38,4097.44,4103.08,4094.36,4105.64,4083.08,4097.95,0
12_22_51,128,4092.82,4091.28,4091.79,4090.77,4095.38,4088.72,4092.31,4088.21,4085.64,4094.87,4091.28,4105.13,4078.46,4100.51,0
12_22_51,0,4090.26,4090.26,4091.79,4091.28,4095.9,4089.74,4097.44,4089.74,4082.05,4089.23,4090.77,4104.62,4080,4106.67,0
12_22_51,1,4093.33,4091.28,4093.33,4090.77,4094.87,4093.33,4094.87,4093.33,4087.18,4089.23,4090.77,4105.64,4081.03,4107.69,0
12_22_51,2,4096.41,4091.79,4091.79,4090.26,4095.9,4092.31,4089.74,4091.79,4090.77,4094.36,4091.28,4105.64,4080,4106.15,0
12_22_51,3,4101.03,4098.46,4090.26,4092.31,4104.1,4093.33,4095.38,4089.74,4090.77,4102.05,4097.44,4105.64,4089.74,4107.18,0
12_22_51,4,4106.15,4108.21,4096.41,4098.46,4109.74,4102.05,4103.59,4095.9,4097.95,4107.18,4109.23,4117.44,4106.15,4108.72,0
12_22_51,5,4109.23,4107.69,4098.97,4099.49,4108.72,4104.1,4101.03,4105.13,4109.23,4110.26,4114.87,4124.1,4109.74,4108.72,0
12_22_51,6,4104.1,4097.95,4091.79,4093.85,4103.59,4093.85,4092.31,4102.05,4112.31,4110.26,4106.15,4112.31,4102.05,4102.56,0
12_22_51,7,4093.33,4085.64,4087.18,4088.21,4094.36,4084.1,4087.69,4088.21,4104.1,4097.95,4093.33,4102.56,4091.28,4093.85,0
12_22_51,8,4092.31,4083.08,4090.26,4088.21,4092.82,4082.56,4088.72,4086.15,4102.56,4090.77,4091.28,4106.15,4089.74,4091.28,0
12_22_51,9,4100,4091.79,4092.31,4091.79,4103.08,4086.67,4093.85,4097.44,4114.87,4101.03,4096.41,4110.26,4098.97,4095.9,0
12_22_51,10,4100,4094.36,4091.28,4092.31,4109.23,4091.28,4098.46,4104.1,4126.15,4106.15,4095.9,4112.82,4108.72,4101.03,0
12_22_51,11,4093.85,4089.74,4090.77,4089.74,4100,4091.28,4096.41,4097.95,4119.49,4096.92,4091.28,4113.33,4107.18,4098.46,0
12_22_51,12,4092.82,4087.18,4091.28,4089.23,4090.26,4087.69,4093.85,4087.69,4107.69,4086.67,4089.23,4106.15,4100,4091.79,0
12_22_51,13,4092.82,4088.72,4091.28,4089.74,4094.36,4088.72,4095.9,4084.62,4110.26,4083.08,4087.69,4101.54,4100.51,4091.79,0
12_22_51,14,4089.74,4092.31,4089.74,4092.82,4107.18,4093.85,4099.49,4087.69,4121.03,4093.33,4090.26,4104.62,4106.67,4096.41,0
12_22_51,15,4093.33,4093.33,4089.74,4097.95,4110.26,4095.9,4101.03,4097.44,4132.31,4108.21,4096.41,4107.69,4108.21,4095.9,0
12_22_51,16,4103.08,4090.77,4091.28,4097.44,4102.56,4092.31,4099.49,4107.18,4142.05,4110.26,4096.92,4105.64,4106.15,4094.87,0
12_22_51,17,4106.67,4090.77,4092.82,4092.31,4099.49,4092.31,4097.95,4109.74,4148.72,4111.28,4098.46,4107.18,4107.18,4101.54,0
12_22_51,18,4105.13,4093.33,4091.79,4095.38,4105.64,4102.56,4103.08,4111.79,4153.33,4121.03,4106.15,4116.41,4112.31,4107.69,0
12_22_51,19,4105.64,4092.82,4090.77,4105.64,4109.23,4109.23,4107.18,4112.31,4154.36,4121.03,4108.72,4117.95,4112.82,4103.59,0
12_22_51,20,4105.64,4094.87,4095.38,4107.18,4106.67,4107.18,4104.62,4109.74,4148.21,4113.33,4106.67,4117.95,4110.77,4103.59,0
12_22_51,21,4096.92,4094.36,4097.44,4098.46,4101.54,4105.64,4105.13,4106.67,4140.51,4108.21,4104.62,4122.05,4108.21,4107.18,0
12_22_51,22,4088.21,4087.69,4091.28,4091.79,4096.92,4102.56,4107.69,4106.67,4135.9,4106.67,4098.97,4117.95,4103.08,4102.56,0
12_22_51,23,4088.72,4085.13,4087.69,4092.31,4093.85,4099.49,4105.64,4108.72,4132.31,4105.64,4092.82,4111.28,4094.87,4094.36,0
12_22_52,24,4091.28,4084.62,4091.28,4091.79,4097.44,4097.95,4100,4104.1,4131.28,4104.62,4093.85,4111.79,4095.38,4094.36,0
12_22_52,25,4091.79,4082.05,4092.31,4091.28,4098.97,4095.38,4096.41,4094.87,4131.28,4106.15,4094.87,4110.26,4103.08,4097.44,0
12_22_52,26,4093.85,4084.62,4091.79,4094.36,4094.87,4092.31,4097.95,4095.9,4131.28,4107.18,4093.33,4106.15,4106.15,4093.33,0
12_22_52,27,4097.44,4090.77,4093.85,4098.46,4095.9,4094.87,4102.56,4106.67,4134.36,4107.69,4095.38,4111.79,4104.1,4094.87,0
12_22_52,28,4102.56,4093.85,4098.46,4102.56,4102.05,4100,4106.67,4109.23,4138.46,4110.77,4101.54,4116.41,4106.67,4103.59,0
12_22_52,29,4106.15,4093.85,4098.97,4103.59,4106.67,4104.62,4104.1,4105.13,4136.92,4110.77,4100.51,4110.26,4109.23,4101.54,0
12_22_52,30,4105.64,4094.87,4098.46,4104.1,4106.67,4106.67,4100,4105.64,4132.31,4106.67,4094.87,4106.67,4107.69,4094.87,0
12_22_52,31,4107.18,4095.38,4101.03,4104.1,4103.59,4101.03,4098.46,4102.56,4128.21,4106.15,4093.85,4113.33,4105.64,4100,0
12_22_52,32,4107.69,4092.31,4102.05,4098.46,4096.92,4092.31,4095.38,4091.79,4118.46,4101.03,4093.33,4112.82,4100.51,4102.56,0
12_22_52,33,4103.08,4089.23,4102.05,4091.28,4091.28,4089.23,4094.36,4087.18,4110.77,4089.74,4088.21,4106.15,4094.87,4097.95,0
12_22_52,34,4102.56,4089.74,4105.64,4093.85,4095.38,4095.38,4101.54,4093.85,4113.85,4089.74,4087.18,4110.77,4095.38,4102.56,0
12_22_52,35,4105.13,4093.33,4108.72,4098.46,4101.54,4101.54,4106.67,4100,4118.97,4096.41,4091.79,4118.46,4096.92,4104.62,0
12_22_52,36,4101.54,4092.31,4106.15,4093.85,4097.44,4097.95,4098.97,4095.9,4113.85,4095.38,4091.79,4113.33,4092.31,4099.49,0
12_22_52,37,4095.38,4090.26,4103.59,4089.74,4091.79,4092.82,4093.33,4092.31,4109.74,4093.85,4090.77,4108.21,4090.26,4100,0
12_22_52,38,4095.38,4090.26,4106.67,4094.36,4098.46,4095.38,4095.9,4100.51,4113.85,4096.92,4092.82,4111.79,4093.85,4104.62,0
12_22_52,39,4097.44,4089.23,4105.13,4096.92,4102.56,4095.9,4093.33,4104.1,4110.26,4097.95,4091.28,4112.82,4090.77,4101.03,0
12_22_52,40,4097.44,4089.74,4101.54,4095.38,4098.97,4090.77,4089.74,4098.97,4107.69,4103.08,4090.77,4110.26,4089.23,4097.44,0
12_22_52,41,4096.92,4091.79,4101.54,4094.87,4096.92,4089.74,4091.28,4096.92,4111.28,4105.13,4094.87,4113.85,4093.85,4102.05,0
12_22_52,42,4097.44,4091.28,4103.08,4094.87,4096.92,4090.26,4090.77,4092.82,4105.64,4094.36,4094.87,4120,4092.82,4106.15,0
12_22_52,43,4094.87,4089.74,4104.1,4092.31,4100,4089.74,4095.38,4088.72,4098.97,4090.26,4091.28,4121.03,4092.82,4106.67,0
12_22_52,44,4091.28,4092.31,4105.13,4092.31,4104.62,4090.77,4106.15,4097.44,4107.69,4100,4094.36,4121.54,4098.46,4105.13,0
12_22_52,45,4090.77,4093.33,4102.05,4095.9,4105.13,4093.33,4104.62,4108.72,4118.97,4103.08,4094.87,4121.03,4097.44,4102.56,0
12_22_52,46,4094.87,4095.9,4099.49,4100.51,4105.13,4097.44,4097.95,4108.21,4120,4103.08,4093.85,4119.49,4096.92,4100.51,0
12_22_52,47,4098.97,4100.51,4106.67,4101.54,4106.67,4098.46,4103.59,4105.13,4118.46,4107.18,4098.97,4122.56,4101.54,4097.44,0
12_22_52,48,4100,4098.97,4104.1,4098.46,4105.64,4097.44,4107.18,4104.62,4118.46,4106.67,4101.03,4124.1,4101.03,4092.31,0
12_22_52,49,4097.95,4097.44,4093.85,4101.03,4105.13,4099.49,4100.51,4105.64,4122.56,4107.18,4100,4120,4100.51,4093.33,0
12_22_52,50,4095.9,4101.03,4098.97,4104.62,4108.72,4106.15,4098.46,4110.77,4128.72,4111.79,4101.54,4120,4104.1,4100.51,0
12_22_52,51,4098.97,4104.1,4105.13,4099.49,4106.67,4106.67,4098.97,4109.23,4123.08,4107.69,4100,4121.03,4102.56,4097.95,0
12_22_52,52,4104.1,4101.54,4101.54,4094.36,4102.56,4098.97,4094.87,4102.05,4114.36,4106.15,4098.97,4118.97,4100,4090.77,0
12_22_52,53,4102.56,4096.92,4104.1,4098.46,4100.51,4096.41,4095.38,4095.9,4109.23,4107.18,4100,4120.51,4097.95,4092.31,0
12_22_52,54,4094.87,4091.79,4102.05,4099.49,4097.44,4095.38,4101.54,4090.77,4105.13,4097.44,4091.79,4116.92,4086.15,4089.23,0
12_22_52,55,4089.74,4084.62,4092.31,4088.72,4090.77,4092.82,4105.64,4095.38,4105.13,4089.23,4084.62,4108.72,4080.51,4077.95,0
12_22_52,56,4090.26,4084.1,4093.33,4085.13,4089.23,4097.44,4106.15,4106.67,4111.28,4093.33,4089.23,4108.21,4085.13,4075.38,0
12_22_52,57,4090.77,4088.72,4097.95,4090.77,4097.95,4101.54,4106.67,4108.21,4111.28,4097.44,4091.79,4110.77,4085.64,4078.97,0
12_22_52,58,4093.33,4092.82,4098.97,4093.33,4103.08,4098.97,4107.18,4104.62,4106.67,4096.92,4090.26,4116.92,4087.69,4081.54,0
12_22_52,59,4096.41,4093.85,4104.1,4092.31,4099.49,4096.41,4107.69,4109.23,4113.33,4102.05,4092.82,4124.62,4091.28,4087.18,0
12_22_52,60,4100.51,4091.28,4106.15,4090.26,4094.87,4094.87,4104.62,4111.79,4120.51,4106.15,4097.44,4121.54,4088.72,4088.72,0
12_22_52,61,4106.67,4097.95,4106.15,4097.44,4099.49,4095.9,4105.13,4108.72,4121.54,4106.67,4102.56,4125.13,4095.9,4092.31,0
12_22_52,62,4111.28,4109.23,4110.77,4106.67,4107.69,4101.54,4105.64,4106.67,4122.05,4109.74,4109.23,4139.49,4110.77,4105.13,0
12_22_52,63,4108.21,4105.13,4110.77,4102.05,4102.56,4097.44,4099.49,4103.08,4116.41,4110.26,4108.21,4134.36,4104.1,4105.13,0
12_22_52,64,4102.56,4095.38,4105.13,4092.82,4094.36,4087.18,4097.95,4097.44,4107.18,4105.13,4102.05,4122.56,4094.87,4092.82,0
12_22_52,65,4105.13,4103.08,4105.13,4095.9,4100.51,4092.82,4104.62,4093.33,4105.13,4102.56,4107.18,4127.69,4105.13,4093.85,0
12_22_52,66,4103.08,4103.08,4103.59,4096.41,4102.05,4095.9,4108.21,4096.41,4108.21,4102.05,4107.18,4128.21,4105.64,4098.46,0
12_22_52,67,4092.31,4089.74,4093.33,4089.74,4089.74,4083.08,4100,4101.54,4107.69,4098.46,4094.36,4118.46,4091.28,4089.74,0
12_22_52,68,4093.33,4093.85,4092.31,4093.33,4091.28,4077.95,4095.38,4103.08,4105.64,4099.49,4092.82,4116.92,4087.69,4086.15,0
12_22_52,69,4105.13,4104.62,4103.08,4099.49,4101.03,4084.62,4102.56,4103.59,4107.18,4107.18,4102.56,4123.08,4093.85,4093.33,0
12_22_52,70,4108.72,4104.1,4106.67,4098.97,4098.97,4082.56,4106.15,4103.08,4110.77,4106.67,4101.54,4125.64,4094.36,4095.9,0
12_22_52,71,4102.05,4098.46,4100.51,4098.46,4093.85,4074.87,4097.44,4096.41,4106.15,4095.9,4092.82,4116.92,4088.21,4089.23,0
12_22_52,72,4101.54,4093.33,4102.05,4094.36,4092.82,4075.9,4089.23,4090.77,4096.92,4089.23,4088.21,4110.77,4081.03,4085.64,0
12_22_52,73,4106.67,4094.87,4109.23,4090.77,4094.87,4081.54,4094.36,4093.85,4097.95,4088.72,4088.21,4120,4081.54,4090.77,0
12_22_52,74,4107.18,4095.38,4109.23,4090.77,4094.36,4078.97,4095.9,4087.69,4091.28,4081.03,4086.15,4124.1,4082.05,4092.31,0
12_22_52,75,4103.59,4091.28,4106.67,4091.79,4092.31,4075.9,4091.28,4072.82,4071.79,4070.26,4080.51,4117.44,4075.38,4087.18,0
12_22_52,76,4106.67,4094.36,4107.18,4091.79,4093.33,4084.62,4094.87,4076.41,4073.85,4073.85,4084.1,4119.49,4073.33,4089.23,0
12_22_52,77,4106.15,4098.46,4105.64,4092.31,4094.87,4088.72,4097.95,4089.23,4089.23,4085.13,4092.82,4125.13,4077.95,4093.85,0
12_22_52,78,4100,4092.82,4104.1,4090.26,4093.85,4081.54,4093.33,4091.28,4091.28,4088.72,4093.33,4124.1,4078.46,4090.77,0
12_22_52,79,4102.05,4091.79,4106.15,4090.26,4093.33,4082.56,4095.38,4095.38,4091.79,4089.74,4092.31,4126.15,4076.41,4093.85,0
12_22_52,80,4103.59,4095.38,4104.1,4093.85,4095.38,4091.79,4103.59,4107.69,4098.97,4095.38,4096.41,4128.21,4077.44,4101.54,0
12_22_52,81,4094.87,4091.28,4100.51,4091.28,4094.87,4090.26,4100,4109.23,4102.56,4101.54,4097.95,4123.08,4077.44,4097.44,0
12_22_52,82,4090.77,4088.21,4099.49,4086.15,4092.82,4081.54,4093.33,4106.15,4105.13,4103.08,4095.38,4118.97,4076.92,4091.79,0
12_22_52,83,4093.33,4088.72,4099.49,4087.18,4092.82,4076.92,4094.36,4106.15,4102.05,4099.49,4094.36,4118.97,4076.41,4095.38,0
12_22_52,84,4092.31,4086.67,4101.54,4090.26,4091.28,4075.9,4092.82,4095.9,4091.28,4092.82,4093.85,4119.49,4075.9,4096.41,0
12_22_52,85,4092.82,4087.18,4105.64,4089.23,4089.23,4074.36,4091.28,4085.64,4080,4088.21,4090.77,4120,4073.85,4092.82,0
12_22_52,86,4095.38,4087.69,4105.13,4088.72,4091.28,4070.77,4092.82,4089.74,4078.97,4088.72,4090.77,4122.05,4072.82,4094.87,0
12_22_52,87,4093.85,4085.64,4104.1,4091.79,4092.31,4070.77,4092.31,4094.36,4085.13,4090.26,4092.31,4122.05,4071.28,4095.9,0
12_22_52,88,4092.31,4086.15,4107.18,4092.31,4089.23,4074.36,4092.31,4093.85,4085.13,4090.26,4089.74,4121.03,4069.74,4093.85,0
12_22_52,89,4095.9,4088.72,4107.18,4088.72,4087.69,4070.77,4091.79,4091.28,4080,4087.69,4089.74,4120.51,4069.23,4093.33,0
12_22_52,90,4100.51,4090.26,4105.13,4090.26,4090.77,4063.59,4090.26,4089.23,4085.13,4089.23,4096.92,4121.54,4073.33,4095.38,0
12_22_52,91,4099.49,4091.28,4106.15,4094.36,4091.79,4065.13,4092.82,4095.38,4094.36,4098.46,4103.08,4124.62,4083.59,4098.97,0
12_22_52,92,4095.38,4091.79,4105.64,4089.23,4089.74,4069.74,4094.36,4104.1,4091.79,4102.56,4101.03,4123.08,4089.23,4099.49,0
12_22_52,93,4092.82,4090.26,4102.56,4085.13,4091.79,4069.23,4092.31,4107.69,4091.79,4102.05,4101.03,4120,4089.23,4096.41,0
12_22_52,94,4093.85,4093.33,4100,4087.69,4096.41,4067.18,4090.77,4104.62,4098.46,4106.15,4107.69,4123.59,4091.28,4096.92,0
12_22_52,95,4095.38,4095.9,4097.95,4088.72,4095.38,4066.15,4092.31,4095.9,4094.36,4108.72,4109.23,4124.1,4090.77,4096.92,0
12_22_52,96,4090.77,4091.28,4096.92,4083.59,4090.26,4069.23,4092.82,4088.72,4087.69,4100,4097.95,4111.79,4082.05,4092.82,0
12_22_52,97,4089.23,4088.21,4096.92,4083.59,4090.26,4074.36,4091.79,4095.9,4089.23,4096.41,4090.26,4106.15,4080.51,4091.28,0
12_22_52,98,4100.51,4090.77,4100,4089.23,4092.31,4076.41,4091.79,4106.15,4091.79,4101.54,4093.85,4117.44,4085.64,4096.41,0
12_22_52,99,4110.77,4091.79,4101.03,4090.77,4092.31,4073.85,4092.82,4101.03,4089.23,4100,4095.38,4123.59,4081.03,4096.92,0
12_22_52,100,4109.23,4091.28,4100.51,4089.23,4091.79,4073.33,4092.31,4092.82,4091.28,4093.85,4092.82,4119.49,4075.38,4095.9,0
12_22_52,101,4105.64,4093.85,4098.46,4090.26,4095.38,4075.9,4091.28,4092.82,4094.87,4093.33,4091.79,4120,4077.95,4098.46,0
12_22_52,102,4107.69,4098.97,4098.97,4094.36,4102.56,4077.44,4091.79,4092.82,4091.28,4097.44,4096.41,4125.13,4083.59,4104.1,0
12_22_52,103,4108.72,4103.59,4098.97,4092.82,4106.67,4076.92,4091.79,4090.26,4089.74,4103.59,4104.62,4124.62,4090.26,4108.72,0
12_22_52,104,4110.26,4104.1,4097.95,4091.79,4102.56,4073.33,4089.74,4089.74,4094.36,4108.21,4106.15,4126.15,4093.85,4108.72,0
12_22_52,105,4112.82,4105.13,4101.03,4093.85,4098.46,4073.85,4088.21,4092.82,4094.87,4108.72,4105.13,4128.72,4091.79,4106.67,0
12_22_52,106,4110.26,4107.18,4099.49,4093.85,4100,4079.49,4091.28,4094.87,4091.79,4106.67,4105.13,4125.13,4091.79,4106.15,0
12_22_52,107,4106.67,4104.62,4092.82,4092.31,4100.51,4078.97,4093.85,4093.85,4091.28,4106.15,4105.64,4120.51,4090.26,4105.64,0
12_22_52,108,4105.64,4100,4090.77,4088.72,4097.44,4073.33,4091.28,4094.36,4093.33,4106.67,4101.03,4120,4086.15,4101.03,0
12_22_52,109,4103.08,4097.44,4091.79,4088.72,4096.92,4072.31,4090.77,4098.97,4093.33,4105.13,4095.38,4121.54,4087.69,4097.95,0
12_22_52,110,4101.54,4098.46,4090.26,4092.31,4099.49,4074.87,4093.85,4096.92,4091.79,4102.56,4097.44,4120,4091.79,4101.54,0
12_22_52,111,4105.13,4099.49,4090.77,4093.85,4096.92,4076.41,4093.33,4089.74,4091.28,4106.15,4101.03,4121.03,4092.82,4105.64,0
12_22_52,112,4108.21,4100.51,4092.31,4095.38,4095.9,4076.41,4092.82,4092.82,4091.28,4109.23,4100.51,4123.08,4091.28,4106.67,0
12_22_52,113,4105.64,4103.59,4092.82,4097.95,4102.56,4074.87,4095.9,4097.95,4088.72,4105.64,4101.03,4122.56,4090.26,4105.13,0
12_22_52,114,4112.31,4107.69,4100,4101.54,4108.21,4078.46,4094.36,4094.87,4089.74,4105.64,4105.13,4126.67,4091.79,4107.69,0
12_22_52,115,4119.49,4110.26,4107.18,4100.51,4104.1,4078.97,4089.74,4088.72,4087.69,4107.69,4105.64,4130.77,4094.36,4109.74,0
12_22_52,116,4113.33,4108.21,4105.64,4095.38,4093.85,4070.77,4087.69,4087.18,4081.54,4105.13,4106.67,4132.82,4094.87,4108.72,0
12_22_52,117,4104.1,4102.56,4100,4091.28,4090.77,4069.23,4089.23,4090.26,4083.59,4102.56,4107.18,4133.33,4092.31,4108.72,0
12_22_52,118,4107.69,4102.56,4101.54,4092.31,4096.92,4078.97,4091.79,4096.92,4091.28,4105.13,4104.62,4133.33,4095.38,4108.72,0
12_22_52,119,4115.9,4110.77,4107.18,4096.41,4099.49,4082.05,4094.87,4105.64,4097.95,4113.33,4112.31,4135.38,4104.1,4111.28,0
12_22_52,120,4112.31,4103.59,4104.62,4093.85,4097.44,4080,4102.05,4110.77,4105.13,4122.05,4125.13,4139.49,4109.74,4115.38,0
12_22_52,121,4102.56,4083.59,4098.97,4087.18,4100.51,4085.64,4106.15,4108.21,4108.21,4120.51,4121.03,4135.9,4106.67,4110.77,0
12_22_52,122,4106.67,4093.33,4101.54,4092.82,4106.15,4087.18,4101.03,4102.56,4105.13,4112.31,4108.72,4127.69,4105.13,4106.15,0
12_22_52,123,4122.05,4119.49,4105.64,4104.62,4108.72,4080.51,4097.95,4100.51,4105.13,4107.18,4106.15,4125.13,4108.21,4110.26,0
12_22_52,124,4127.69,4122.56,4103.59,4103.08,4105.13,4076.92,4100,4101.03,4109.23,4105.64,4103.59,4124.62,4109.74,4110.77,0
12_22_52,125,4122.05,4111.79,4103.08,4094.87,4098.46,4079.49,4097.44,4098.46,4109.74,4102.56,4100,4123.59,4106.67,4110.26,0
12_22_52,126,4123.59,4109.74,4103.59,4093.33,4096.92,4079.49,4093.85,4093.85,4108.21,4097.44,4100,4122.05,4106.67,4118.97,0
12_22_52,127,4131.79,4111.28,4104.62,4096.92,4097.95,4077.95,4095.38,4089.74,4107.18,4095.9,4101.54,4122.05,4111.28,4124.1,0
12_22_52,128,4138.97,4116.92,4107.18,4102.05,4096.41,4076.92,4096.92,4088.21,4107.18,4097.95,4100,4127.18,4109.74,4123.59,0
12_22_52,0,4143.59,4125.64,4109.23,4106.15,4100,4076.41,4097.44,4090.77,4105.64,4093.85,4094.87,4125.64,4103.08,4124.62,0
12_22_52,1,4143.59,4124.62,4109.74,4103.59,4106.67,4077.95,4098.46,4092.31,4107.18,4090.26,4088.21,4120.51,4099.49,4122.05,0
12_22_52,2,4142.56,4120.51,4110.77,4100.51,4101.03,4076.92,4096.92,4091.28,4110.26,4091.79,4083.59,4123.08,4096.41,4120.51,0
12_22_52,3,4145.64,4120.51,4106.67,4098.46,4090.26,4074.87,4093.85,4091.79,4107.69,4088.21,4076.41,4120.51,4085.64,4121.03,0
12_22_52,4,4150.77,4126.15,4105.13,4098.97,4089.74,4074.36,4092.31,4090.77,4104.62,4082.56,4074.87,4112.82,4081.03,4120,0
12_22_52,5,4155.9,4136.41,4111.28,4106.15,4095.38,4075.9,4095.38,4090.77,4109.23,4089.23,4086.67,4121.54,4089.74,4123.08,0
12_22_52,6,4154.87,4138.46,4107.69,4105.13,4092.82,4075.38,4095.38,4089.74,4110.77,4095.38,4086.67,4126.67,4090.77,4124.1,0
12_22_52,7,4150.26,4133.33,4096.92,4097.95,4088.72,4075.38,4090.77,4083.08,4105.13,4085.13,4076.92,4111.79,4081.03,4121.54,0
12_22_52,8,4153.33,4138.46,4100.51,4103.08,4092.82,4075.38,4090.77,4081.54,4106.15,4081.54,4080.51,4107.69,4077.44,4124.1,0
12_22_52,9,4160,4146.15,4110.26,4111.28,4095.9,4073.85,4092.31,4081.54,4108.21,4087.18,4080.51,4117.95,4074.87,4125.13,0
12_22_52,10,4156.92,4141.03,4105.13,4107.18,4092.82,4074.87,4088.21,4078.46,4105.13,4087.18,4076.92,4121.03,4073.85,4123.08,0
12_22_52,11,4157.95,4135.9,4103.59,4105.13,4097.44,4075.9,4093.33,4083.59,4105.13,4088.72,4086.67,4122.05,4087.69,4132.31,0
12_22_52,12,4167.69,4147.18,4116.92,4118.46,4108.72,4076.41,4105.64,4095.38,4112.31,4095.9,4094.36,4126.15,4095.38,4142.56,0
12_22_52,13,4170.77,4156.92,4120.51,4125.64,4107.69,4075.9,4104.1,4095.38,4113.85,4095.38,4087.69,4126.15,4086.15,4135.38,0
12_22_52,14,4166.67,4150.26,4113.85,4120,4105.64,4078.97,4095.9,4089.23,4107.69,4088.21,4084.62,4124.62,4080.51,4125.64,0
12_22_52,15,4163.59,4142.56,4113.33,4119.49,4107.18,4081.54,4097.44,4091.28,4106.67,4088.21,4083.08,4121.54,4077.44,4124.1,0
12_22_52,16,4158.46,4141.03,4116.92,4120,4099.49,4074.87,4098.46,4090.26,4104.62,4084.62,4072.82,4120,4069.23,4123.08,0
12_22_52,17,4154.87,4135.9,4116.41,4110.77,4092.31,4069.23,4094.87,4081.03,4095.9,4077.44,4069.23,4122.05,4065.13,4121.03,0
12_22_52,18,4148.72,4122.05,4109.74,4104.1,4092.31,4069.23,4091.79,4071.79,4088.72,4072.82,4071.28,4114.87,4065.64,4115.9,0
12_22_52,19,4141.03,4116.41,4106.67,4106.15,4090.26,4071.28,4091.28,4076.92,4092.82,4074.87,4070.77,4108.72,4067.18,4112.82,0
12_22_52,20,4144.62,4132.31,4113.85,4109.74,4092.31,4074.36,4094.87,4090.26,4106.15,4084.62,4075.38,4118.46,4076.41,4120,0
12_22_52,21,4147.18,4142.56,4118.46,4111.79,4098.46,4075.9,4094.87,4091.79,4105.13,4086.67,4083.08,4124.62,4082.56,4123.08,0
12_22_52,22,4139.49,4128.72,4109.23,4109.74,4095.9,4072.31,4092.82,4087.18,4096.41,4080.51,4082.05,4120,4077.95,4118.97,0
12_22_53,23,4139.49,4123.59,4104.62,4105.64,4091.28,4071.79,4094.87,4090.26,4103.59,4079.49,4081.03,4120,4077.95,4121.03,0
12_22_53,24,4145.13,4133.33,4109.23,4108.72,4094.36,4077.95,4094.36,4093.85,4108.72,4086.15,4087.69,4123.08,4084.1,4124.1,0
12_22_53,25,4142.05,4133.85,4109.23,4108.72,4095.38,4078.46,4091.79,4091.28,4098.97,4089.74,4091.79,4122.56,4086.67,4120.51,0
12_22_53,26,4141.03,4126.67,4110.77,4107.18,4095.38,4074.87,4092.31,4089.23,4096.41,4090.26,4090.26,4123.59,4089.23,4123.08,0
12_22_53,27,4151.28,4130.77,4118.97,4113.33,4104.1,4079.49,4094.87,4091.79,4102.56,4092.31,4092.31,4130.77,4091.79,4127.69,0
12_22_53,28,4155.38,4136.41,4121.03,4113.85,4108.72,4087.69,4093.85,4095.9,4102.56,4093.33,4093.33,4133.85,4090.26,4126.15,0
12_22_53,29,4146.67,4130.77,4114.87,4107.69,4103.59,4086.15,4093.85,4096.41,4103.59,4093.33,4093.85,4129.23,4090.77,4124.62,0
12_22_53,30,4137.44,4122.56,4109.74,4106.67,4097.44,4080,4093.85,4091.28,4100.51,4091.79,4094.87,4124.1,4090.77,4123.08,0
12_22_53,31,4138.46,4122.56,4109.74,4107.69,4093.85,4078.46,4092.31,4088.72,4092.31,4090.77,4093.33,4123.08,4088.72,4122.05,0
12_22_53,32,4143.08,4126.67,4111.28,4107.69,4095.9,4077.95,4089.74,4089.74,4094.87,4092.31,4093.85,4128.72,4091.28,4125.64,0
12_22_53,33,4143.59,4126.15,4109.74,4108.21,4101.54,4075.38,4089.74,4089.74,4098.97,4094.87,4098.97,4134.87,4094.87,4128.21,0
12_22_53,34,4140.51,4123.08,4107.69,4106.15,4097.95,4073.85,4092.31,4091.28,4098.97,4095.38,4100.51,4131.79,4093.33,4123.59,0
12_22_53,35,4132.31,4114.36,4105.64,4103.59,4090.26,4075.9,4092.31,4093.85,4099.49,4092.82,4094.36,4122.56,4090.26,4121.03,0
12_22_53,36,4124.1,4109.74,4104.62,4104.62,4094.87,4077.44,4092.31,4091.79,4100,4095.38,4094.36,4122.05,4093.33,4119.49,0
12_22_53,37,4125.13,4113.33,4105.13,4103.59,4100,4078.46,4093.33,4092.31,4104.62,4103.59,4101.03,4128.21,4098.97,4118.46,0
12_22_53,38,4126.15,4113.33,4107.18,4104.1,4097.44,4077.44,4093.85,4095.9,4110.26,4108.21,4102.05,4127.69,4099.49,4120.51,0
12_22_53,39,4122.56,4108.72,4105.64,4104.62,4093.85,4076.92,4093.85,4092.82,4107.69,4103.59,4095.9,4123.08,4092.82,4118.97,0
12_22_53,40,4121.03,4107.18,4105.64,4100.51,4095.9,4076.92,4092.31,4094.87,4102.56,4103.08,4091.79,4118.46,4090.26,4110.26,0
12_22_53,41,4122.56,4109.23,4108.72,4101.54,4102.05,4080.51,4094.36,4105.13,4106.67,4109.23,4093.85,4120,4094.36,4109.23,0
12_22_53,42,4123.59,4110.77,4109.74,4105.13,4102.05,4083.08,4098.46,4102.56,4104.1,4107.69,4094.87,4123.08,4095.38,4118.97,0
12_22_53,43,4121.03,4105.13,4107.18,4098.97,4093.33,4077.44,4093.33,4087.69,4090.26,4097.95,4091.28,4119.49,4090.26,4118.97,0
12_22_53,44,4118.46,4102.05,4106.67,4092.82,4090.77,4075.38,4087.69,4088.21,4089.23,4098.46,4088.72,4116.41,4088.72,4110.26,0
12_22_53,45,4123.08,4105.64,4110.77,4097.44,4097.44,4078.97,4095.38,4100,4101.54,4104.62,4090.26,4121.54,4088.72,4110.26,0
12_22_53,46,4123.08,4100.51,4109.23,4096.92,4096.92,4083.08,4102.56,4101.54,4104.62,4099.49,4092.31,4126.15,4080.51,4113.33,0
12_22_53,47,4109.23,4088.21,4105.13,4088.21,4092.31,4084.1,4098.97,4098.97,4099.49,4094.87,4090.26,4117.44,4075.38,4108.72,0
12_22_53,48,4101.03,4086.67,4102.56,4089.23,4092.82,4084.62,4098.46,4098.97,4100,4099.49,4084.62,4109.23,4078.46,4101.03,0
12_22_53,49,4096.92,4085.64,4097.44,4090.77,4092.31,4084.1,4100,4093.33,4091.28,4089.23,4073.85,4105.64,4067.69,4093.33,0
12_22_53,50,4089.74,4080,4091.28,4084.62,4089.74,4080.51,4094.36,4088.72,4078.97,4074.36,4070.77,4097.44,4054.87,4088.21,0
12_22_53,51,4088.21,4076.92,4091.79,4084.1,4089.23,4077.44,4090.77,4089.23,4082.56,4080.51,4076.41,4095.9,4063.08,4089.74,0
12_22_53,52,4089.74,4074.87,4091.79,4089.74,4089.23,4076.41,4090.26,4083.08,4085.13,4088.72,4076.41,4102.05,4071.28,4090.77,0
12_22_53,53,4093.85,4080.51,4089.23,4089.23,4088.21,4075.9,4081.03,4072.31,4077.95,4085.13,4078.46,4106.15,4067.69,4094.36,0
12_22_53,54,4104.62,4091.28,4096.92,4089.23,4094.36,4078.97,4077.44,4072.31,4078.97,4090.26,4090.26,4114.36,4074.87,4105.13,0
12_22_53,55,4110.26,4093.85,4103.08,4094.36,4099.49,4087.18,4089.23,4080,4090.26,4103.59,4096.41,4123.59,4087.69,4110.77,0
12_22_53,56,4104.1,4092.82,4096.92,4096.41,4094.87,4091.79,4093.33,4088.21,4090.26,4102.05,4091.79,4117.44,4086.67,4105.64,0
