TIME, ED_COUNTER, AF3, F7, F3, FC5, T7, P7, O1, O2, P8, T8, FC6, F4, F8, AF4, LABEL
12_32_13,127,4091.79,4073.33,4109.74,4066.67,4083.59,4104.62,4093.33,4087.18,4108.21,4090.26,4087.69,4110.77,4086.15,4082.56,0
12_32_13,128,4084.62,4071.28,4105.64,4064.1,4095.38,4120.51,4091.28,4085.13,4113.33,4096.92,4086.15,4109.23,4084.1,4075.9,0
12_32_13,0,4077.95,4066.67,4100,4060,4110.26,4124.62,4092.31,4083.59,4119.49,4087.18,4088.72,4103.59,4076.92,4072.31,0
12_32_13,1,4083.08,4065.64,4102.05,4074.36,4093.33,4110.77,4093.33,4089.74,4113.85,4090.77,4093.33,4105.64,4087.69,4076.41,0
12_32_13,2,4083.08,4064.1,4103.08,4078.97,4075.38,4104.62,4088.72,4088.72,4102.56,4087.69,4078.46,4104.62,4091.79,4075.9,0
12_32_13,3,4077.44,4070.77,4098.97,4061.03,4109.23,4110.77,4089.23,4082.05,4105.64,4078.46,4074.87,4105.13,4078.97,4075.38,0
12_32_13,4,4080,4081.03,4100,4059.49,4140,4120,4093.33,4085.64,4111.79,4083.08,4092.31,4110.77,4083.59,4080.51,0
12_32_13,5,4074.87,4072.31,4102.56,4065.13,4112.82,4127.69,4085.64,4084.62,4102.56,4086.15,4081.03,4104.1,4083.08,4074.87,0
12_32_13,6,4060,4054.87,4101.03,4053.33,4091.28,4118.97,4080.51,4080,4093.85,4082.05,4054.87,4091.28,4057.95,4062.56,0
12_32_13,7,4073.85,4067.69,4105.13,4058.97,4103.08,4106.67,4090.26,4089.23,4104.1,4083.08,4074.36,4103.59,4073.33,4073.85,0
12_32_13,8,4100.51,4085.64,4110.26,4078.46,4111.79,4115.38,4096.41,4096.41,4114.87,4087.18,4100.51,4122.05,4109.23,4099.49,0
12_32_13,9,4103.59,4080.51,4112.82,4078.97,4106.15,4122.05,4092.31,4090.26,4104.62,4089.74,4091.28,4119.49,4096.92,4107.18,0
12_32_14,10,4103.59,4082.05,4117.44,4075.38,4093.33,4112.82,4090.26,4085.64,4091.79,4093.85,4084.62,4116.92,4085.13,4106.15,0
12_32_14,11,4110.26,4093.85,4118.97,4077.95,4093.33,4110.26,4085.13,4081.54,4093.85,4087.69,4092.82,4124.1,4101.54,4107.69,0
12_32_14,12,4108.21,4090.77,4115.38,4074.87,4100.51,4113.33,4079.49,4080,4101.54,4081.54,4092.31,4124.1,4096.41,4100.51,0
12_32_14,13,4107.18,4081.54,4112.82,4074.87,4109.74,4114.36,4087.18,4090.77,4109.74,4094.36,4088.72,4120,4089.23,4096.41,0
12_32_14,14,4104.62,4078.46,4108.72,4073.85,4124.62,4121.03,4092.31,4092.31,4102.05,4098.46,4083.08,4112.31,4093.85,4099.49,0
12_32_14,15,4091.28,4074.87,4098.46,4057.95,4134.87,4123.59,4081.03,4080.51,4087.18,4075.38,4071.79,4096.92,4086.15,4089.23,0
12_32_14,16,4085.64,4072.31,4096.41,4054.87,4100,4108.72,4081.03,4081.03,4096.41,4057.44,4074.87,4091.28,4080,4080.51,0
12_32_14,17,4096.92,4082.56,4107.69,4072.31,4066.15,4100,4090.26,4093.85,4112.82,4085.13,4090.26,4109.23,4093.33,4097.44,0
12_32_14,18,4111.79,4102.56,4114.36,4077.44,4103.08,4105.64,4086.15,4095.38,4112.82,4118.46,4095.9,4124.62,4106.67,4114.36,0
12_32_14,19,4116.92,4106.67,4109.74,4070.26,4126.67,4107.69,4082.05,4089.74,4102.56,4106.15,4091.79,4121.03,4114.36,4110.77,0
12_32_14,20,4114.36,4104.1,4106.15,4078.97,4106.67,4109.23,4090.77,4091.28,4097.44,4086.15,4087.69,4118.46,4114.36,4112.31,0
12_32_14,21,4115.38,4115.38,4106.15,4087.18,4102.05,4109.74,4091.79,4086.67,4091.28,4079.49,4080,4114.87,4102.56,4111.28,0
12_32_14,22,4119.49,4122.05,4107.69,4075.9,4100.51,4107.69,4088.21,4077.95,4087.18,4073.33,4080.51,4107.18,4103.08,4101.03,0
12_32_14,23,4122.05,4123.59,4111.28,4069.74,4090.26,4117.44,4093.85,4086.15,4102.05,4081.03,4099.49,4115.9,4113.33,4108.72,0
12_32_14,24,4117.95,4129.23,4106.67,4071.79,4101.54,4126.67,4089.74,4086.15,4102.05,4090.77,4098.46,4117.95,4101.54,4113.85,0
12_32_14,25,4118.46,4131.28,4106.15,4077.44,4105.64,4117.95,4086.15,4078.46,4093.33,4079.49,4089.74,4107.18,4091.28,4104.1,0
12_32_14,26,4133.85,4130.77,4119.49,4090.26,4085.64,4111.79,4101.54,4091.79,4110.77,4077.95,4108.21,4123.08,4109.23,4114.36,0
12_32_14,27,4147.18,4132.82,4131.79,4093.85,4099.49,4125.13,4108.21,4107.69,4130.77,4096.41,4120.51,4149.74,4129.74,4133.85,0
12_32_14,28,4133.33,4122.56,4122.56,4082.05,4114.87,4128.72,4093.33,4095.38,4108.72,4096.41,4097.95,4137.44,4121.03,4121.54,0
12_32_14,29,4114.87,4108.72,4105.64,4080.51,4110.77,4111.79,4084.62,4078.46,4081.54,4082.56,4083.08,4112.82,4102.56,4101.03,0
12_32_14,30,4128.21,4115.38,4108.72,4093.85,4121.03,4107.18,4091.79,4086.67,4093.33,4093.85,4101.54,4118.97,4112.82,4109.74,0
12_32_14,31,4142.56,4126.67,4116.92,4097.44,4114.87,4124.62,4094.36,4089.74,4102.56,4091.79,4112.82,4130.26,4123.08,4119.49,0
12_32_14,32,4132.31,4122.05,4113.85,4089.74,4102.05,4131.28,4091.79,4081.54,4093.85,4066.15,4107.69,4128.21,4106.67,4113.33,0
12_32_14,33,4121.54,4106.67,4111.28,4084.62,4107.18,4112.82,4091.28,4083.59,4098.46,4082.56,4103.08,4123.08,4103.59,4109.23,0
12_32_14,34,4128.21,4099.49,4116.92,4090.26,4100.51,4101.03,4092.31,4091.79,4111.79,4118.46,4106.67,4127.18,4122.56,4114.87,0
12_32_14,35,4127.18,4103.59,4114.87,4089.23,4093.85,4113.85,4094.87,4090.77,4104.62,4105.64,4112.31,4130.77,4120,4115.9,0
12_32_14,36,4110.26,4097.44,4104.1,4071.28,4108.72,4122.05,4095.9,4088.21,4092.31,4082.05,4104.1,4123.59,4100,4108.21,0
12_32_14,37,4106.15,4087.69,4106.67,4067.18,4095.9,4113.85,4094.87,4094.36,4107.69,4099.49,4095.9,4125.64,4107.69,4110.77,0
12_32_14,38,4109.74,4085.64,4108.72,4075.9,4071.79,4111.28,4091.79,4085.64,4110.77,4106.67,4092.82,4122.56,4111.28,4106.67,0
12_32_14,39,4106.67,4091.28,4097.44,4070.77,4081.03,4122.56,4088.21,4071.79,4089.23,4073.33,4090.77,4105.13,4091.79,4091.79,0
12_32_14,40,4110.77,4095.9,4093.33,4067.18,4090.77,4125.13,4090.77,4082.05,4093.33,4070.26,4094.36,4104.62,4095.38,4095.38,0
12_32_14,41,4123.08,4102.05,4104.62,4080,4104.62,4122.05,4095.9,4093.85,4110.26,4107.18,4102.56,4121.03,4117.44,4112.82,0
12_32_14,42,4122.56,4105.64,4108.21,4081.03,4112.82,4130.77,4093.33,4082.56,4097.95,4101.03,4096.41,4114.87,4111.79,4111.28,0
12_32_14,43,4118.97,4108.21,4103.59,4074.87,4088.72,4136.41,4093.33,4081.54,4093.85,4070.77,4090.26,4109.74,4103.59,4102.05,0
12_32_14,44,4120,4111.28,4103.08,4078.97,4088.21,4131.28,4096.41,4095.38,4114.87,4094.87,4098.97,4123.08,4110.77,4105.64,0
12_32_14,45,4103.59,4101.03,4094.36,4071.79,4103.08,4126.67,4086.15,4084.62,4102.56,4106.15,4085.64,4110.77,4091.79,4096.92,0
12_32_14,46,4089.74,4089.74,4087.18,4060,4087.69,4122.56,4079.49,4072.82,4087.18,4075.38,4068.21,4093.33,4083.59,4085.13,0
12_32_14,47,4101.54,4100,4095.38,4070.26,4086.15,4120,4089.23,4089.23,4112.31,4091.79,4084.1,4107.69,4112.31,4090.77,0
12_32_14,48,4110.26,4109.74,4097.95,4081.54,4108.21,4122.56,4093.85,4095.38,4122.05,4119.49,4098.46,4113.33,4106.15,4092.31,0
12_32_14,49,4104.62,4108.72,4092.82,4078.46,4110.26,4124.62,4090.77,4088.21,4101.54,4096.92,4091.28,4105.13,4087.69,4089.74,0
12_32_14,50,4101.54,4111.28,4092.82,4082.56,4099.49,4124.1,4097.44,4100.51,4103.08,4089.23,4092.31,4114.87,4107.18,4092.82,0
12_32_14,51,4095.38,4104.62,4087.18,4083.08,4091.28,4124.62,4098.97,4107.69,4112.82,4099.49,4090.77,4116.41,4105.64,4085.64,0
12_32_14,52,4088.72,4091.28,4082.56,4071.79,4093.85,4126.15,4093.85,4092.31,4105.13,4090.26,4081.03,4105.64,4087.18,4077.95,0
12_32_14,53,4095.38,4094.87,4089.23,4075.9,4092.31,4126.67,4094.87,4086.67,4102.05,4092.82,4092.31,4115.9,4109.23,4095.38,0
12_32_14,54,4102.56,4103.59,4092.82,4090.77,4079.49,4125.13,4097.44,4095.38,4103.59,4108.21,4111.79,4128.72,4131.28,4111.79,0
12_32_14,55,4106.15,4114.36,4091.28,4091.79,4105.13,4127.69,4098.46,4094.87,4103.08,4111.79,4110.77,4124.1,4120.51,4110.26,0
12_32_14,56,4106.67,4125.64,4087.69,4086.67,4125.64,4124.1,4091.28,4081.03,4096.92,4101.03,4094.36,4111.28,4110.77,4102.56,0
12_32_14,57,4094.36,4111.79,4077.44,4084.1,4075.38,4110.26,4080.51,4065.13,4074.36,4063.59,4082.56,4098.97,4101.03,4085.64,0
12_32_14,58,4084.62,4096.92,4072.31,4077.44,4066.67,4111.28,4082.56,4063.08,4065.13,4054.87,4082.56,4100,4089.23,4079.49,0
12_32_14,59,4096.41,4111.79,4079.49,4076.41,4123.08,4120,4089.23,4069.74,4080.51,4096.41,4083.08,4109.23,4095.38,4098.46,0
12_32_14,60,4108.72,4126.15,4081.54,4083.08,4121.03,4111.28,4087.69,4068.21,4084.1,4105.64,4085.64,4109.23,4107.18,4108.72,0
12_32_14,61,4102.56,4118.46,4082.05,4085.13,4082.05,4105.13,4088.21,4068.72,4077.95,4082.05,4097.95,4106.67,4108.72,4096.41,0
12_32_14,62,4092.31,4107.69,4085.13,4080,4069.23,4110.77,4089.74,4068.72,4076.92,4081.54,4101.54,4105.64,4099.49,4088.21,0
12_32_14,63,4094.87,4106.67,4088.72,4078.46,4070.26,4106.15,4086.15,4064.62,4072.31,4086.67,4091.28,4107.69,4094.87,4092.31,0
12_32_14,64,4107.69,4115.9,4100,4083.08,4086.67,4104.1,4090.26,4071.28,4078.97,4083.59,4096.41,4118.97,4107.18,4105.13,0
12_32_14,65,4112.31,4120.51,4105.13,4086.67,4106.15,4111.79,4092.82,4079.49,4094.87,4093.33,4107.69,4124.62,4115.9,4114.87,0
12_32_14,66,4109.74,4113.33,4099.49,4084.62,4093.33,4108.72,4085.64,4075.38,4089.23,4098.46,4101.03,4122.05,4101.03,4109.23,0
12_32_14,67,4108.21,4103.59,4097.44,4081.54,4064.1,4108.72,4081.54,4071.28,4076.41,4082.56,4090.77,4123.08,4081.54,4097.95,0
12_32_14,68,4103.08,4091.28,4095.9,4081.54,4064.62,4114.87,4081.54,4072.31,4080.51,4077.44,4092.31,4122.56,4083.59,4094.87,0
12_32_14,69,4098.46,4088.21,4091.28,4082.05,4088.72,4114.36,4086.67,4075.9,4089.74,4092.31,4094.87,4122.56,4090.26,4095.9,0
12_32_14,70,4091.79,4091.28,4091.79,4072.82,4086.67,4113.33,4091.79,4082.05,4092.82,4094.36,4091.28,4121.03,4081.03,4089.74,0
12_32_14,71,4080.51,4089.74,4089.23,4061.54,4065.64,4114.87,4087.18,4081.54,4094.87,4088.72,4090.26,4110.26,4073.85,4077.44,0
12_32_14,72,4073.85,4081.54,4081.03,4060,4071.79,4115.9,4083.59,4076.41,4096.41,4101.54,4089.23,4103.08,4081.54,4075.38,0
12_32_14,73,4070.77,4071.28,4078.46,4061.54,4094.87,4121.03,4090.77,4080,4095.9,4106.15,4086.15,4110.26,4081.03,4078.46,0
12_32_14,74,4066.67,4070.77,4077.95,4062.05,4100,4124.1,4090.26,4077.44,4085.64,4086.67,4081.03,4106.15,4066.15,4066.67,0
12_32_14,75,4069.74,4090.77,4077.44,4071.28,4096.41,4114.36,4081.54,4064.62,4073.33,4076.41,4072.31,4089.74,4062.05,4056.41,0
12_32_14,76,4078.46,4113.85,4085.64,4086.67,4091.79,4111.79,4082.56,4062.05,4071.28,4076.92,4069.74,4095.38,4062.05,4064.62,0
12_32_14,77,4077.44,4117.95,4093.33,4091.79,4092.82,4122.05,4089.74,4073.33,4075.9,4080.51,4073.85,4107.18,4056.41,4067.69,0
12_32_14,78,4071.79,4117.95,4090.77,4087.69,4097.44,4127.69,4093.33,4076.92,4078.46,4080,4074.87,4097.44,4052.31,4052.31,0
12_32_14,79,4069.23,4111.28,4082.05,4091.79,4098.46,4124.62,4088.21,4068.21,4074.87,4066.67,4066.15,4084.62,4038.46,4037.95,0
12_32_14,80,4060.51,4096.41,4073.85,4088.21,4082.56,4120.51,4078.97,4061.54,4069.74,4062.56,4054.87,4084.1,4026.15,4031.79,0
12_32_14,81,4050.26,4101.03,4069.23,4070.26,4060,4117.95,4077.95,4060.51,4068.21,4073.85,4046.67,4078.46,4034.36,4026.67,0
12_32_14,82,4048.21,4108.21,4067.18,4064.1,4075.38,4113.85,4082.56,4066.67,4070.26,4072.31,4050.77,4072.31,4038.97,4023.08,0
12_32_14,83,4049.74,4104.1,4063.08,4071.79,4111.28,4107.69,4082.05,4071.79,4067.69,4064.1,4052.82,4071.79,4031.28,4023.59,0
12_32_14,84,4049.74,4109.74,4059.49,4070.26,4107.69,4105.64,4079.49,4065.64,4064.62,4072.31,4040.51,4064.62,4033.33,4024.62,0
12_32_14,85,4053.85,4120.51,4065.64,4074.36,4078.46,4112.31,4080.51,4066.15,4069.74,4075.9,4044.62,4066.15,4042.05,4027.69,0
12_32_14,86,4057.95,4113.33,4074.87,4087.18,4079.49,4117.44,4079.49,4072.82,4070.77,4058.97,4055.9,4073.85,4035.9,4036.41,0
12_32_14,87,4057.44,4111.79,4074.87,4080.51,4089.74,4110.77,4078.97,4073.85,4064.62,4061.03,4046.67,4073.33,4031.79,4040.51,0
12_32_14,88,4064.1,4123.08,4073.85,4076.92,4075.38,4106.15,4083.08,4074.87,4068.72,4076.41,4048.72,4075.38,4043.59,4036.92,0
12_32_14,89,4060.51,4115.38,4073.33,4086.67,4060,4109.74,4085.13,4075.9,4070.26,4063.08,4061.54,4077.44,4038.97,4030.77,0
12_32_14,90,4048.21,4102.56,4070.77,4079.49,4073.85,4113.33,4087.69,4076.41,4062.56,4052.31,4046.67,4071.28,4021.54,4029.74,0
12_32_14,91,4057.44,4110.77,4072.82,4066.67,4104.1,4112.31,4092.82,4084.1,4070.26,4078.97,4036.92,4075.38,4037.95,4038.46,0
12_32_14,92,4074.36,4128.72,4078.97,4073.85,4114.87,4115.9,4094.36,4090.26,4083.08,4088.72,4056.92,4091.79,4063.59,4050.77,0
12_32_14,93,4073.33,4128.21,4077.95,4080,4099.49,4117.95,4090.77,4088.21,4077.95,4067.69,4064.62,4090.77,4055.9,4051.28,0
12_32_14,94,4066.15,4110.26,4073.33,4073.85,4079.49,4116.41,4092.31,4085.64,4075.38,4062.56,4057.95,4082.05,4045.64,4042.05,0
12_32_14,95,4069.74,4107.18,4075.9,4078.46,4081.03,4117.95,4092.82,4077.44,4074.36,4070.77,4058.97,4083.59,4050.26,4043.59,0
12_32_14,96,4077.44,4124.1,4079.49,4087.69,4097.95,4121.03,4089.23,4069.74,4071.79,4079.49,4062.05,4086.15,4053.85,4054.36,0
12_32_14,97,4078.97,4125.13,4077.44,4080.51,4094.36,4118.46,4089.74,4071.79,4078.97,4090.26,4059.49,4083.59,4057.95,4056.41,0
12_32_14,98,4076.41,4112.82,4072.31,4072.31,4082.56,4117.44,4094.36,4075.38,4083.59,4083.59,4057.44,4080.51,4061.54,4054.87,0
12_32_14,99,4069.23,4112.82,4067.69,4074.36,4085.64,4128.21,4096.92,4080.51,4082.56,4069.23,4061.54,4079.49,4050.26,4051.28,0
12_32_14,100,4061.54,4108.72,4065.13,4074.36,4084.1,4133.85,4097.44,4086.15,4091.79,4081.54,4067.69,4081.03,4041.03,4040.51,0
12_32_14,101,4050.26,4090.26,4058.97,4065.13,4074.87,4125.64,4094.36,4082.56,4094.87,4095.38,4070.77,4076.41,4054.36,4033.33,0
12_32_14,102,4038.46,4073.33,4048.72,4053.33,4073.85,4126.15,4092.31,4082.05,4088.21,4092.82,4072.82,4067.69,4078.97,4034.87,0
12_32_14,103,4030.26,4060.51,4047.18,4045.64,4071.79,4137.95,4102.56,4097.44,4097.44,4103.08,4085.13,4078.46,4097.95,4041.03,0
12_32_14,104,4023.08,4047.18,4054.36,4046.15,4065.64,4143.08,4109.74,4107.18,4111.28,4109.23,4097.95,4092.31,4094.36,4043.59,0
12_32_14,105,4015.38,4033.33,4050.77,4049.74,4080.51,4136.41,4105.13,4101.54,4106.67,4096.41,4095.38,4083.08,4076.41,4031.28,0
12_32_14,106,4015.9,4036.41,4047.69,4051.28,4095.9,4133.85,4104.62,4107.69,4109.23,4113.85,4087.18,4077.95,4076.92,4025.64,0
12_32_14,107,4034.36,4054.87,4065.13,4054.87,4097.44,4142.05,4111.28,4127.69,4128.21,4149.74,4094.36,4096.41,4104.1,4048.72,0
12_32_14,108,4045.13,4058.46,4076.92,4052.31,4112.82,4151.28,4107.18,4121.54,4126.67,4133.85,4097.95,4100.51,4108.72,4060.51,0
12_32_14,109,4035.9,4045.64,4072.82,4047.69,4110.26,4144.62,4096.41,4097.95,4106.67,4092.82,4091.79,4087.69,4090.77,4042.56,0
12_32_14,110,4034.87,4043.59,4074.36,4057.44,4080.51,4132.31,4100,4101.03,4108.72,4109.23,4103.08,4096.92,4097.95,4039.49,0
12_32_14,111,4047.69,4050.26,4080,4068.72,4086.15,4136.92,4109.23,4116.41,4127.18,4148.72,4115.38,4107.69,4108.72,4056.41,0
12_32_14,112,4045.64,4047.69,4075.38,4059.49,4088.72,4140.51,4106.67,4110.77,4123.59,4124.1,4101.03,4093.33,4099.49,4051.79,0
12_32_14,113,4035.38,4043.08,4070.26,4047.69,4068.21,4136.41,4104.62,4107.69,4108.21,4090.77,4089.74,4086.67,4103.59,4038.97,0
12_32_14,114,4037.44,4040.51,4072.82,4053.33,4094.36,4141.03,4111.28,4118.46,4109.23,4110.77,4091.79,4092.82,4114.87,4043.59,0
12_32_14,115,4038.97,4036.92,4073.33,4063.08,4127.18,4144.62,4111.28,4114.36,4110.26,4115.9,4085.64,4084.62,4105.64,4047.69,0
12_32_14,116,4036.92,4046.15,4073.33,4061.54,4106.67,4142.05,4106.15,4103.59,4104.62,4093.33,4084.62,4078.46,4104.62,4050.77,0
12_32_14,117,4043.08,4060.51,4074.87,4058.97,4096.41,4141.03,4106.67,4108.72,4108.72,4099.49,4098.46,4090.26,4121.54,4057.44,0
12_32_14,118,4049.23,4057.95,4075.9,4063.59,4108.21,4138.46,4106.67,4110.77,4110.77,4111.28,4098.97,4091.28,4123.59,4052.31,0
12_32_14,119,4044.62,4049.74,4076.92,4066.15,4107.69,4136.41,4107.18,4106.67,4106.67,4105.64,4088.21,4085.64,4114.36,4050.77,0
12_32_14,120,4045.13,4060.51,4076.92,4067.18,4106.15,4140,4108.21,4105.64,4108.72,4096.92,4093.85,4089.74,4114.87,4064.1,0
12_32_14,121,4054.87,4066.67,4080.51,4069.74,4099.49,4141.54,4106.67,4104.1,4112.31,4097.44,4103.08,4092.82,4122.05,4070.77,0
12_32_14,122,4060.51,4051.79,4086.15,4072.82,4095.9,4140,4105.13,4100,4112.31,4108.72,4101.54,4094.36,4124.62,4062.05,0
12_32_14,123,4059.49,4057.95,4087.18,4072.82,4109.74,4140.51,4104.62,4100,4109.74,4114.87,4102.05,4096.92,4117.95,4058.97,0
12_32_14,124,4062.05,4075.9,4087.18,4068.72,4105.64,4138.46,4105.64,4103.59,4109.23,4100,4105.13,4099.49,4113.85,4064.1,0
12_32_14,125,4065.64,4070.77,4090.77,4069.23,4084.62,4136.41,4106.67,4101.03,4107.69,4087.69,4099.49,4098.97,4103.59,4059.49,0
12_32_14,126,4062.56,4066.15,4090.77,4073.85,4084.1,4138.46,4104.1,4094.87,4105.13,4090.77,4089.23,4094.36,4090.77,4047.69,0
12_32_14,127,4066.15,4074.87,4090.26,4077.95,4091.28,4136.41,4104.62,4103.08,4113.33,4101.03,4097.95,4096.92,4102.05,4058.97,0
12_32_14,128,4077.95,4076.92,4093.85,4083.08,4093.33,4131.28,4109.23,4113.33,4121.54,4113.33,4113.85,4109.74,4116.92,4081.54,0
12_32_14,0,4077.95,4073.33,4092.82,4089.74,4100,4132.82,4109.74,4105.13,4110.77,4114.36,4108.21,4112.31,4110.77,4077.95,0
12_32_14,1,4071.28,4077.44,4090.77,4093.85,4101.54,4138.46,4105.13,4100,4110.26,4113.85,4107.18,4107.69,4115.9,4071.28,0
12_32_14,2,4073.33,4077.95,4092.31,4088.72,4100.51,4138.46,4104.1,4107.69,4124.1,4114.87,4118.46,4108.72,4132.82,4080,0
12_32_14,3,4074.36,4080,4089.74,4083.59,4099.49,4135.9,4105.64,4105.13,4114.36,4109.74,4115.38,4108.21,4126.67,4081.54,0
12_32_14,4,4073.33,4082.05,4088.21,4085.64,4093.85,4134.87,4107.18,4101.54,4103.59,4110.26,4109.23,4109.74,4120.51,4074.87,0
12_32_15,5,4077.44,4076.92,4090.26,4093.33,4088.72,4136.92,4106.67,4107.69,4117.95,4120,4119.49,4113.33,4132.82,4075.9,0
12_32_15,6,4080.51,4078.97,4092.31,4096.41,4091.28,4141.03,4107.18,4110.26,4125.64,4120,4132.82,4114.87,4134.87,4085.13,0
12_32_15,7,4076.41,4084.62,4090.26,4093.85,4086.15,4134.87,4108.21,4110.26,4118.97,4104.62,4134.87,4114.36,4118.97,4086.67,0
12_32_15,8,4070.77,4076.92,4086.15,4089.74,4094.36,4131.28,4107.69,4111.28,4117.44,4103.08,4122.05,4104.1,4108.72,4073.85,0
12_32_15,9,4071.28,4065.64,4085.13,4083.08,4108.72,4137.44,4107.18,4108.21,4118.97,4117.44,4107.18,4094.87,4117.95,4068.72,0
12_32_15,10,4074.36,4063.59,4091.79,4092.31,4089.23,4138.46,4110.77,4109.23,4122.56,4125.13,4118.46,4107.69,4125.64,4083.59,0
12_32_15,11,4077.95,4068.21,4096.41,4105.64,4093.85,4145.64,4116.41,4115.38,4127.18,4127.18,4140,4122.05,4122.05,4094.36,0
12_32_15,12,4081.03,4074.36,4093.33,4095.9,4133.33,4154.36,4115.38,4111.28,4124.62,4123.59,4130.77,4112.82,4121.54,4086.15,0
12_32_15,13,4083.08,4079.49,4089.74,4083.08,4110.26,4143.08,4109.23,4103.59,4118.97,4112.31,4105.13,4102.56,4121.03,4076.41,0
12_32_15,14,4086.15,4075.38,4091.79,4089.23,4077.44,4133.33,4105.64,4105.13,4115.9,4111.79,4103.08,4108.21,4114.36,4081.03,0
12_32_15,15,4085.64,4068.72,4097.44,4095.38,4104.1,4138.46,4102.56,4103.08,4109.74,4111.79,4117.44,4113.33,4108.21,4091.28,0
12_32_15,16,4081.03,4069.74,4094.36,4091.79,4105.13,4135.9,4097.44,4095.9,4095.9,4094.36,4113.85,4105.13,4103.08,4088.21,0
12_32_15,17,4084.62,4080.51,4089.23,4091.79,4091.28,4132.82,4098.46,4100,4097.44,4097.95,4100.51,4105.13,4105.64,4081.03,0
12_32_15,18,4104.1,4096.92,4098.97,4093.33,4123.59,4143.08,4106.67,4113.85,4122.05,4129.23,4110.26,4124.62,4120.51,4094.87,0
12_32_15,19,4111.28,4095.9,4106.67,4091.79,4126.15,4140,4109.23,4115.9,4126.67,4132.31,4121.03,4130.77,4128.72,4109.74,0
12_32_15,20,4094.36,4077.44,4097.44,4092.82,4085.13,4125.13,4103.08,4104.62,4107.69,4103.59,4113.33,4114.87,4114.36,4096.92,0
12_32_15,21,4086.67,4070.77,4091.28,4092.82,4088.72,4126.15,4101.54,4101.03,4104.62,4090.26,4106.67,4109.23,4091.28,4082.05,0
12_32_15,22,4092.82,4077.44,4094.87,4088.72,4104.62,4132.31,4106.67,4106.15,4120.51,4107.69,4109.74,4121.03,4092.31,4089.23,0
12_32_15,23,4091.28,4079.49,4094.36,4086.15,4095.38,4133.85,4109.23,4109.23,4125.64,4114.87,4117.44,4124.62,4118.46,4097.95,0
12_32_15,24,4088.21,4081.54,4091.79,4088.72,4091.28,4130.77,4106.67,4105.64,4118.46,4105.64,4118.97,4114.87,4125.13,4094.87,0
12_32_15,25,4092.31,4083.59,4091.79,4091.79,4070.77,4123.59,4105.13,4099.49,4108.72,4106.67,4109.74,4107.69,4112.82,4094.36,0
12_32_15,26,4096.41,4074.87,4090.26,4094.36,4073.85,4126.15,4105.64,4095.9,4107.18,4106.15,4108.72,4111.79,4117.95,4094.36,0
12_32_15,27,4095.38,4071.28,4089.23,4095.38,4125.13,4140.51,4105.64,4100.51,4116.92,4096.92,4115.38,4111.28,4116.41,4088.21,0
12_32_15,28,4099.49,4088.21,4093.85,4092.82,4147.18,4143.59,4104.62,4106.15,4118.46,4111.79,4111.79,4107.69,4106.67,4092.31,0
12_32_15,29,4106.67,4107.18,4098.97,4090.26,4121.54,4136.41,4104.62,4103.59,4112.82,4133.85,4110.26,4114.87,4128.21,4106.15,0
12_32_15,30,4107.18,4106.15,4097.95,4090.77,4097.44,4134.36,4106.15,4104.1,4114.87,4122.56,4123.59,4121.03,4144.62,4111.28,0
12_32_15,31,4101.03,4085.13,4095.38,4096.92,4083.08,4129.74,4106.15,4107.69,4115.38,4113.85,4127.69,4116.92,4117.44,4102.56,0
12_32_15,32,4092.82,4069.74,4095.9,4101.54,4088.72,4129.23,4104.1,4105.13,4110.26,4117.44,4122.05,4116.92,4105.64,4095.38,0
12_32_15,33,4090.77,4077.95,4093.85,4095.9,4112.82,4137.95,4106.15,4105.64,4113.85,4111.79,4123.08,4123.08,4123.59,4100.51,0
12_32_15,34,4095.9,4093.85,4093.33,4087.18,4109.23,4139.49,4108.72,4111.79,4120.51,4120,4120.51,4122.56,4127.69,4107.69,0
12_32_15,35,4101.03,4096.92,4101.03,4092.31,4101.03,4133.33,4107.18,4112.82,4116.92,4129.23,4113.33,4121.54,4124.1,4109.23,0
12_32_15,36,4096.92,4088.21,4100.51,4096.41,4105.64,4128.21,4103.08,4106.67,4109.74,4112.31,4109.23,4122.56,4120.51,4103.08,0
12_32_15,37,4090.26,4084.1,4091.79,4093.85,4098.97,4131.79,4104.1,4103.08,4108.21,4100.51,4107.69,4119.49,4112.31,4093.85,0
12_32_15,38,4093.85,4088.72,4091.79,4095.38,4097.44,4141.03,4109.23,4108.21,4116.41,4113.33,4115.38,4119.49,4109.23,4092.82,0
12_32_15,39,4096.41,4088.21,4094.36,4097.95,4093.33,4136.92,4109.23,4111.79,4123.08,4121.03,4121.54,4124.62,4112.82,4097.44,0
12_32_15,40,4087.69,4077.44,4086.67,4095.9,4076.92,4122.05,4106.15,4101.54,4116.41,4113.85,4111.79,4120.51,4109.23,4094.36,0
12_32_15,41,4080.51,4070.26,4081.03,4089.74,4079.49,4121.03,4104.62,4089.74,4104.1,4100.51,4104.1,4108.21,4098.97,4082.56,0
12_32_15,42,4079.49,4069.74,4086.67,4083.59,4089.23,4128.72,4106.15,4095.9,4100.51,4092.31,4106.67,4107.18,4090.77,4080,0
12_32_15,43,4082.56,4075.38,4092.31,4086.15,4079.49,4126.15,4106.15,4104.1,4107.69,4107.18,4102.05,4113.85,4094.87,4091.79,0
12_32_15,44,4084.1,4082.56,4092.82,4090.77,4085.64,4126.67,4103.08,4096.41,4109.23,4114.36,4093.33,4110.26,4096.92,4091.79,0
12_32_15,45,4077.95,4078.46,4091.79,4088.21,4106.15,4133.85,4098.46,4092.82,4104.1,4093.85,4090.26,4106.67,4087.18,4079.49,0
12_32_15,46,4077.44,4076.92,4091.28,4088.72,4094.87,4127.18,4094.36,4096.41,4100,4078.46,4091.28,4107.69,4094.87,4086.67,0
12_32_15,47,4091.28,4085.13,4092.31,4091.79,4070.77,4115.9,4093.85,4092.82,4094.36,4086.67,4102.05,4109.23,4107.18,4104.62,0
12_32_15,48,4097.44,4081.54,4094.87,4088.21,4071.28,4118.97,4098.97,4092.82,4089.23,4099.49,4110.26,4115.9,4092.82,4101.03,0
12_32_15,49,4091.28,4074.87,4094.36,4087.18,4086.15,4123.08,4105.13,4098.46,4095.38,4099.49,4105.13,4117.44,4088.21,4091.28,0
12_32_15,50,4090.26,4080,4090.77,4090.77,4093.85,4121.03,4106.67,4100,4106.15,4097.44,4103.59,4114.36,4107.18,4098.97,0
12_32_15,51,4091.28,4076.92,4091.28,4093.33,4091.28,4129.74,4108.72,4105.64,4109.23,4101.54,4105.64,4117.44,4111.28,4104.62,0
12_32_15,52,4081.54,4074.36,4091.28,4095.38,4082.05,4137.44,4107.69,4106.67,4105.64,4096.92,4102.05,4117.95,4093.33,4094.36,0
12_32_15,53,4067.69,4075.38,4082.56,4090.26,4080.51,4128.72,4096.92,4090.26,4092.31,4085.13,4101.54,4105.13,4081.03,4083.08,0
12_32_15,54,4075.38,4072.31,4081.54,4082.56,4114.87,4122.05,4092.82,4089.23,4093.85,4111.28,4105.64,4107.69,4098.97,4089.74,0
12_32_15,55,4096.41,4089.74,4092.82,4082.56,4129.23,4125.64,4098.46,4106.67,4113.85,4135.38,4104.1,4123.59,4118.97,4105.13,0
12_32_15,56,4097.44,4102.56,4091.79,4092.31,4086.67,4129.74,4095.9,4099.49,4110.26,4096.41,4105.64,4115.38,4094.36,4099.49,0
12_32_15,57,4103.08,4099.49,4087.18,4099.49,4091.28,4129.74,4092.82,4084.62,4093.33,4088.72,4113.33,4107.69,4084.1,4110.26,0
12_32_15,58,4145.64,4122.56,4102.56,4107.18,4114.36,4118.46,4092.82,4087.69,4090.26,4117.95,4118.46,4121.54,4110.77,4146.67,0
12_32_15,59,4187.18,4145.13,4121.03,4127.69,4071.79,4111.28,4094.87,4091.79,4091.79,4089.23,4131.28,4135.38,4102.05,4173.85,0
12_32_15,60,4205.13,4137.95,4129.74,4145.13,4075.38,4121.54,4095.38,4091.79,4087.69,4062.56,4137.44,4143.08,4086.67,4193.85,0
12_32_15,61,4229.23,4149.23,4135.9,4142.05,4148.72,4118.46,4091.28,4089.23,4086.15,4107.18,4130.77,4152.31,4113.33,4212.31,0
12_32_15,62,4258.46,4178.97,4141.54,4138.46,4130.77,4103.59,4087.18,4081.03,4083.59,4125.13,4128.72,4155.38,4132.82,4230.26,0
12_32_15,63,4265.64,4183.59,4148.21,4143.08,4068.21,4113.33,4086.15,4071.79,4071.28,4066.67,4126.15,4154.36,4116.92,4245.64,0
12_32_15,64,4269.74,4188.21,4154.87,4143.08,4115.38,4126.15,4086.67,4072.82,4064.1,4051.79,4127.18,4165.64,4118.97,4255.38,0
12_32_15,65,4285.64,4206.15,4157.44,4144.62,4178.97,4121.54,4089.74,4078.46,4077.95,4112.31,4140,4181.03,4150.77,4263.59,0
12_32_15,66,4283.59,4204.1,4154.36,4142.05,4148.21,4116.92,4094.87,4078.97,4086.15,4138.97,4138.97,4184.62,4166.67,4273.33,0
12_32_15,67,4268.72,4187.69,4153.33,4128.21,4107.69,4116.41,4097.44,4081.54,4073.33,4102.05,4127.69,4175.38,4166.15,4278.97,0
12_32_15,68,4260,4172.31,4154.36,4121.54,4111.28,4116.92,4097.44,4088.21,4072.82,4090.77,4135.38,4169.23,4162.56,4264.62,0
12_32_15,69,4244.62,4148.72,4147.18,4127.69,4091.79,4119.49,4093.33,4089.23,4086.15,4109.23,4142.56,4169.23,4152.31,4241.54,0
12_32_15,70,4228.21,4141.03,4143.08,4126.15,4069.74,4116.41,4091.79,4088.21,4085.64,4096.92,4144.62,4168.21,4150.77,4231.79,0
12_32_15,71,4227.69,4157.95,4148.21,4116.41,4104.62,4120.51,4105.13,4096.92,4095.38,4090.26,4150.77,4171.79,4172.31,4241.54,0
12_32_15,72,4208.21,4142.56,4143.08,4112.31,4109.74,4126.15,4107.69,4097.95,4100,4085.64,4147.69,4168.72,4164.1,4226.15,0
12_32_15,73,4183.59,4107.18,4126.67,4111.79,4066.67,4115.38,4093.85,4086.15,4080.51,4084.1,4155.9,4159.49,4127.69,4181.54,0
12_32_15,74,4196.92,4133.85,4127.69,4109.23,4095.38,4113.85,4096.92,4088.72,4076.92,4118.46,4160,4161.54,4144.62,4181.54,0
12_32_15,75,4186.67,4166.67,4130.26,4100,4136.92,4125.13,4103.08,4089.74,4078.46,4120,4127.69,4155.9,4164.1,4197.95,0
12_32_15,76,4147.69,4142.56,4115.9,4092.82,4096.41,4122.05,4094.87,4080,4065.13,4082.56,4109.74,4135.38,4130.77,4157.95,0
12_32_15,77,4152.31,4145.64,4112.82,4088.21,4105.64,4121.03,4095.38,4082.56,4061.54,4097.44,4119.49,4132.82,4127.18,4135.38,0
12_32_15,78,4170.77,4189.74,4123.59,4082.56,4171.79,4123.59,4108.21,4097.95,4074.87,4139.49,4113.33,4145.64,4171.79,4175.9,0
12_32_15,79,4158.97,4205.64,4129.23,4087.69,4155.38,4112.31,4113.33,4110.77,4092.82,4138.46,4113.33,4153.85,4187.18,4191.28,0
12_32_15,80,4144.62,4202.56,4126.67,4096.41,4096.92,4104.1,4110.77,4111.28,4097.44,4118.46,4134.87,4157.44,4163.59,4153.85,0
12_32_15,81,4129.74,4194.87,4117.44,4095.38,4081.54,4109.23,4105.13,4100,4073.85,4090.77,4137.44,4151.79,4134.36,4129.74,0
12_32_15,82,4103.08,4173.33,4106.67,4091.28,4088.21,4106.67,4094.36,4088.72,4049.74,4067.18,4116.92,4135.38,4115.9,4125.13,0
12_32_15,83,4098.46,4168.72,4104.1,4088.21,4102.05,4109.74,4093.85,4089.74,4062.56,4087.69,4100.51,4123.08,4135.38,4114.36,0
12_32_15,84,4110.26,4196.92,4109.74,4090.26,4120.51,4122.05,4105.13,4094.87,4082.05,4108.72,4107.18,4128.72,4177.95,4119.49,0
12_32_15,85,4106.67,4192.82,4107.18,4092.82,4090.26,4121.03,4103.08,4092.82,4077.95,4093.33,4123.08,4136.41,4174.36,4128.72,0
12_32_15,86,4102.05,4150.26,4105.64,4100,4051.28,4108.21,4094.36,4087.18,4065.13,4080.51,4131.28,4134.36,4150.77,4115.9,0
12_32_15,87,4116.92,4139.49,4118.97,4108.72,4086.67,4102.56,4102.56,4094.87,4073.33,4110.26,4143.08,4146.15,4169.74,4117.95,0
12_32_15,88,4126.67,4154.36,4127.18,4099.49,4158.46,4113.33,4117.44,4113.33,4097.95,4160,4143.08,4163.59,4198.46,4147.18,0
12_32_15,89,4114.87,4146.15,4116.41,4077.44,4176.41,4120,4113.85,4111.79,4092.82,4164.62,4114.87,4149.23,4202.56,4154.87,0
12_32_15,90,4096.92,4117.95,4101.03,4076.41,4102.05,4111.79,4104.1,4091.28,4060.51,4114.87,4093.33,4120.51,4187.18,4125.64,0
12_32_15,91,4088.72,4102.56,4098.46,4089.23,4055.9,4103.08,4106.15,4092.82,4065.13,4085.13,4109.74,4120.51,4169.74,4114.87,0
12_32_15,92,4094.87,4084.1,4104.62,4089.74,4124.1,4110.26,4111.28,4109.74,4088.21,4114.87,4137.44,4142.05,4169.23,4130.77,0
12_32_15,93,4110.77,4073.33,4109.74,4095.38,4140.51,4107.18,4109.23,4109.74,4087.18,4143.08,4143.08,4151.28,4190.26,4142.56,0
12_32_15,94,4115.9,4089.74,4111.79,4101.03,4083.59,4097.95,4108.21,4103.08,4093.85,4130.26,4162.05,4150.26,4182.56,4144.1,0
12_32_15,95,4085.13,4070.26,4102.05,4101.03,4072.31,4111.79,4100.51,4086.67,4080,4085.13,4182.56,4139.49,4114.87,4115.9,0
12_32_15,96,4080.51,4044.62,4100.51,4118.46,4101.54,4118.46,4091.79,4070.77,4044.1,4083.59,4164.1,4132.31,4098.46,4092.31,0
12_32_15,97,4128.21,4113.85,4120,4128.72,4141.54,4106.15,4110.77,4097.44,4072.82,4165.13,4154.36,4152.82,4182.56,4131.28,0
12_32_15,98,4143.08,4207.69,4125.13,4109.74,4181.03,4103.59,4126.15,4126.15,4121.03,4195.9,4186.67,4175.9,4231.28,4166.67,0
12_32_15,99,4110.77,4213.85,4109.74,4098.97,4163.08,4104.62,4106.67,4103.08,4089.74,4131.28,4187.18,4158.97,4193.33,4148.21,0
12_32_15,100,4098.97,4190.26,4098.97,4115.9,4091.28,4095.9,4091.79,4076.92,4051.28,4105.13,4138.97,4122.05,4185.64,4130.77,0
12_32_15,101,4112.82,4250.77,4107.69,4122.05,4084.1,4094.87,4107.69,4097.44,4083.08,4147.18,4138.46,4123.08,4240,4138.46,0
12_32_15,102,4124.1,4337.44,4132.31,4132.31,4129.23,4096.41,4117.44,4121.03,4110.77,4148.21,4195.9,4153.33,4270.26,4130.26,0
12_32_15,103,4135.38,4374.36,4147.69,4136.92,4122.05,4089.23,4106.15,4105.13,4096.92,4134.87,4231.79,4157.44,4274.87,4112.31,0
12_32_15,104,4143.59,4436.92,4147.18,4106.15,4089.74,4087.18,4102.56,4093.85,4091.28,4184.62,4233.33,4152.31,4314.36,4134.36,0
12_32_15,105,4135.9,4567.18,4152.82,4093.33,4092.31,4080.51,4109.23,4105.64,4087.18,4187.69,4229.74,4156.92,4353.33,4142.56,0
12_32_15,106,4117.44,4639.49,4162.56,4117.44,4142.05,4075.38,4103.08,4098.97,4052.82,4113.33,4237.95,4144.1,4341.54,4100,0
12_32_15,107,4106.15,4607.69,4159.49,4104.1,4140,4068.21,4085.64,4076.41,4036.92,4111.28,4257.44,4121.54,4308.21,4073.33,0
12_32_15,108,4122.56,4623.08,4163.08,4065.13,4088.72,4055.9,4087.18,4079.49,4056.92,4168.21,4280,4129.23,4315.9,4092.31,0
12_32_15,109,4146.67,4724.62,4172.31,4078.97,4070.26,4045.64,4107.18,4100.51,4056.92,4149.23,4283.08,4145.13,4376.41,4102.56,0
12_32_15,110,4142.56,4800.51,4167.69,4095.9,4082.56,4047.18,4104.1,4093.85,4034.36,4105.13,4284.62,4129.74,4412.31,4078.97,0
12_32_15,111,4120.51,4815.38,4168.72,4081.03,4088.21,4062.56,4084.62,4066.15,4020,4131.79,4314.87,4101.54,4397.95,4062.56,0
12_32_15,112,4126.67,4823.59,4187.18,4072.82,4086.67,4062.05,4083.08,4061.03,4025.13,4163.08,4348.72,4101.54,4417.95,4071.28,0
12_32_15,113,4168.72,4860,4207.69,4071.28,4072.82,4039.49,4093.85,4081.54,4039.49,4147.18,4383.08,4126.67,4466.67,4081.03,0
12_32_15,114,4175.9,4853.33,4210.26,4082.56,4047.18,4042.56,4089.74,4082.56,4036.41,4125.64,4417.44,4129.23,4456.41,4065.64,0
12_32_15,115,4147.69,4790.26,4200,4088.21,4055.38,4064.62,4084.62,4068.21,4023.59,4135.38,4406.67,4108.21,4454.87,4056.92,0
12_32_15,116,4164.62,4750.26,4196.92,4054.87,4107.18,4054.36,4089.23,4078.46,4030.26,4161.54,4376.92,4104.62,4518.46,4078.97,0
12_32_15,117,4186.15,4728.72,4186.67,4021.03,4104.1,4038.46,4084.1,4078.97,4031.28,4149.74,4401.54,4100,4528.72,4064.1,0
12_32_15,118,4142.56,4638.97,4162.56,4034.87,4011.28,4042.56,4072.31,4054.87,4003.59,4089.23,4434.36,4066.15,4466.15,4016.92,0
12_32_15,119,4113.33,4535.38,4154.87,4047.69,3985.64,4034.87,4072.31,4058.46,3992.82,4080,4415.38,4046.67,4458.97,4012.31,0
12_32_15,120,4155.9,4545.64,4172.82,4035.9,4075.9,4039.49,4082.56,4081.03,4014.87,4131.79,4419.49,4072.31,4496.92,4036.92,0
12_32_15,121,4172.31,4571.79,4169.23,4031.79,4109.74,4054.36,4078.46,4068.72,4022.05,4130.77,4427.18,4074.87,4487.69,4032.31,0
12_32_15,122,4125.13,4495.38,4142.05,4030.26,4046.15,4054.87,4062.05,4041.54,3994.87,4081.03,4359.49,4038.46,4461.03,4014.87,0
12_32_15,123,4116.92,4428.72,4147.18,4033.33,4012.82,4051.79,4071.28,4056.41,3991.79,4093.33,4328.21,4039.49,4461.54,4015.38,0
12_32_15,124,4162.05,4456.41,4173.85,4055.38,4046.15,4044.62,4096.41,4090.26,4039.49,4143.59,4385.64,4084.62,4473.33,4030.77,0
12_32_15,125,4168.21,4472.82,4166.15,4051.28,4096.41,4045.64,4090.26,4083.08,4044.62,4145.64,4388.72,4087.69,4480.51,4035.38,0
12_32_15,126,4129.74,4421.03,4137.95,4011.79,4095.9,4063.59,4066.15,4051.79,3992.31,4111.79,4322.05,4050.26,4454.87,4016.41,0
12_32_15,127,4109.23,4363.59,4132.82,4015.38,4034.87,4065.64,4068.21,4046.67,3978.46,4073.85,4312.31,4042.56,4395.38,3997.95,0
12_32_15,128,4120.51,4356.41,4145.64,4057.44,4043.08,4049.23,4082.56,4065.64,4018.46,4090.77,4332.31,4059.49,4397.44,4017.44,0
12_32_15,0,4145.64,4386.67,4153.33,4046.67,4081.54,4042.56,4084.62,4076.92,4041.03,4155.9,4313.85,4066.15,4442.05,4042.56,0
12_32_15,1,4162.05,4394.36,4155.9,4016.92,4046.67,4044.62,4085.13,4078.46,4033.85,4151.79,4293.85,4068.21,4426.15,4040,0
12_32_15,2,4142.05,4367.69,4143.08,4022.05,4044.1,4056.41,4081.54,4064.62,4009.74,4084.1,4270.77,4050.77,4380.51,4016.92,0
12_32_15,3,4105.64,4337.44,4118.97,4032.31,4094.87,4075.9,4073.33,4044.62,3983.08,4066.67,4244.1,4017.95,4360.51,3994.36,0
12_32_16,4,4112.82,4325.13,4124.62,4047.69,4096.41,4065.64,4081.03,4056.41,4005.13,4092.31,4259.49,4033.85,4368.72,4001.54,0
12_32_16,5,4153.33,4341.03,4152.82,4060,4063.08,4042.05,4095.38,4084.1,4044.1,4098.97,4294.87,4074.87,4394.87,4030.26,0
12_32_16,6,4158.46,4357.44,4148.72,4038.97,4052.31,4047.18,4092.82,4080,4040,4107.18,4290.26,4066.15,4396.92,4035.9,0
12_32_16,7,4138.46,4326.67,4131.28,4040.51,4058.46,4060.51,4088.21,4068.72,4031.79,4128.21,4268.21,4046.67,4375.9,4029.74,0
12_32_16,8,4131.79,4289.23,4140,4065.13,4070.77,4060.51,4088.72,4070.77,4035.9,4109.74,4253.33,4052.82,4380.51,4033.85,0
12_32_16,9,4130.77,4300,4141.54,4046.67,4078.97,4056.41,4083.08,4065.64,4015.38,4060.51,4238.46,4041.03,4385.64,4025.13,0
12_32_16,10,4138.46,4328.72,4130.77,4025.64,4094.87,4054.87,4084.62,4070.26,4014.87,4068.21,4249.23,4038.46,4370.26,4012.82,0
12_32_16,11,4161.54,4331.79,4148.72,4062.56,4082.56,4051.28,4101.03,4095.9,4060,4122.56,4280,4078.46,4380.51,4037.95,0
12_32_16,12,4151.28,4299.49,4151.28,4076.92,4068.72,4058.97,4098.97,4091.79,4054.87,4117.95,4254.36,4072.31,4390.26,4053.85,0
12_32_16,13,4123.08,4284.62,4124.62,4043.59,4104.62,4063.08,4083.59,4069.74,4013.85,4068.72,4209.74,4030.77,4365.64,4031.79,0
12_32_16,14,4139.49,4309.74,4130.26,4043.08,4097.95,4056.41,4084.62,4081.03,4036.92,4081.54,4234.36,4051.28,4348.72,4024.62,0
12_32_16,15,4164.62,4309.74,4149.74,4062.56,4057.95,4066.67,4095.38,4095.38,4068.72,4111.28,4256.92,4083.59,4359.49,4047.69,0
12_32_16,16,4154.36,4266.15,4141.03,4066.15,4061.03,4075.38,4093.85,4079.49,4040,4080,4223.59,4064.1,4364.62,4054.87,0
12_32_16,17,4134.36,4251.28,4132.82,4070.26,4062.56,4066.15,4087.69,4068.21,4015.9,4053.33,4198.46,4041.54,4349.74,4042.05,0
12_32_16,18,4136.41,4275.9,4135.38,4057.44,4089.74,4075.38,4088.72,4076.41,4030.77,4088.72,4198.46,4046.67,4353.33,4044.1,0
12_32_16,19,4146.15,4278.97,4125.13,4036.41,4127.69,4091.79,4087.69,4075.9,4038.97,4096.92,4188.21,4048.21,4370.77,4053.85,0
12_32_16,20,4140,4251.28,4126.15,4064.1,4096.41,4079.49,4087.69,4076.41,4041.03,4050.77,4204.62,4053.85,4356.92,4047.69,0
12_32_16,21,4137.95,4246.15,4144.62,4087.69,4068.21,4068.21,4096.92,4088.72,4051.79,4068.21,4224.62,4067.69,4337.95,4045.13,0
12_32_16,22,4154.87,4277.95,4143.59,4055.9,4117.44,4079.49,4102.05,4092.31,4053.33,4130.26,4194.36,4068.72,4363.08,4063.08,0
12_32_16,23,4162.56,4281.03,4132.31,4055.38,4120,4079.49,4100.51,4089.23,4054.36,4110.26,4183.59,4067.69,4383.08,4066.67,0
12_32_16,24,4124.1,4229.23,4121.03,4072.82,4053.33,4072.31,4091.79,4074.36,4041.03,4037.44,4197.95,4054.36,4336.92,4037.95,0
12_32_16,25,4107.69,4210.26,4121.03,4058.46,4033.85,4071.79,4088.72,4067.69,4032.82,4054.87,4189.74,4044.62,4321.03,4044.1,0
12_32_16,26,4140,4237.95,4132.31,4063.59,4110.77,4089.23,4094.36,4082.05,4045.64,4097.44,4177.95,4053.85,4357.95,4065.13,0
12_32_16,27,4152.82,4243.59,4135.9,4081.03,4148.72,4092.31,4095.38,4089.23,4058.97,4077.95,4186.67,4065.64,4349.23,4055.9,0
12_32_16,28,4138.46,4227.18,4135.9,4068.72,4052.82,4061.54,4093.85,4087.18,4070.77,4087.18,4202.05,4074.87,4335.38,4061.54,0
12_32_16,29,4125.64,4218.46,4124.62,4049.23,4054.87,4072.31,4084.62,4072.31,4044.62,4101.54,4178.97,4062.05,4337.44,4062.05,0
12_32_16,30,4124.62,4221.54,4112.82,4060.51,4132.31,4093.33,4074.87,4061.03,4008.72,4070.77,4133.33,4040.51,4335.38,4049.23,0
12_32_16,31,4126.67,4207.18,4123.08,4083.08,4062.56,4057.95,4082.05,4078.97,4029.74,4054.87,4144.1,4051.79,4332.31,4060.51,0
12_32_16,32,4121.03,4186.67,4125.13,4065.13,4046.15,4063.59,4086.67,4084.1,4044.1,4066.67,4164.1,4057.95,4315.9,4061.03,0
12_32_16,33,4132.31,4216.41,4117.95,4036.92,4162.56,4111.28,4084.62,4073.33,4026.15,4065.64,4143.59,4049.74,4320,4052.82,0
12_32_16,34,4147.69,4232.31,4129.23,4061.03,4136.41,4088.21,4091.28,4089.23,4040.51,4073.33,4142.56,4064.1,4346.15,4071.28,0
12_32_16,35,4132.31,4189.74,4135.38,4088.72,4036.41,4045.13,4095.38,4108.21,4057.44,4097.44,4158.46,4074.87,4341.03,4071.79,0
12_32_16,36,4106.67,4162.56,4112.82,4057.44,4073.33,4070.77,4086.67,4094.36,4027.69,4067.69,4136.92,4048.21,4307.18,4035.38,0
12_32_16,37,4107.18,4174.36,4099.49,4027.18,4109.74,4089.74,4085.64,4085.64,4027.69,4035.38,4124.62,4033.85,4306.67,4031.28,0
12_32_16,38,4120,4175.9,4114.36,4057.44,4094.36,4062.56,4092.31,4103.08,4057.95,4074.87,4148.72,4057.44,4316.41,4052.82,0
12_32_16,39,4127.18,4174.87,4125.64,4083.59,4096.41,4055.38,4094.87,4110.77,4051.28,4098.97,4150.77,4070.77,4317.44,4063.08,0
12_32_16,40,4116.41,4155.9,4112.82,4068.21,4033.33,4074.87,4093.85,4095.38,4023.08,4024.62,4138.46,4052.82,4296.92,4048.21,0
12_32_16,41,4094.87,4124.1,4101.54,4055.38,4043.59,4086.15,4087.69,4078.46,4021.54,4005.13,4128.72,4035.38,4271.79,4026.67,0
12_32_16,42,4110.77,4152.31,4113.33,4062.56,4153.85,4077.44,4088.21,4086.15,4045.13,4092.31,4121.03,4051.79,4303.59,4038.46,0
12_32_16,43,4128.72,4176.92,4115.38,4068.72,4115.9,4075.9,4090.77,4094.36,4046.67,4099.49,4127.69,4065.13,4321.03,4056.41,0
12_32_16,44,4113.85,4145.64,4098.97,4061.03,4056.41,4085.64,4089.74,4088.21,4034.36,4061.54,4140,4057.44,4290.26,4051.79,0
12_32_16,45,4125.64,4152.82,4112.82,4063.59,4145.13,4086.15,4100,4108.21,4059.49,4115.38,4155.9,4075.9,4311.28,4061.03,0
12_32_16,46,4135.38,4174.36,4120.51,4066.15,4141.54,4080,4097.44,4111.28,4067.18,4126.15,4145.13,4074.36,4334.36,4065.64,0
12_32_16,47,4103.59,4141.03,4095.38,4061.54,4032.31,4070.77,4078.46,4082.05,4035.9,4049.74,4124.1,4036.41,4287.69,4044.1,0
12_32_16,48,4096.92,4117.44,4094.36,4066.15,4082.05,4071.79,4082.56,4082.05,4033.85,4045.64,4140.51,4043.08,4265.64,4038.46,0
12_32_16,49,4129.23,4149.23,4116.92,4075.38,4160,4076.92,4097.44,4105.13,4053.85,4087.69,4161.03,4076.41,4306.15,4060.51,0
12_32_16,50,4131.28,4162.56,4107.69,4075.9,4101.03,4069.23,4091.28,4100.51,4046.15,4088.72,4143.08,4062.56,4317.95,4069.23,0
12_32_16,51,4113.33,4146.15,4086.15,4072.82,4057.44,4064.62,4083.59,4085.64,4029.23,4084.62,4129.74,4042.05,4291.79,4054.36,0
12_32_16,52,4120,4137.95,4098.46,4088.72,4072.82,4067.18,4090.26,4091.28,4048.21,4076.92,4156.41,4063.59,4286.67,4048.72,0
12_32_16,53,4125.13,4131.28,4109.23,4093.85,4111.28,4071.79,4092.82,4093.85,4063.08,4075.9,4165.64,4071.79,4293.85,4052.31,0
12_32_16,54,4121.54,4145.13,4100,4078.46,4126.67,4077.44,4091.79,4090.77,4046.67,4104.1,4139.49,4054.87,4293.33,4061.03,0
12_32_16,55,4121.54,4154.87,4100,4080.51,4081.03,4073.33,4091.79,4091.28,4042.05,4087.18,4133.33,4057.95,4296.41,4070.26,0
12_32_16,56,4128.72,4140.51,4111.28,4094.87,4078.97,4062.56,4091.28,4095.38,4058.46,4056.92,4166.67,4080,4301.54,4065.64,0
12_32_16,57,4141.54,4146.15,4115.38,4091.28,4133.33,4065.13,4093.33,4100,4065.64,4106.15,4182.05,4089.23,4302.56,4061.03,0
12_32_16,58,4135.9,4156.41,4101.03,4077.44,4126.15,4075.38,4087.69,4088.72,4052.82,4131.28,4138.46,4067.69,4297.95,4067.69,0
12_32_16,59,4114.36,4143.59,4089.74,4073.33,4094.87,4073.33,4078.97,4078.97,4039.49,4083.59,4109.23,4048.21,4300.51,4068.21,0
12_32_16,60,4115.38,4141.54,4097.44,4081.54,4121.03,4075.38,4084.62,4076.41,4042.56,4070.26,4143.08,4061.54,4295.38,4055.9,0
12_32_16,61,4143.59,4163.08,4115.38,4100.51,4122.56,4080,4096.92,4056.41,4068.72,4110.77,4167.18,4088.21,4295.9,4064.1,0
12_32_16,62,4151.79,4155.38,4118.46,4109.23,4078.46,4066.67,4095.38,4032.82,4079.49,4122.05,4150.26,4089.23,4301.03,4080,0
12_32_16,63,4128.72,4128.72,4106.15,4095.9,4078.46,4056.41,4086.67,4029.23,4057.44,4105.13,4137.44,4071.28,4288.72,4070.26,0
12_32_16,64,4115.38,4128.72,4097.95,4084.1,4133.33,4074.36,4085.64,4026.67,4043.59,4100.51,4131.28,4062.56,4285.13,4057.44,0
12_32_16,65,4125.13,4151.28,4102.05,4094.87,4139.49,4080.51,4090.77,4021.03,4048.21,4095.38,4132.31,4068.21,4296.41,4066.67,0
12_32_16,66,4135.9,4158.46,4106.67,4101.54,4095.38,4062.56,4093.85,4030.77,4063.59,4093.85,4146.67,4075.9,4290.26,4076.41,0
12_32_16,67,4140.51,4141.03,4107.18,4096.92,4091.79,4057.44,4095.38,4044.1,4084.62,4131.79,4153.33,4086.15,4287.69,4077.44,0
12_32_16,68,4139.49,4129.23,4104.62,4099.49,4091.28,4060,4094.36,4035.9,4068.72,4142.05,4134.36,4089.74,4306.15,4083.08,0
12_32_16,69,4128.72,4125.64,4098.46,4098.97,4075.9,4062.05,4083.59,4017.44,4030.26,4080.51,4120,4077.44,4294.87,4077.44,0
12_32_16,70,4132.82,4138.46,4104.62,4095.38,4117.95,4074.36,4086.15,4024.1,4044.1,4077.95,4136.41,4084.62,4287.18,4076.92,0
12_32_16,71,4163.08,4170.26,4122.56,4103.08,4157.95,4081.03,4104.62,4047.69,4082.56,4138.97,4156.92,4111.79,4312.82,4098.97,0
12_32_16,72,4172.82,4166.67,4127.18,4119.49,4086.15,4066.15,4104.1,4047.18,4077.44,4129.74,4157.44,4111.79,4302.05,4108.21,0
12_32_16,73,4156.41,4133.85,4120.51,4127.18,4044.1,4057.44,4093.33,4042.05,4071.79,4110.77,4153.33,4101.54,4293.85,4110.26,0
12_32_16,74,4145.64,4136.41,4112.82,4109.23,4125.13,4075.38,4092.82,4045.64,4067.69,4125.64,4135.38,4092.31,4305.13,4095.9,0
12_32_16,75,4147.69,4155.38,4102.56,4094.36,4156.41,4096.41,4088.72,4033.33,4046.67,4102.05,4111.28,4073.85,4289.23,4067.69,0
12_32_16,76,4165.13,4156.92,4113.33,4121.54,4102.05,4087.69,4094.87,4042.56,4076.92,4122.05,4143.08,4093.85,4293.85,4091.79,0
12_32_16,77,4174.36,4151.28,4129.23,4140,4066.15,4066.67,4105.64,4069.23,4112.82,4165.64,4183.08,4130.26,4317.95,4134.87,0
12_32_16,78,4155.9,4138.46,4119.49,4115.38,4091.28,4073.85,4098.46,4058.97,4081.54,4109.23,4156.92,4110.26,4294.36,4107.69,0
12_32_16,79,4152.82,4139.49,4115.38,4106.15,4138.97,4096.92,4100,4051.28,4071.79,4102.56,4133.33,4095.38,4289.23,4087.18,0
12_32_16,80,4168.21,4152.82,4124.62,4117.95,4138.46,4099.49,4113.33,4066.67,4097.44,4161.03,4149.23,4113.85,4308.21,4114.87,0
12_32_16,81,4148.72,4132.31,4113.85,4107.69,4110.26,4094.87,4102.05,4053.85,4072.82,4115.9,4137.44,4094.36,4265.13,4098.46,0
12_32_16,82,4127.69,4111.79,4104.62,4095.38,4113.85,4093.85,4090.77,4041.03,4049.74,4080,4107.18,4074.87,4247.18,4074.36,0
12_32_16,83,4150.26,4129.74,4118.46,4108.72,4115.38,4083.08,4104.62,4061.03,4081.54,4130.26,4124.1,4105.13,4292.82,4096.92,0
12_32_16,83,4150.26,4129.74,4118.46,4108.72,4115.38,4083.08,4104.62,4061.03,4081.54,4130.26,4124.1,4105.13,4292.82,4096.92,0
12_32_16,84,4163.08,4137.95,4126.15,4124.62,4106.15,4082.56,4113.33,4070.26,4095.9,4134.87,4152.31,4121.54,4282.05,4109.23,0
12_32_16,85,4151.79,4124.62,4121.03,4124.1,4107.18,4090.77,4106.67,4060.51,4077.95,4098.46,4153.85,4113.33,4247.69,4095.9,0
12_32_16,86,4153.33,4120,4123.59,4118.46,4071.28,4084.62,4104.1,4063.08,4077.44,4105.13,4156.92,4120.51,4262.56,4087.18,0
12_32_16,87,4151.79,4117.44,4120.51,4109.74,4078.97,4088.21,4105.64,4065.64,4081.03,4118.46,4141.54,4116.92,4269.23,4091.28,0
12_32_16,88,4144.1,4118.46,4110.26,4102.56,4161.03,4096.92,4103.08,4060,4076.92,4125.64,4109.74,4100,4258.97,4107.18,0
12_32_16,89,4146.15,4132.31,4105.13,4097.44,4164.1,4081.54,4095.9,4058.46,4084.62,4133.85,4116.41,4101.03,4270.26,4109.74,0
12_32_16,90,4134.87,4126.15,4103.59,4100,4082.56,4071.79,4088.21,4051.79,4082.05,4117.44,4128.21,4096.92,4261.54,4083.08,0
12_32_16,91,4121.03,4115.38,4105.13,4109.74,4069.23,4079.49,4092.31,4052.82,4064.1,4104.1,4124.62,4092.31,4242.56,4076.92,0
12_32_16,92,4137.44,4122.56,4109.23,4114.36,4087.18,4070.26,4102.05,4070.77,4074.87,4104.62,4139.49,4107.18,4254.36,4098.97,0
12_32_16,93,4145.13,4112.31,4104.62,4111.79,4092.82,4074.87,4103.08,4073.85,4095.38,4109.23,4134.36,4105.13,4256.92,4094.87,0
12_32_16,94,4129.74,4107.69,4097.95,4109.74,4111.79,4097.44,4104.1,4066.15,4092.82,4126.15,4114.36,4090.77,4243.59,4082.05,0
12_32_16,95,4121.54,4122.05,4095.9,4097.95,4108.72,4084.1,4105.13,4069.23,4084.62,4133.33,4112.82,4090.77,4245.13,4081.54,0
12_32_16,96,4120.51,4124.1,4090.77,4083.08,4109.74,4071.28,4100.51,4068.72,4082.05,4108.72,4109.74,4093.33,4255.9,4086.15,0
12_32_16,97,4118.46,4098.46,4088.72,4109.74,4087.18,4085.64,4098.97,4061.03,4075.9,4074.87,4120.51,4095.9,4233.85,4084.62,0
12_32_16,98,4121.54,4084.1,4100,4136.41,4069.23,4091.28,4103.59,4064.1,4082.56,4104.62,4133.33,4105.64,4218.46,4086.15,0
12_32_16,99,4126.67,4117.44,4107.69,4100,4123.59,4095.38,4101.03,4065.64,4087.18,4150.26,4100.51,4099.49,4260.51,4097.44,0
12_32_16,100,4129.74,4140,4104.62,4084.62,4148.72,4096.41,4093.85,4061.03,4085.64,4124.62,4097.44,4097.44,4291.79,4107.18,0
12_32_16,101,4133.33,4115.9,4106.15,4125.64,4099.49,4085.13,4094.87,4064.62,4097.95,4100.51,4139.49,4118.97,4266.15,4109.74,0
12_32_16,102,4136.92,4104.1,4118.46,4136.92,4102.56,4090.26,4101.54,4074.36,4109.74,4129.23,4138.46,4124.1,4252.82,4113.33,0
12_32_16,103,4142.05,4134.87,4123.08,4110.77,4151.79,4110.26,4107.69,4081.54,4104.62,4150.26,4112.82,4113.33,4278.97,4116.41,0
12_32_16,104,4143.08,4131.28,4112.82,4113.85,4102.56,4104.1,4107.18,4081.54,4090.77,4129.23,4114.87,4116.41,4286.67,4109.74,0
12_32_16,105,4132.31,4087.69,4106.15,4137.44,4055.9,4088.21,4104.1,4081.03,4094.36,4106.15,4134.87,4123.08,4265.64,4111.79,0
12_32_16,106,4121.54,4080,4112.31,4127.18,4121.03,4097.44,4105.64,4082.05,4106.15,4114.87,4134.36,4112.82,4239.49,4115.9,0
12_32_16,107,4132.31,4116.92,4118.46,4105.13,4172.31,4110.77,4106.67,4081.54,4109.74,4140,4112.31,4105.13,4249.74,4109.23,0
12_32_16,108,4147.18,4130.26,4121.54,4119.49,4124.1,4109.23,4109.74,4083.08,4111.79,4142.56,4102.56,4117.44,4283.08,4118.97,0
12_32_16,109,4131.79,4080.51,4121.03,4143.08,4073.85,4102.05,4108.72,4079.49,4104.62,4123.08,4114.36,4120,4263.59,4127.18,0
12_32_16,110,4122.05,4067.18,4120.51,4128.72,4130.26,4104.62,4105.64,4076.41,4100,4134.87,4125.64,4117.95,4233.85,4116.92,0
12_32_16,111,4141.03,4114.87,4120,4107.18,4152.31,4109.74,4103.59,4076.92,4104.1,4163.08,4115.9,4118.46,4250.77,4112.82,0
12_32_16,112,4139.49,4105.13,4118.97,4123.08,4069.74,4106.15,4102.05,4075.38,4102.56,4141.54,4109.23,4115.38,4246.15,4113.85,0
12_32_16,113,4130.77,4064.1,4126.67,4148.72,4081.03,4106.15,4113.33,4088.21,4108.72,4123.08,4124.62,4128.21,4227.18,4115.38,0
12_32_16,114,4143.59,4094.36,4135.9,4134.87,4178.46,4108.72,4126.15,4109.74,4130.77,4172.31,4128.72,4145.13,4254.36,4132.82,0
12_32_16,115,4136.41,4122.56,4123.59,4101.54,4169.74,4114.87,4114.36,4097.95,4129.23,4195.38,4097.95,4124.62,4262.05,4129.74,0
12_32_16,116,4108.21,4080,4111.28,4106.67,4101.54,4123.08,4097.95,4073.85,4101.03,4137.44,4085.64,4098.97,4225.13,4100,0
12_32_16,117,4118.46,4061.03,4121.54,4135.38,4105.13,4112.31,4110.26,4086.67,4106.67,4126.67,4106.15,4115.38,4223.08,4099.49,0
12_32_16,118,4136.41,4089.23,4125.64,4126.15,4128.72,4098.97,4117.95,4101.03,4124.1,4171.79,4107.18,4127.18,4233.85,4112.31,0
12_32_16,119,4125.64,4103.08,4115.9,4113.33,4111.79,4107.18,4107.18,4091.28,4115.38,4157.95,4106.15,4118.97,4214.36,4108.21,0
12_32_16,120,4123.59,4077.44,4122.05,4137.95,4093.33,4113.33,4105.64,4088.21,4105.13,4123.08,4112.31,4122.05,4209.74,4109.23,0
12_32_16,121,4133.33,4051.79,4129.23,4142.05,4101.54,4105.64,4112.82,4094.36,4108.21,4137.95,4098.97,4125.13,4231.28,4117.44,0
12_32_16,122,4130.77,4075.38,4120,4119.49,4137.44,4111.28,4111.28,4092.31,4113.33,4155.38,4094.87,4121.03,4235.9,4113.85,0
12_32_16,123,4134.36,4114.36,4121.54,4121.03,4152.82,4112.31,4110.26,4094.87,4125.64,4171.79,4122.05,4133.33,4225.13,4117.44,0
12_32_16,124,4146.15,4106.15,4132.82,4135.38,4154.36,4105.13,4116.92,4106.67,4142.56,4183.08,4137.44,4150.77,4226.67,4133.85,0
12_32_16,125,4113.33,4051.79,4112.82,4122.05,4126.15,4113.85,4106.15,4087.18,4105.64,4131.28,4093.33,4116.92,4211.28,4113.33,0
12_32_16,126,4086.67,4037.44,4094.36,4110.26,4075.38,4113.33,4095.38,4065.13,4066.15,4101.54,4060.51,4085.13,4196.92,4090.77,0
12_32_16,127,4127.69,4079.49,4119.49,4123.59,4097.95,4094.87,4109.74,4092.31,4109.23,4146.15,4106.67,4126.15,4218.46,4122.56,0
12_32_16,128,4142.05,4094.87,4129.74,4125.64,4158.46,4100.51,4113.85,4107.69,4136.92,4156.41,4131.79,4148.21,4216.92,4137.44,0
12_32_16,0,4104.62,4068.21,4106.15,4124.1,4142.05,4112.82,4097.95,4085.13,4099.49,4135.9,4085.64,4109.74,4192.82,4106.15,0
12_32_16,1,4114.36,4065.13,4109.74,4136.41,4083.59,4095.9,4105.64,4092.31,4097.44,4151.28,4081.03,4113.33,4206.15,4107.69,0
12_32_17,2,4147.69,4086.15,4126.15,4137.44,4085.13,4089.23,4123.08,4116.41,4130.77,4157.95,4117.95,4144.62,4221.54,4136.92,0
12_32_17,3,4122.56,4080,4111.28,4122.56,4135.38,4108.21,4113.33,4103.08,4122.56,4130.26,4103.59,4124.1,4195.38,4123.59,0
12_32_17,4,4091.79,4060.51,4095.9,4110.77,4156.92,4113.33,4104.1,4090.77,4104.62,4130.26,4080.51,4104.1,4181.03,4101.03,0
12_32_17,5,4093.85,4045.64,4092.82,4100.51,4105.64,4095.38,4101.03,4092.31,4101.03,4134.36,4073.85,4106.67,4183.08,4098.46,0
12_32_17,6,4099.49,4037.44,4093.85,4115.9,4057.44,4080,4093.33,4085.64,4097.44,4105.64,4074.87,4107.18,4164.62,4095.38,0
12_32_17,7,4108.72,4058.46,4113.33,4145.64,4105.64,4081.03,4106.67,4098.97,4114.87,4117.95,4098.97,4129.23,4173.85,4111.28,0
12_32_17,8,4122.05,4078.46,4124.1,4132.31,4144.1,4091.79,4125.64,4118.46,4129.74,4171.28,4106.15,4148.72,4207.69,4133.33,0
12_32_17,9,4116.41,4058.46,4107.18,4105.64,4103.59,4099.49,4114.87,4101.03,4105.64,4164.1,4075.38,4129.23,4197.95,4123.08,0
12_32_17,10,4105.64,4047.69,4100,4112.82,4094.36,4096.92,4101.54,4085.64,4091.28,4120,4074.87,4120.51,4170.26,4107.18,0
12_32_17,11,4115.9,4077.95,4112.82,4119.49,4134.87,4091.79,4113.85,4106.15,4120,4136.92,4107.69,4141.03,4180.51,4116.41,0
12_32_17,12,4117.44,4071.79,4110.77,4120.51,4123.08,4093.85,4121.03,4112.82,4136.41,4159.49,4105.13,4143.08,4190.77,4120,0
12_32_17,13,4090.77,4017.95,4092.31,4132.31,4089.23,4103.59,4106.15,4089.74,4100.51,4117.44,4077.95,4120,4165.64,4098.46,0
12_32_17,14,4088.72,4016.92,4090.77,4125.64,4109.23,4111.28,4103.08,4089.23,4083.08,4110.26,4077.44,4118.46,4158.46,4095.38,0
12_32_17,15,4119.49,4062.05,4105.13,4112.31,4131.79,4103.08,4117.44,4109.23,4117.95,4163.08,4083.59,4138.46,4185.64,4127.18,0
12_32_17,16,4121.03,4066.67,4108.21,4118.97,4116.92,4093.85,4117.95,4109.74,4128.21,4166.67,4080.51,4141.54,4189.23,4134.36,0
12_32_17,17,4108.21,4039.49,4103.59,4126.67,4094.36,4090.77,4109.23,4104.1,4107.18,4124.1,4095.38,4140.51,4175.9,4112.82,0
12_32_17,18,4106.67,4020.51,4100,4127.69,4081.54,4093.33,4107.18,4102.05,4102.56,4107.69,4104.62,4141.54,4168.21,4107.18,0
12_32_17,19,4094.87,4016.41,4095.9,4120.51,4087.69,4098.97,4105.13,4087.69,4097.95,4112.82,4072.82,4127.18,4154.87,4107.69,0
12_32_17,20,4101.03,4040.51,4103.59,4115.38,4114.36,4098.46,4108.21,4092.31,4103.08,4143.59,4062.56,4128.21,4157.44,4108.72,0
12_32_17,21,4121.03,4056.41,4116.41,4127.18,4116.92,4092.82,4114.87,4114.36,4125.64,4164.62,4085.64,4148.72,4180,4128.21,0
12_32_17,22,4103.59,4023.59,4105.64,4134.36,4078.46,4091.79,4105.13,4101.03,4109.23,4111.28,4083.08,4140.51,4163.08,4123.59,0
12_32_17,23,4084.62,4011.79,4089.23,4110.26,4088.21,4098.97,4094.87,4075.38,4075.38,4083.08,4069.74,4119.49,4132.31,4094.87,0
12_32_17,24,4106.15,4052.31,4096.92,4099.49,4131.79,4098.46,4104.1,4090.26,4091.28,4141.54,4064.62,4127.18,4165.64,4114.36,0
12_32_17,25,4125.13,4064.62,4110.77,4129.74,4091.79,4087.69,4112.31,4113.33,4116.92,4167.18,4071.79,4141.03,4197.95,4148.21,0
12_32_17,26,4116.92,4038.97,4109.23,4146.67,4047.18,4088.21,4108.72,4105.13,4109.74,4125.13,4099.49,4143.08,4166.67,4129.74,0
12_32_17,27,4109.23,4036.92,4105.64,4129.74,4111.79,4101.03,4106.15,4089.74,4099.49,4101.03,4111.79,4144.62,4140.51,4106.15,0
12_32_17,28,4110.26,4052.31,4108.72,4117.95,4147.69,4103.08,4107.18,4093.33,4104.1,4121.54,4081.03,4137.95,4156.41,4122.56,0
12_32_17,29,4104.1,4042.56,4102.05,4120.51,4075.38,4098.46,4100.51,4090.77,4101.54,4145.13,4045.13,4116.92,4166.67,4128.21,0
12_32_17,30,4098.46,4033.33,4097.95,4125.64,4061.54,4098.97,4096.41,4081.03,4095.9,4137.44,4063.59,4117.95,4157.44,4114.87,0
12_32_17,31,4103.08,4041.03,4105.64,4129.23,4124.1,4096.92,4103.59,4091.28,4104.62,4122.56,4098.46,4141.03,4153.33,4116.41,0
12_32_17,32,4105.13,4044.1,4103.08,4121.54,4131.28,4094.36,4108.72,4099.49,4108.72,4128.72,4084.62,4136.92,4149.23,4114.36,0
12_32_17,33,4104.62,4047.69,4096.92,4114.36,4101.03,4094.87,4105.64,4092.82,4103.59,4129.74,4070.77,4122.05,4151.28,4110.26,0
12_32_17,34,4105.64,4054.87,4105.13,4120.51,4094.36,4089.23,4107.18,4096.92,4110.77,4136.41,4087.69,4131.79,4166.15,4120,0
12_32_17,35,4106.15,4055.9,4110.26,4132.31,4092.82,4089.74,4110.77,4109.74,4125.13,4157.44,4095.9,4143.59,4179.49,4126.15,0
12_32_17,36,4107.69,4049.74,4105.13,4137.44,4086.15,4103.08,4108.72,4105.13,4121.54,4144.1,4095.38,4137.95,4174.87,4123.08,0
12_32_17,37,4107.18,4042.05,4107.18,4130.77,4088.72,4105.13,4107.69,4101.54,4113.85,4121.54,4095.38,4139.49,4155.38,4127.69,0
12_32_17,38,4093.33,4032.31,4103.59,4118.97,4081.54,4099.49,4109.23,4106.67,4114.87,4127.18,4073.85,4137.44,4131.79,4116.41,0
12_32_17,39,4088.21,4034.36,4092.82,4118.46,4077.44,4104.1,4109.74,4105.13,4116.41,4136.92,4064.1,4125.13,4132.82,4099.49,0
12_32_17,40,4094.87,4051.28,4092.82,4127.18,4084.1,4108.72,4110.77,4106.15,4122.56,4142.56,4082.56,4130.77,4153.33,4106.67,0
12_32_17,41,4083.59,4051.79,4092.82,4124.62,4079.49,4105.13,4109.74,4109.23,4125.64,4140.51,4080.51,4136.41,4141.54,4102.05,0
12_32_17,42,4066.15,4040.51,4088.21,4119.49,4076.92,4103.08,4108.72,4106.67,4123.59,4129.74,4069.23,4124.62,4121.54,4083.59,0
12_32_17,43,4058.46,4040.51,4085.13,4123.08,4084.1,4110.77,4111.28,4103.59,4120.51,4129.23,4073.33,4116.41,4126.67,4081.54,0
12_32_17,44,4054.36,4043.59,4082.56,4124.62,4084.62,4118.46,4111.28,4104.62,4122.05,4138.97,4072.31,4118.97,4128.72,4082.56,0
12_32_17,45,4049.74,4042.56,4076.41,4122.05,4078.46,4118.97,4111.28,4107.69,4124.62,4134.87,4069.74,4119.49,4122.56,4074.87,0
12_32_17,46,4050.26,4047.18,4067.69,4123.08,4080,4120,4116.92,4108.72,4125.64,4132.82,4076.41,4119.49,4125.13,4074.87,0
12_32_17,47,4050.77,4053.85,4060,4127.18,4074.36,4123.08,4117.44,4109.23,4129.23,4133.85,4078.46,4121.03,4128.72,4083.59,0
12_32_17,48,4054.36,4054.36,4053.85,4127.18,4069.74,4128.21,4112.31,4113.33,4134.87,4124.1,4077.95,4120.51,4124.62,4091.28,0
12_32_17,49,4060,4060,4050.77,4125.64,4102.56,4136.41,4114.87,4123.08,4143.59,4135.38,4077.44,4119.49,4128.21,4102.56,0
12_32_17,50,4063.59,4085.64,4050.77,4126.15,4138.46,4138.46,4125.13,4128.72,4155.38,4154.87,4076.92,4121.54,4137.95,4108.72,0
12_32_17,51,4060.51,4104.62,4051.79,4123.59,4113.85,4126.67,4125.13,4123.59,4156.92,4144.1,4082.56,4124.1,4136.41,4108.72,0
12_32_17,52,4051.79,4106.67,4053.33,4128.21,4081.54,4119.49,4118.46,4123.08,4150.77,4132.31,4085.13,4123.59,4116.41,4115.9,0
12_32_17,53,4044.1,4114.87,4057.44,4138.97,4097.95,4128.72,4125.13,4134.36,4149.74,4142.05,4080,4127.69,4088.21,4123.08,0
12_32_17,54,4038.46,4130.26,4061.54,4135.9,4129.74,4142.05,4137.44,4141.54,4156.41,4145.64,4075.9,4139.49,4077.44,4125.64,0
12_32_17,55,4029.74,4134.87,4058.46,4126.15,4104.62,4136.92,4133.85,4139.49,4160.51,4138.97,4075.9,4143.59,4077.95,4132.82,0
12_32_17,56,4018.97,4140,4053.85,4131.28,4055.9,4124.62,4122.56,4136.41,4159.49,4133.85,4072.31,4137.95,4064.62,4140.51,0
12_32_17,57,4019.49,4163.59,4052.31,4137.44,4086.15,4130.26,4127.18,4136.41,4154.87,4122.05,4064.62,4134.87,4043.08,4140,0
12_32_17,58,4029.23,4180,4055.38,4127.18,4149.23,4136.41,4133.33,4135.9,4152.82,4120.51,4064.1,4137.44,4038.97,4137.95,0
12_32_17,59,4030.26,4168.72,4058.97,4120.51,4138.97,4129.74,4132.82,4138.46,4162.56,4124.62,4070.26,4145.13,4044.1,4137.95,0
12_32_17,60,4018.46,4143.08,4052.82,4124.1,4061.54,4121.54,4130.77,4138.97,4165.13,4110.77,4073.85,4145.64,4026.15,4129.74,0
12_32_17,61,4002.05,4122.05,4041.54,4124.62,4044.62,4126.15,4128.21,4134.36,4152.82,4099.49,4063.59,4135.9,3990.26,4117.95,0
12_32_17,62,4001.54,4127.18,4040.51,4120,4129.74,4147.18,4132.31,4136.92,4156.92,4123.59,4046.15,4138.46,3980.51,4118.46,0
12_32_17,63,4008.21,4128.72,4044.62,4110.26,4176.41,4156.92,4138.97,4143.08,4170.77,4146.67,4034.87,4145.13,3998.46,4123.59,0
12_32_17,64,3997.95,4102.05,4040.51,4103.08,4123.59,4145.13,4139.49,4141.54,4171.28,4129.74,4040,4141.54,3996.41,4121.03,0
12_32_17,65,3986.15,4085.13,4035.9,4106.67,4078.97,4137.95,4132.82,4138.46,4168.21,4116.41,4045.64,4137.95,3974.87,4115.9,0
12_32_17,66,3987.69,4089.74,4035.9,4108.72,4094.36,4138.97,4127.18,4138.46,4165.64,4113.33,4040.51,4138.97,3969.23,4118.46,0
12_32_17,67,3991.79,4081.54,4036.92,4105.64,4098.97,4135.9,4130.77,4135.9,4157.95,4100,4041.03,4143.08,3962.56,4121.03,0
12_32_17,68,3997.44,4076.41,4045.13,4115.38,4108.72,4148.72,4144.62,4140,4165.13,4115.38,4048.72,4155.38,3955.9,4127.69,0
12_32_17,69,3999.49,4078.46,4049.23,4122.56,4126.15,4157.95,4145.64,4145.64,4177.44,4143.08,4042.56,4154.36,3963.59,4130.26,0
12_32_17,70,3991.28,4064.1,4045.13,4110.77,4103.08,4145.13,4133.85,4139.49,4168.21,4121.54,4025.13,4138.46,3961.54,4122.05,0
12_32_17,71,3995.38,4055.9,4050.77,4111.79,4080,4145.64,4141.03,4140.51,4171.28,4110.77,4036.41,4144.1,3950.77,4127.69,0
12_32_17,72,3989.23,4043.08,4047.69,4121.03,4086.67,4154.87,4140,4140.51,4173.33,4120,4050.26,4144.1,3928.72,4122.05,0
12_32_17,73,3967.18,4023.08,4027.18,4105.64,4109.74,4151.79,4121.54,4128.21,4155.38,4087.69,4028.21,4121.54,3907.18,4093.33,0
12_32_17,74,3981.03,4045.13,4033.85,4093.33,4133.85,4150.77,4128.72,4131.79,4166.15,4096.92,4014.87,4127.18,3932.82,4100.51,0
12_32_17,75,4007.18,4071.79,4054.36,4106.15,4132.31,4150.77,4146.15,4146.67,4191.28,4155.38,4032.82,4150.26,3963.08,4127.18,0
12_32_17,76,3991.79,4044.1,4043.59,4111.28,4078.97,4137.95,4133.33,4138.97,4175.38,4130.26,4032.31,4141.03,3927.18,4111.28,0
12_32_17,77,3974.36,4021.03,4029.74,4106.15,4061.03,4135.9,4124.1,4130.26,4154.36,4076.92,4015.38,4127.69,3900,4094.36,0
12_32_17,78,3993.33,4043.08,4045.13,4106.67,4128.72,4152.31,4139.49,4142.56,4173.33,4113.33,4026.15,4140,3936.41,4118.97,0
12_32_17,79,4003.59,4051.79,4053.85,4103.59,4146.15,4159.49,4144.1,4145.13,4180,4133.33,4044.1,4148.21,3943.08,4127.69,0
12_32_17,80,3988.21,4023.59,4042.05,4100,4082.05,4155.9,4133.85,4132.31,4154.36,4084.1,4034.36,4137.95,3899.49,4103.08,0
12_32_17,81,3984.62,4008.21,4037.44,4103.59,4077.95,4154.36,4132.82,4132.82,4151.79,4090.77,4015.9,4132.31,3897.95,4100,0
12_32_17,82,4000,4032.31,4047.69,4107.69,4117.95,4154.87,4140,4143.59,4173.85,4140,4020.51,4141.03,3933.85,4121.54,0
12_32_17,83,4003.59,4042.05,4050.77,4111.28,4114.87,4157.95,4137.44,4143.08,4176.41,4135.38,4033.85,4140.51,3934.36,4120,0
12_32_17,84,3986.67,4012.31,4041.03,4106.67,4104.62,4156.92,4129.74,4135.38,4161.54,4103.08,4021.54,4125.13,3914.87,4097.95,0
12_32_17,85,3986.15,4010.26,4042.05,4106.67,4101.03,4151.28,4133.33,4142.56,4169.23,4106.67,4015.9,4128.72,3933.33,4097.95,0
12_32_17,86,3998.97,4031.28,4051.79,4118.97,4091.28,4150.77,4140.51,4154.36,4186.67,4126.67,4040,4145.64,3963.08,4113.33,0
12_32_17,87,3993.85,4019.49,4049.23,4114.36,4102.56,4154.87,4140.51,4154.36,4187.18,4131.28,4047.18,4141.54,3968.72,4112.31,0
12_32_17,88,3973.33,3998.46,4036.41,4091.79,4112.31,4155.9,4135.9,4144.62,4178.46,4112.31,4024.1,4119.49,3954.87,4091.79,0
12_32_17,89,3953.33,3983.08,4026.67,4090.26,4074.87,4149.74,4127.18,4129.74,4163.59,4090.77,4009.74,4102.05,3941.03,4071.79,0
12_32_17,90,3957.44,3971.28,4030.77,4104.62,4066.15,4150.26,4124.1,4123.08,4157.44,4085.64,4017.95,4103.59,3948.21,4076.92,0
12_32_17,91,3980,3981.03,4045.64,4107.18,4116.41,4164.62,4134.36,4132.31,4168.21,4094.87,4030.26,4118.97,3965.64,4095.38,0
12_32_17,92,3980.51,3987.18,4047.18,4104.1,4120.51,4174.36,4138.97,4137.95,4174.36,4106.67,4027.69,4123.08,3963.08,4094.36,0
12_32_17,93,3968.72,3974.87,4043.08,4101.54,4089.74,4170.26,4136.41,4141.54,4176.92,4115.38,4024.1,4118.46,3960,4086.15,0
12_32_17,94,3979.49,3982.56,4051.28,4097.95,4108.21,4167.69,4137.95,4148.72,4184.1,4123.08,4032.31,4122.05,3973.33,4090.26,0
12_32_17,95,3988.21,3995.9,4060,4102.56,4143.59,4172.82,4142.56,4146.15,4179.49,4124.62,4032.31,4125.13,3978.97,4091.28,0
12_32_17,96,3977.44,3980,4053.33,4103.59,4119.49,4168.21,4141.03,4140,4168.21,4107.18,4018.97,4118.46,3977.44,4089.74,0
12_32_17,97,3966.67,3958.46,4044.1,4090.77,4084.62,4157.95,4135.9,4138.97,4166.67,4085.13,4010.26,4109.23,3974.36,4086.15,0
12_32_17,98,3972.31,3960,4048.21,4090.77,4097.95,4161.54,4141.54,4143.08,4170.26,4093.33,4016.92,4114.36,3970.26,4083.59,0
12_32_17,99,3982.56,3964.62,4057.95,4099.49,4118.97,4177.95,4149.23,4149.23,4171.79,4115.9,4028.21,4124.1,3982.56,4088.21,0
12_32_17,100,3981.54,3948.72,4061.03,4091.79,4098.46,4182.05,4141.03,4149.23,4171.79,4115.38,4032.82,4125.13,3991.79,4093.85,0
12_32_17,101,3976.41,3934.36,4061.03,4092.31,4079.49,4177.44,4132.82,4146.15,4169.23,4106.15,4029.23,4130.26,3982.56,4096.41,0
12_32_17,102,3982.56,3944.62,4066.67,4101.03,4110.26,4191.79,4142.05,4149.23,4175.38,4123.08,4028.21,4137.44,3987.69,4099.49,0
12_32_17,103,3987.69,3944.62,4064.62,4093.85,4109.23,4195.9,4142.05,4144.1,4176.41,4118.97,4027.69,4125.64,3995.38,4094.87,0
12_32_17,104,3985.13,3927.18,4061.54,4095.38,4091.28,4180.51,4131.28,4137.44,4165.64,4081.03,4032.31,4118.97,3974.87,4087.69,0
12_32_17,105,3994.87,3940,4072.82,4108.21,4128.72,4188.21,4137.95,4150.77,4174.87,4102.05,4044.62,4137.95,3976.41,4097.44,0
12_32_17,106,4005.13,3964.1,4075.38,4105.13,4137.95,4204.1,4144.1,4154.36,4190.26,4146.67,4040.51,4145.64,4006.15,4108.72,0
12_32_17,107,4002.56,3955.9,4068.21,4104.1,4101.03,4196.41,4139.49,4146.15,4186.67,4132.31,4035.38,4140,4002.05,4108.21,0
12_32_17,108,3998.46,3941.54,4071.28,4109.74,4102.05,4198.46,4141.03,4146.67,4182.05,4119.49,4042.05,4141.54,3983.59,4106.67,0
12_32_17,109,3998.46,3946.15,4077.44,4106.67,4130.26,4223.08,4142.56,4147.69,4188.72,4137.95,4046.67,4144.62,3994.36,4106.67,0
12_32_17,110,3997.44,3942.05,4074.87,4111.28,4122.05,4232.82,4139.49,4146.15,4187.69,4128.21,4043.59,4142.05,3998.97,4105.64,0
12_32_17,111,4000,3926.15,4073.33,4118.97,4097.44,4232.82,4141.54,4152.82,4186.67,4117.44,4045.13,4143.59,3981.03,4109.23,0
12_32_17,112,4010.26,3928.72,4077.44,4116.41,4105.64,4244.62,4142.56,4156.92,4191.79,4127.18,4051.28,4151.79,3981.03,4113.85,0
12_32_17,113,4012.82,3945.13,4077.44,4114.87,4137.44,4247.69,4135.9,4148.72,4189.23,4116.41,4048.21,4157.44,3986.67,4109.74,0
12_32_17,114,4008.21,3950.26,4074.87,4110.77,4130.26,4236.41,4135.38,4145.13,4185.64,4123.59,4038.97,4155.9,3975.9,4105.13,0
12_32_17,115,4005.64,3942.56,4071.79,4102.05,4091.79,4235.9,4136.41,4147.18,4181.54,4136.41,4036.92,4148.72,3977.95,4109.23,0
12_32_17,116,4005.64,3936.92,4074.36,4106.67,4099.49,4246.15,4134.36,4149.74,4179.49,4110.26,4048.21,4146.15,3983.59,4111.79,0
12_32_17,117,4004.62,3924.62,4074.87,4119.49,4122.05,4249.23,4133.85,4149.23,4180.51,4092.82,4045.64,4143.59,3960.51,4104.62,0
12_32_17,118,4010.26,3923.08,4072.31,4122.56,4122.56,4253.33,4135.38,4148.21,4182.56,4120,4033.33,4142.56,3956.92,4106.15,0
12_32_17,119,4023.59,3948.21,4076.92,4121.54,4132.82,4260,4137.95,4153.85,4184.1,4145.64,4036.92,4152.31,3993.33,4117.44,0
12_32_17,120,4028.21,3962.05,4079.49,4122.05,4135.9,4254.87,4140,4155.9,4184.62,4128.21,4048.72,4158.46,3991.28,4117.95,0
12_32_17,121,4025.64,3945.13,4075.38,4123.59,4112.82,4240.51,4137.95,4150.26,4183.59,4104.1,4048.72,4153.33,3957.44,4114.87,0
12_32_17,122,4024.62,3930.77,4075.38,4124.62,4111.79,4233.33,4137.44,4148.72,4182.05,4120.51,4044.1,4153.33,3964.1,4113.85,0
12_32_17,123,4032.82,3949.23,4081.03,4123.59,4150.77,4235.9,4138.46,4155.38,4188.72,4148.72,4045.64,4160.51,3986.67,4109.23,0
12_32_17,124,4037.95,3963.08,4085.13,4124.62,4151.79,4240.51,4140,4155.38,4188.21,4140.51,4044.62,4156.92,3981.54,4108.72,0
12_32_17,125,4028.72,3945.13,4086.67,4125.64,4111.28,4235.9,4138.97,4148.21,4176.41,4109.23,4043.08,4149.74,3970.26,4111.79,0
12_32_18,126,4025.64,3932.82,4088.21,4124.62,4116.92,4227.18,4138.46,4150.26,4177.95,4112.82,4048.72,4152.31,3969.23,4106.15,0
12_32_18,127,4037.95,3943.08,4093.33,4131.28,4145.13,4225.13,4140,4153.85,4189.23,4145.13,4049.74,4157.44,3973.33,4110.26,0
12_32_18,128,4041.03,3942.05,4093.33,4132.31,4133.85,4220.51,4135.9,4147.18,4181.03,4136.41,4038.97,4155.38,3973.33,4124.62,0
12_32_18,0,4030.26,3920.51,4080,4118.46,4112.31,4215.38,4131.28,4137.44,4159.49,4089.23,4034.87,4146.67,3955.38,4114.36,0
12_32_18,1,4035.38,3921.54,4076.92,4114.36,4119.49,4213.85,4135.9,4137.95,4164.62,4096.41,4045.64,4148.72,3947.18,4104.62,0
12_32_18,2,4054.87,3948.21,4092.31,4131.28,4125.64,4209.74,4140.51,4147.18,4182.56,4145.64,4048.72,4163.08,3972.82,4122.05,0
12_32_18,3,4057.44,3960.51,4097.44,4133.85,4124.1,4211.79,4137.44,4149.74,4179.49,4144.62,4042.05,4162.56,3987.18,4132.82,0
12_32_18,4,4047.69,3945.13,4087.18,4120.51,4121.54,4212.82,4135.9,4144.1,4167.18,4110.26,4046.67,4149.74,3961.54,4121.03,0
12_32_18,5,4050.77,3934.87,4086.67,4120.51,4125.13,4206.67,4138.97,4140,4166.67,4114.87,4049.74,4150.26,3948.21,4116.92,0
12_32_18,6,4061.54,3944.62,4093.33,4124.62,4139.49,4209.23,4138.46,4141.03,4173.33,4131.28,4045.13,4157.95,3969.23,4126.15,0
12_32_18,7,4061.54,3946.67,4094.36,4122.05,4122.56,4214.36,4136.92,4141.54,4167.69,4113.85,4049.23,4155.9,3973.85,4125.13,0
12_32_18,8,4056.92,3941.03,4093.85,4124.1,4096.92,4203.08,4133.33,4135.9,4156.92,4101.03,4052.82,4151.28,3958.46,4118.46,0
12_32_18,9,4064.1,3938.46,4098.97,4131.79,4110.26,4199.49,4136.41,4137.44,4163.08,4125.64,4049.74,4156.92,3958.46,4128.72,0
12_32_18,10,4065.64,3935.9,4096.92,4125.13,4135.38,4209.74,4138.46,4144.62,4171.28,4135.38,4047.69,4159.49,3960.51,4135.38,0
12_32_18,11,4049.74,3932.31,4084.1,4104.62,4127.18,4198.97,4126.15,4135.38,4156.41,4099.49,4039.49,4145.64,3948.21,4116.41,0
12_32_18,12,4044.62,3928.21,4082.05,4108.21,4101.54,4181.54,4116.92,4124.1,4146.67,4091.28,4035.9,4136.41,3941.03,4100.51,0
12_32_18,13,4055.9,3927.69,4092.82,4126.67,4101.54,4191.28,4125.13,4135.9,4162.05,4121.54,4046.67,4147.18,3947.69,4111.79,0
12_32_18,14,4061.03,3941.54,4095.9,4121.03,4117.44,4198.46,4130.26,4142.56,4165.13,4121.54,4046.67,4152.82,3947.69,4124.1,0
12_32_18,15,4058.97,3952.82,4094.87,4109.23,4116.92,4187.18,4123.08,4128.21,4151.28,4097.95,4035.9,4148.72,3943.08,4122.05,0
12_32_18,16,4064.1,3949.74,4097.44,4121.03,4109.74,4184.1,4121.54,4122.05,4147.69,4090.26,4036.92,4148.72,3944.1,4117.44,0
12_32_18,17,4063.59,3943.08,4095.9,4126.15,4104.1,4186.15,4123.08,4122.56,4145.64,4096.92,4035.9,4142.56,3944.1,4111.79,0
12_32_18,18,4059.49,3941.03,4094.36,4120,4102.56,4182.05,4123.08,4126.15,4147.18,4104.1,4035.9,4137.44,3943.08,4111.79,0
12_32_18,19,4064.1,3942.05,4095.38,4123.08,4118.46,4182.56,4124.1,4132.82,4153.33,4110.26,4038.46,4141.54,3941.03,4112.31,0
12_32_18,20,4064.1,3942.05,4089.74,4120.51,4121.03,4187.69,4121.03,4126.15,4147.69,4102.56,4032.31,4136.92,3934.36,4098.97,0
12_32_18,21,4064.62,3934.36,4090.26,4118.97,4100,4185.64,4120,4126.15,4145.13,4086.15,4047.69,4140.51,3932.31,4094.36,0
12_32_18,22,4070.77,3927.18,4095.9,4125.64,4116.92,4181.54,4125.13,4138.97,4153.33,4090.26,4064.1,4153.33,3938.46,4108.21,0
12_32_18,23,4070.77,3940,4092.31,4111.79,4148.72,4176.41,4125.64,4135.9,4149.74,4114.87,4034.87,4143.59,3941.54,4112.31,0
12_32_18,24,4066.15,3952.31,4087.69,4101.54,4107.69,4170.26,4121.03,4129.23,4144.1,4124.1,4009.74,4131.79,3943.59,4106.15,0
12_32_18,25,4063.08,3932.31,4088.72,4118.46,4071.79,4171.79,4123.59,4132.82,4147.69,4098.46,4034.36,4136.41,3936.41,4104.62,0
12_32_18,26,4060,3917.44,4088.72,4118.97,4119.49,4172.31,4123.08,4126.67,4141.54,4088.21,4054.36,4137.44,3924.1,4105.64,0
12_32_18,27,4065.64,3946.67,4089.23,4105.13,4158.46,4171.79,4120,4124.62,4138.97,4111.28,4045.64,4136.92,3935.9,4107.69,0
12_32_18,28,4076.92,3965.64,4092.31,4112.31,4117.44,4169.74,4123.59,4135.9,4149.74,4113.33,4046.15,4142.05,3951.79,4109.23,0
12_32_18,29,4069.74,3937.95,4091.28,4116.92,4070.77,4158.97,4116.41,4131.28,4144.62,4093.33,4046.15,4140.51,3928.72,4100.51,0
12_32_18,30,4059.49,3929.74,4091.28,4107.18,4095.9,4156.92,4110.26,4123.08,4135.9,4091.79,4041.03,4134.36,3910.26,4093.85,0
12_32_18,31,4063.59,3952.31,4092.31,4101.03,4140,4164.62,4116.92,4126.67,4136.41,4097.95,4045.13,4131.28,3925.64,4092.82,0
12_32_18,32,4061.03,3951.28,4087.69,4100,4123.08,4166.67,4118.97,4124.62,4131.28,4094.87,4038.46,4126.67,3931.79,4089.74,0
12_32_18,33,4047.69,3930.77,4082.05,4105.64,4078.46,4161.54,4113.85,4121.03,4120.51,4074.36,4025.64,4121.54,3913.33,4088.72,0
12_32_18,34,4037.95,3918.46,4076.41,4106.15,4077.44,4155.9,4112.82,4125.13,4115.9,4057.95,4025.64,4115.9,3893.33,4088.21,0
12_32_18,35,4041.03,3928.72,4078.46,4092.31,4112.31,4151.79,4109.74,4127.18,4129.74,4089.74,4029.23,4116.92,3905.13,4088.72,0
12_32_18,36,4056.41,3950.77,4087.18,4094.36,4122.05,4149.23,4104.62,4124.62,4139.49,4121.03,4030.26,4129.74,3933.33,4097.44,0
12_32_18,37,4069.74,3958.46,4092.31,4111.79,4106.15,4155.38,4107.69,4124.62,4124.1,4100,4042.05,4134.87,3935.38,4109.74,0
12_32_18,38,4064.62,3943.08,4089.74,4110.26,4110.77,4162.05,4110.77,4123.59,4111.28,4089.23,4050.77,4128.21,3921.03,4106.67,0
12_32_18,39,4051.79,3939.49,4083.08,4099.49,4116.92,4155.9,4108.21,4123.59,4122.56,4109.23,4038.46,4123.08,3924.1,4092.31,0
12_32_18,40,4060,3954.87,4086.15,4105.13,4096.41,4145.64,4108.21,4123.59,4125.64,4092.31,4031.28,4124.62,3927.18,4093.85,0
12_32_18,41,4076.41,3958.97,4095.38,4115.38,4104.62,4152.31,4110.26,4124.1,4118.46,4075.9,4047.69,4128.21,3909.23,4105.64,0
12_32_18,42,4066.67,3947.18,4090.26,4103.59,4133.33,4161.54,4109.74,4125.64,4123.59,4096.92,4051.79,4124.1,3899.49,4102.05,0
12_32_18,43,4042.56,3934.36,4081.03,4091.79,4110.77,4147.18,4106.15,4117.44,4113.85,4090.77,4026.67,4110.77,3907.69,4086.15,0
12_32_18,44,4046.67,3945.13,4092.31,4103.59,4095.38,4137.44,4109.23,4109.23,4098.97,4085.13,4019.49,4111.79,3914.87,4090.26,0
12_32_18,45,4060.51,3957.44,4095.38,4107.18,4100,4135.9,4105.64,4108.72,4097.95,4089.74,4032.31,4115.9,3906.67,4098.97,0
12_32_18,46,4048.21,3941.03,4078.97,4095.9,4076.41,4131.28,4094.36,4104.1,4095.9,4064.1,4027.69,4100,3888.72,4085.64,0
12_32_18,47,4046.15,3942.05,4084.1,4095.9,4097.95,4143.08,4102.56,4105.13,4098.46,4064.62,4027.18,4097.95,3895.38,4078.97,0
12_32_18,48,4063.08,3963.59,4100,4104.62,4146.15,4154.87,4117.44,4120.51,4114.36,4108.72,4043.08,4118.46,3913.85,4092.82,0
12_32_18,49,4054.87,3951.79,4090.26,4101.54,4115.9,4139.49,4111.28,4120,4111.79,4105.64,4038.97,4113.33,3907.18,4088.72,0
12_32_18,50,4042.56,3931.28,4075.9,4091.79,4088.72,4130.77,4103.59,4106.15,4091.79,4055.9,4024.1,4095.9,3890.26,4070.26,0
12_32_18,51,4060,3948.21,4085.64,4090.77,4115.9,4146.67,4109.23,4106.67,4094.87,4050.26,4022.56,4103.59,3886.67,4076.92,0
12_32_18,52,4069.74,3961.54,4094.36,4103.08,4107.69,4151.28,4111.28,4111.79,4107.18,4079.49,4022.05,4114.36,3895.38,4093.85,0
12_32_18,53,4061.03,3942.05,4089.74,4112.31,4085.64,4136.92,4107.69,4107.69,4102.56,4088.21,4023.08,4109.23,3900,4089.74,0
12_32_18,54,4072.31,3945.13,4093.33,4103.08,4114.36,4131.28,4106.67,4108.21,4097.95,4074.36,4033.33,4109.74,3898.46,4085.64,0
12_32_18,55,4094.36,3977.95,4107.69,4106.15,4143.08,4144.1,4110.77,4112.31,4106.15,4076.41,4052.31,4123.08,3909.23,4101.03,0
12_32_18,56,4092.82,3986.67,4111.28,4119.49,4120.51,4150.77,4113.85,4111.28,4112.82,4093.33,4063.59,4129.74,3917.95,4108.21,0
12_32_18,57,4070.26,3957.44,4100,4111.79,4082.05,4142.05,4109.74,4105.64,4102.56,4077.44,4048.21,4118.97,3899.49,4090.26,0
12_32_18,58,4063.59,3949.23,4095.38,4098.46,4104.1,4142.05,4106.67,4105.64,4097.95,4073.33,4033.33,4114.87,3893.85,4084.62,0
12_32_18,59,4083.59,3974.87,4102.05,4107.69,4133.85,4147.69,4111.79,4108.72,4103.59,4090.26,4047.18,4126.67,3914.87,4102.05,0
12_32_18,60,4093.33,3978.97,4105.13,4121.03,4116.41,4141.54,4112.82,4108.72,4107.18,4087.18,4061.03,4131.28,3914.87,4110.26,0
12_32_18,61,4080,3967.18,4101.54,4111.28,4111.79,4135.38,4107.18,4107.69,4106.15,4085.64,4053.85,4129.23,3909.74,4105.64,0
12_32_18,62,4073.33,3970.77,4100.51,4102.05,4123.08,4140.51,4108.21,4112.31,4106.15,4101.54,4052.31,4134.87,3928.72,4107.69,0
12_32_18,63,4078.46,3977.44,4103.08,4108.72,4107.18,4141.03,4111.28,4117.95,4107.69,4096.92,4065.64,4137.95,3933.85,4109.74,0
12_32_18,64,4085.13,3981.54,4108.21,4112.31,4097.44,4140,4111.28,4121.54,4110.26,4070.77,4076.41,4140,3925.64,4109.23,0
12_32_18,65,4084.62,3978.97,4106.15,4108.21,4097.95,4143.59,4110.26,4123.08,4112.82,4077.44,4074.87,4143.08,3926.67,4110.77,0
12_32_18,66,4071.28,3964.1,4089.74,4103.08,4088.21,4143.08,4106.15,4117.95,4104.62,4102.05,4057.95,4129.23,3924.1,4106.15,0
12_32_18,67,4072.82,3968.21,4089.74,4105.64,4118.97,4142.56,4106.67,4117.44,4107.69,4105.64,4052.82,4123.08,3925.13,4103.08,0
12_32_18,68,4091.28,3996.41,4104.1,4109.23,4133.33,4138.97,4111.28,4124.62,4125.13,4097.44,4066.15,4138.97,3943.59,4109.74,0
12_32_18,69,4086.67,3996.92,4096.92,4109.23,4082.56,4134.87,4109.23,4122.56,4120.51,4093.33,4071.79,4137.95,3945.13,4106.15,0
12_32_18,70,4076.92,3977.44,4090.77,4110.26,4093.85,4145.13,4109.23,4118.46,4110.26,4097.95,4070.26,4125.64,3924.62,4095.9,0
12_32_18,71,4088.72,3978.46,4102.56,4111.28,4141.54,4151.79,4112.31,4121.54,4117.44,4109.74,4062.56,4128.72,3927.69,4102.05,0
12_32_18,72,4095.38,3991.79,4104.1,4104.62,4114.36,4138.97,4109.23,4118.46,4120,4106.15,4051.79,4127.69,3945.64,4106.15,0
12_32_18,73,4089.74,3993.33,4100,4103.08,4095.9,4132.82,4106.15,4110.77,4110.77,4074.36,4057.44,4123.08,3944.1,4102.56,0
12_32_18,74,4082.05,3978.46,4102.56,4108.72,4127.69,4140.51,4109.23,4109.74,4107.69,4065.13,4065.64,4126.67,3940,4105.64,0
12_32_18,75,4072.82,3969.23,4093.33,4106.15,4123.08,4140.51,4107.18,4108.21,4112.31,4088.21,4052.82,4121.03,3942.56,4104.1,0
12_32_18,76,4077.44,3977.44,4090.26,4098.46,4108.21,4136.41,4101.54,4111.28,4120,4103.59,4048.72,4115.9,3944.62,4098.97,0
12_32_18,77,4089.23,3982.05,4103.59,4095.9,4124.1,4137.95,4107.18,4121.03,4127.69,4109.23,4063.59,4124.1,3956.92,4102.56,0
12_32_18,78,4088.21,3977.44,4108.72,4098.46,4125.13,4137.44,4113.85,4123.59,4128.72,4102.05,4068.21,4128.21,3972.31,4109.74,0
12_32_18,79,4083.08,3985.64,4105.64,4104.62,4112.82,4135.9,4111.28,4117.95,4126.67,4085.13,4066.15,4126.67,3966.67,4108.21,0
12_32_18,80,4081.54,3990.77,4108.21,4106.15,4108.72,4136.41,4106.67,4113.85,4122.56,4088.21,4073.85,4123.59,3957.44,4103.08,0
12_32_18,81,4081.03,3982.05,4106.67,4103.59,4118.97,4137.95,4108.21,4110.77,4121.03,4107.18,4074.87,4122.56,3961.54,4102.05,0
12_32_18,82,4080.51,3981.54,4103.59,4104.62,4132.31,4139.49,4110.26,4111.28,4118.97,4100,4058.46,4121.54,3974.36,4104.62,0
12_32_18,83,4086.15,3991.79,4107.69,4107.18,4120,4142.05,4111.79,4116.41,4115.38,4082.56,4058.46,4118.97,3989.74,4107.18,0
12_32_18,84,4103.08,4001.03,4113.33,4109.74,4103.08,4144.1,4118.46,4124.62,4128.21,4090.26,4090.26,4130.77,3992.31,4111.28,0
12_32_18,85,4103.08,3991.79,4110.26,4112.82,4106.15,4144.1,4117.44,4124.1,4134.36,4095.38,4095.9,4134.87,3974.36,4107.18,0
12_32_18,86,4083.59,3979.49,4104.1,4105.13,4114.36,4142.56,4105.64,4114.36,4116.41,4089.23,4064.1,4116.92,3966.15,4093.33,0
12_32_18,87,4092.31,3994.36,4107.69,4101.03,4114.87,4142.05,4108.21,4120,4120.51,4100.51,4069.23,4120.51,3979.49,4098.46,0
12_32_18,88,4108.21,4005.13,4113.33,4110.77,4115.38,4139.49,4117.44,4130.77,4141.03,4110.26,4093.33,4138.46,3985.64,4113.33,0
12_32_18,89,4093.33,3993.85,4109.23,4110.77,4116.41,4135.9,4111.28,4123.08,4129.74,4094.87,4075.9,4125.64,3979.49,4107.69,0
12_32_18,90,4092.82,4001.54,4105.64,4102.05,4113.85,4135.9,4107.18,4116.92,4116.92,4089.23,4063.59,4115.38,3980,4103.08,0
12_32_18,91,4109.23,4010.26,4112.31,4103.59,4102.56,4136.41,4112.82,4125.13,4126.67,4094.87,4082.56,4128.21,3977.95,4108.72,0
12_32_18,92,4105.13,3990.26,4117.95,4113.33,4094.87,4137.44,4111.28,4126.67,4128.72,4094.87,4085.13,4126.67,3974.36,4107.69,0
12_32_18,93,4100,3989.23,4116.41,4110.77,4104.1,4138.46,4109.23,4122.05,4124.62,4096.92,4074.87,4118.97,3977.44,4107.18,0
12_32_18,94,4100,4007.69,4107.69,4099.49,4097.95,4132.82,4112.82,4122.05,4122.05,4087.18,4077.44,4116.41,3968.72,4105.13,0
12_32_18,95,4097.95,4001.03,4102.56,4105.13,4073.33,4130.77,4111.79,4122.56,4115.9,4077.44,4079.49,4113.33,3962.56,4095.38,0
12_32_18,96,4104.1,3995.9,4110.77,4120.51,4089.23,4139.49,4112.82,4121.54,4122.05,4097.95,4076.92,4119.49,3977.95,4092.82,0
12_32_18,97,4111.28,4012.82,4122.56,4114.87,4133.85,4144.62,4115.38,4121.54,4128.72,4107.69,4076.41,4127.69,3988.72,4101.03,0
12_32_18,98,4105.64,4010.26,4123.08,4104.1,4127.69,4136.92,4108.72,4119.49,4113.33,4076.41,4077.95,4124.1,3977.95,4104.1,0
12_32_18,99,4106.67,3995.38,4120.51,4111.79,4098.97,4135.9,4108.72,4118.46,4108.72,4069.74,4083.59,4121.54,3969.74,4102.56,0
12_32_18,100,4113.85,4005.64,4124.1,4111.79,4098.97,4135.38,4114.36,4121.03,4121.54,4096.41,4083.59,4125.13,3977.95,4106.67,0
12_32_18,101,4109.74,4010.77,4125.13,4101.54,4095.38,4126.67,4109.23,4114.36,4116.92,4089.23,4076.92,4123.59,3981.03,4111.28,0
12_32_18,102,4100.51,3997.95,4118.46,4105.64,4089.23,4128.72,4103.59,4103.08,4102.05,4065.64,4071.79,4118.46,3971.28,4105.64,0
12_32_18,103,4102.05,4003.59,4116.92,4110.26,4102.05,4137.95,4109.23,4107.69,4106.67,4071.28,4074.36,4118.97,3969.23,4098.97,0
12_32_18,104,4116.92,4026.15,4123.59,4107.18,4109.23,4137.95,4113.85,4120,4116.92,4087.69,4082.56,4124.62,3983.08,4107.69,0
12_32_18,105,4121.03,4019.49,4123.08,4107.18,4089.23,4132.82,4112.82,4118.46,4112.82,4085.13,4081.54,4125.64,3985.64,4115.9,0
12_32_18,106,4105.64,3991.28,4119.49,4106.67,4069.23,4130.26,4111.28,4109.74,4104.62,4070.26,4074.87,4121.54,3973.85,4113.33,0
12_32_18,107,4102.05,3991.79,4121.54,4106.15,4080.51,4127.18,4108.72,4108.72,4105.13,4071.79,4076.92,4123.08,3968.21,4110.77,0
12_32_18,108,4114.36,4010.26,4121.03,4108.21,4117.44,4126.67,4105.13,4108.72,4104.62,4082.05,4076.41,4125.64,3972.31,4109.23,0
12_32_18,109,4120,4016.41,4117.95,4103.59,4113.33,4125.64,4103.59,4106.15,4096.92,4083.08,4074.36,4127.18,3985.64,4112.31,0
12_32_18,110,4116.92,4016.92,4118.97,4098.46,4069.74,4119.49,4104.1,4105.13,4096.92,4082.05,4083.08,4132.31,3992.82,4123.08,0
12_32_18,111,4116.41,4025.13,4121.03,4105.64,4078.46,4120.51,4105.64,4106.67,4103.59,4082.05,4092.31,4136.92,3988.72,4126.67,0
12_32_18,112,4123.59,4038.46,4125.13,4111.28,4123.59,4126.15,4106.67,4110.77,4103.59,4084.62,4092.31,4139.49,3992.82,4124.62,0
12_32_18,113,4124.1,4035.38,4121.54,4109.74,4115.38,4125.13,4106.67,4107.18,4095.9,4080.51,4083.59,4134.36,3994.87,4122.05,0
12_32_18,114,4110.77,4012.82,4108.21,4108.72,4067.18,4120,4102.56,4098.46,4092.82,4069.23,4078.46,4123.08,3976.92,4108.72,0
12_32_18,115,4108.21,4007.69,4109.74,4106.15,4076.41,4118.97,4102.05,4104.1,4101.54,4077.95,4082.05,4122.05,3980.51,4106.67,0
12_32_18,116,4122.56,4035.38,4120.51,4105.64,4109.74,4116.41,4105.13,4113.33,4110.26,4089.74,4086.15,4128.72,3998.97,4121.54,0
12_32_18,117,4125.13,4050.26,4116.92,4112.82,4099.49,4114.87,4103.59,4107.69,4108.72,4085.13,4083.08,4127.18,3994.36,4122.05,0
12_32_18,118,4113.33,4038.46,4109.23,4114.87,4077.44,4116.92,4099.49,4103.08,4103.08,4083.08,4074.87,4120.51,3994.87,4110.26,0
12_32_18,119,4117.95,4026.15,4110.26,4109.74,4084.1,4114.87,4102.56,4105.64,4097.95,4069.74,4073.85,4122.05,4001.54,4108.72,0
12_32_18,120,4124.62,4023.08,4110.77,4107.18,4114.36,4117.44,4104.62,4101.03,4093.85,4055.38,4083.08,4122.05,3980.51,4109.74,0
12_32_18,121,4111.79,4029.23,4107.69,4106.67,4100.51,4122.56,4097.44,4091.28,4091.79,4073.85,4080,4110.77,3967.18,4107.18,0
12_32_18,122,4108.72,4035.9,4105.13,4107.18,4062.05,4112.82,4092.31,4088.21,4090.77,4089.23,4065.64,4107.69,3985.64,4106.15,0
12_32_18,123,4126.15,4040.51,4107.18,4107.18,4088.72,4107.18,4099.49,4096.41,4092.31,4076.41,4067.18,4118.46,3996.92,4108.21,0
12_32_18,124,4129.23,4043.59,4111.28,4106.15,4124.62,4113.85,4104.1,4104.1,4096.92,4064.62,4082.56,4121.03,3985.64,4109.74,0
12_32_19,125,4104.1,4025.64,4103.08,4108.21,4088.72,4109.23,4093.33,4095.9,4090.26,4064.62,4073.85,4102.05,3963.59,4098.97,0
12_32_19,126,4099.49,4018.97,4101.03,4109.23,4080.51,4105.64,4090.77,4091.79,4090.26,4080,4060.51,4096.92,3968.21,4089.74,0
12_32_19,127,4120.51,4048.21,4112.31,4098.46,4123.08,4118.46,4100,4104.1,4104.62,4091.79,4073.33,4116.41,3998.97,4103.08,0
12_32_19,128,4121.54,4051.79,4112.82,4091.79,4105.13,4120,4097.95,4107.18,4107.69,4087.18,4088.72,4123.08,4000,4116.41,0
12_32_19,0,4105.64,4024.62,4106.15,4105.64,4069.23,4107.69,4090.26,4096.41,4096.41,4075.9,4080,4115.38,3980,4108.21,0
12_32_19,1,4105.64,4035.9,4110.77,4113.85,4075.38,4106.67,4092.31,4091.79,4090.77,4057.44,4074.87,4117.44,3982.05,4098.97,0
12_32_19,2,4116.92,4049.74,4118.46,4106.15,4076.92,4111.28,4095.9,4100.51,4099.49,4067.18,4090.26,4127.18,3994.87,4104.1,0
12_32_19,3,4115.38,4029.74,4115.9,4110.26,4086.15,4111.28,4097.44,4104.62,4105.13,4103.59,4086.67,4125.64,3986.15,4108.72,0
12_32_19,4,4122.05,4042.56,4111.79,4122.05,4116.41,4111.28,4098.97,4100,4101.54,4102.56,4071.79,4119.49,3974.36,4106.67,0
12_32_19,5,4136.92,4079.49,4116.92,4122.05,4094.87,4109.23,4097.44,4095.38,4094.87,4075.38,4073.33,4118.97,3971.79,4105.13,0
12_32_19,6,4137.95,4078.97,4116.41,4118.46,4046.15,4101.03,4090.77,4093.33,4085.64,4057.44,4063.08,4107.69,3956.41,4103.59,0
12_32_19,7,4145.64,4080,4108.21,4120.51,4071.79,4096.41,4081.54,4089.23,4074.36,4044.1,4041.03,4095.38,3931.28,4104.1,0
12_32_19,8,4168.21,4118.46,4110.77,4125.64,4110.77,4093.85,4078.46,4082.05,4063.59,4038.97,4031.79,4091.28,3914.36,4107.69,0
12_32_19,9,4178.46,4137.44,4123.08,4140,4074.36,4087.18,4084.1,4078.97,4057.44,4028.72,4029.23,4092.31,3906.67,4108.21,0
12_32_19,10,4187.69,4135.38,4132.31,4154.87,4057.95,4093.85,4090.77,4078.46,4059.49,4012.82,4030.26,4102.05,3894.36,4108.72,0
12_32_19,11,4209.74,4160.51,4136.92,4152.31,4090.26,4104.62,4091.79,4076.41,4060.51,4019.49,4028.72,4107.69,3881.54,4115.9,0
12_32_19,12,4212.82,4189.74,4137.95,4154.36,4093.85,4098.97,4089.23,4074.36,4047.18,4029.74,4005.64,4093.33,3864.1,4112.82,0
12_32_19,13,4205.64,4196.41,4132.31,4162.56,4093.33,4090.26,4086.15,4075.38,4037.95,4019.49,3980,4078.97,3850.77,4097.44,0
12_32_19,14,4215.38,4201.03,4126.67,4159.49,4103.08,4093.33,4082.05,4071.79,4041.03,4004.62,3985.64,4076.92,3848.72,4094.36,0
12_32_19,15,4222.56,4211.28,4126.67,4156.41,4078.46,4091.79,4077.44,4062.05,4035.38,3996.92,3994.36,4072.82,3837.44,4098.46,0
12_32_19,16,4210.77,4212.82,4131.28,4167.69,4047.69,4086.67,4076.41,4064.1,4027.18,3998.46,3986.67,4071.28,3817.44,4093.33,0
12_32_19,17,4204.62,4211.79,4137.95,4183.59,4061.54,4095.9,4080.51,4073.33,4031.79,4001.54,3981.03,4074.36,3812.31,4086.15,0
12_32_19,18,4216.92,4224.1,4140,4178.97,4097.44,4102.56,4082.56,4072.82,4040,4005.13,3981.03,4075.38,3824.62,4091.79,0
12_32_19,19,4224.1,4233.33,4140,4177.95,4095.9,4095.9,4080,4064.1,4035.9,3998.97,3991.79,4079.49,3817.44,4092.31,0
12_32_19,20,4217.44,4224.62,4143.08,4196.92,4052.82,4090.26,4081.54,4060.51,4028.72,3989.74,4001.03,4083.59,3794.36,4081.03,0
12_32_19,21,4216.41,4224.62,4143.08,4197.44,4054.36,4091.28,4081.54,4064.62,4030.77,3996.92,3978.46,4075.9,3803.59,4077.95,0
12_32_19,22,4220.51,4248.72,4134.36,4169.23,4107.18,4094.36,4076.41,4066.67,4030.77,3991.28,3952.31,4067.18,3822.56,4085.64,0
12_32_19,23,4208.21,4248.21,4125.13,4161.03,4110.77,4092.82,4074.87,4064.62,4026.15,3977.44,3961.03,4064.62,3798.97,4075.38,0
12_32_19,24,4192.31,4226.67,4122.56,4173.85,4075.9,4091.79,4077.44,4064.62,4024.62,3998.46,3969.23,4060.51,3782.56,4055.38,0
12_32_19,25,4193.33,4229.23,4122.05,4167.69,4062.56,4086.15,4074.87,4062.05,4015.9,4005.13,3952.31,4054.36,3800.51,4054.36,0
12_32_19,26,4196.92,4229.23,4124.1,4162.56,4070.26,4079.49,4072.82,4055.9,4005.64,3970.77,3947.69,4054.87,3795.38,4060.51,0
12_32_19,27,4195.9,4220,4131.79,4171.28,4070.26,4080.51,4075.38,4056.92,4012.82,3969.23,3961.54,4062.56,3777.44,4061.54,0
12_32_19,28,4198.46,4229.74,4137.44,4175.38,4063.08,4087.69,4077.44,4063.59,4024.1,3992.31,3968.21,4071.28,3790.26,4070.77,0
12_32_19,29,4202.56,4238.97,4139.49,4175.38,4055.9,4093.33,4079.49,4065.64,4021.54,3984.1,3973.33,4079.49,3809.74,4081.03,0
12_32_19,30,4198.97,4228.21,4141.03,4175.38,4045.64,4091.28,4079.49,4063.59,4016.92,3977.95,3972.31,4077.44,3801.03,4074.36,0
12_32_19,31,4197.44,4225.13,4136.41,4172.82,4059.49,4091.79,4076.41,4064.62,4018.46,3990.77,3963.08,4068.72,3788.21,4066.15,0
12_32_19,32,4199.49,4234.36,4128.72,4167.69,4076.41,4096.41,4077.44,4070.77,4022.05,3990.26,3963.59,4066.67,3794.36,4072.82,0
12_32_19,33,4193.33,4229.23,4124.62,4171.28,4051.28,4090.26,4078.97,4071.28,4022.05,3982.05,3966.67,4067.18,3803.08,4079.49,0
12_32_19,34,4182.05,4214.36,4125.64,4177.95,4037.95,4082.56,4077.95,4063.59,4020,3986.67,3959.49,4064.1,3800.51,4073.33,0
12_32_19,35,4170.77,4212.31,4122.56,4168.21,4071.79,4086.67,4073.85,4057.44,4013.33,3981.03,3954.87,4059.49,3795.9,4064.1,0
12_32_19,36,4166.67,4223.59,4116.41,4148.72,4082.56,4092.82,4066.67,4054.87,4005.64,3966.67,3956.41,4055.38,3796.41,4059.49,0
12_32_19,37,4166.67,4226.15,4116.41,4149.74,4048.21,4088.72,4068.21,4054.36,4006.67,3974.36,3952.31,4055.38,3796.41,4060.51,0
12_32_19,38,4161.54,4200,4119.49,4165.64,4035.38,4083.08,4075.38,4057.95,4013.85,3985.13,3955.9,4060.51,3799.49,4065.64,0
12_32_19,39,4161.03,4188.21,4120.51,4170.77,4072.31,4087.18,4077.44,4068.21,4026.15,3988.72,3980,4069.74,3807.69,4071.28,0
12_32_19,40,4180.51,4223.59,4124.1,4163.08,4122.05,4098.46,4079.49,4077.95,4043.59,4011.28,3996.41,4080,3831.79,4085.64,0
12_32_19,41,4191.79,4246.67,4128.21,4154.36,4111.79,4095.9,4082.05,4077.95,4046.67,4026.15,3989.23,4080.51,3852.82,4094.87,0
12_32_19,42,4172.31,4216.92,4121.03,4152.82,4067.18,4079.49,4075.9,4068.21,4027.18,3997.44,3975.9,4067.69,3835.38,4075.38,0
12_32_19,43,4154.36,4193.85,4110.77,4158.46,4075.9,4078.97,4068.21,4064.62,4020,3974.87,3974.36,4062.05,3815.9,4061.54,0
12_32_19,44,4154.87,4196.92,4106.67,4158.46,4064.62,4081.54,4067.18,4067.18,4026.15,3991.79,3977.44,4062.05,3827.69,4070.26,0
12_32_19,45,4151.28,4181.54,4103.59,4151.28,4027.69,4071.79,4069.23,4064.1,4019.49,4000.51,3977.95,4056.92,3833.33,4070.26,0
12_32_19,46,4152.31,4175.38,4104.1,4141.03,4076.41,4075.9,4075.9,4065.13,4020,3997.44,3983.59,4062.05,3828.21,4067.18,0
12_32_19,47,4164.1,4198.46,4109.23,4140.51,4121.54,4094.87,4084.1,4074.36,4038.97,4007.18,3991.28,4074.36,3840.51,4080,0
12_32_19,48,4154.36,4195.38,4108.72,4145.13,4088.72,4094.36,4083.08,4077.95,4041.54,4006.15,3992.31,4071.28,3842.56,4076.41,0
12_32_19,49,4137.44,4169.74,4105.13,4141.03,4048.21,4077.95,4078.46,4074.36,4028.72,3990.77,3987.69,4062.56,3831.28,4063.59,0
12_32_19,50,4147.69,4162.56,4106.67,4135.9,4039.49,4081.03,4078.97,4071.79,4032.82,3997.95,3986.15,4061.54,3838.46,4071.79,0
12_32_19,51,4158.46,4169.23,4106.15,4135.9,4064.1,4093.33,4077.44,4072.31,4042.05,4012.31,3989.74,4061.54,3844.1,4078.97,0
12_32_19,52,4151.79,4174.87,4102.56,4135.9,4107.69,4091.79,4075.9,4074.36,4043.08,4008.21,3996.41,4066.67,3841.54,4073.33,0
12_32_19,53,4152.31,4180.51,4111.28,4141.03,4111.79,4092.31,4087.18,4078.46,4051.28,4010.26,4011.28,4078.46,3853.33,4077.44,0
12_32_19,54,4156.41,4168.72,4116.92,4151.28,4055.38,4097.44,4093.85,4080,4059.49,4020,4025.64,4083.59,3865.13,4085.13,0
12_32_19,55,4151.28,4149.23,4110.26,4153.33,4030.77,4089.74,4079.49,4074.87,4052.82,4022.05,4016.92,4080,3864.1,4082.56,0
12_32_19,56,4152.31,4160.51,4105.64,4137.95,4076.41,4090.26,4076.41,4072.82,4045.64,4017.44,4002.56,4076.41,3863.59,4081.03,0
12_32_19,57,4154.87,4174.87,4110.77,4126.15,4123.59,4110.26,4092.82,4076.41,4052.31,4015.38,4018.97,4077.95,3862.05,4074.36,0
12_32_19,58,4145.64,4156.41,4109.74,4130.26,4114.36,4110.26,4092.82,4078.97,4060.51,4033.33,4027.69,4078.97,3869.23,4064.62,0
12_32_19,59,4133.85,4135.9,4103.59,4138.97,4065.64,4089.74,4078.97,4076.92,4054.87,4035.38,4003.08,4070.26,3880.51,4071.28,0
12_32_19,60,4127.69,4137.95,4104.62,4137.95,4051.28,4088.21,4075.9,4070.77,4046.15,4006.67,3990.77,4060,3872.31,4076.92,0
12_32_19,61,4127.69,4141.54,4103.59,4128.72,4085.64,4100.51,4080,4067.69,4050.26,4001.54,3996.92,4058.46,3862.56,4065.13,0
12_32_19,62,4130.77,4137.95,4098.46,4123.08,4124.62,4111.28,4082.05,4072.31,4059.49,4030.77,3993.85,4059.49,3880,4057.44,0
12_32_19,63,4135.38,4140,4103.08,4131.28,4123.08,4123.59,4085.13,4078.97,4061.03,4033.33,3993.33,4061.03,3901.03,4067.18,0
12_32_19,64,4132.31,4135.38,4110.26,4138.97,4094.87,4127.69,4085.13,4074.87,4055.9,4007.18,4002.05,4062.56,3893.85,4067.69,0
12_32_19,65,4120,4120.51,4104.62,4135.38,4075.38,4123.59,4082.05,4069.23,4050.77,4006.15,4001.54,4063.08,3884.62,4060,0
12_32_19,66,4104.1,4100.51,4093.85,4127.18,4058.97,4122.05,4078.46,4064.1,4040,4003.59,3989.23,4055.9,3886.15,4056.41,0
12_32_19,67,4107.69,4102.56,4093.85,4120,4084.62,4126.67,4076.92,4058.97,4032.82,3994.87,3985.64,4050.26,3889.74,4057.44,0
12_32_19,68,4130.77,4118.97,4098.46,4116.41,4121.03,4126.67,4078.97,4063.08,4042.05,4003.08,4001.54,4061.03,3898.97,4065.64,0
12_32_19,69,4124.62,4102.56,4094.36,4117.95,4087.18,4118.46,4075.38,4065.64,4045.64,4008.21,4008.72,4062.05,3902.05,4064.1,0
12_32_19,70,4101.03,4081.03,4085.64,4124.1,4048.72,4114.87,4072.82,4060.51,4036.41,4005.13,4000.51,4049.23,3894.36,4056.92,0
12_32_19,71,4111.79,4098.46,4088.72,4123.59,4090.26,4123.59,4078.97,4059.49,4039.49,4011.79,4001.54,4052.31,3889.74,4060,0
12_32_19,72,4125.64,4111.79,4089.74,4112.82,4126.15,4129.23,4080,4064.62,4050.26,4024.62,3999.49,4057.95,3900,4062.05,0
12_32_19,73,4110.77,4092.82,4079.49,4105.64,4082.05,4125.64,4073.33,4067.18,4050.77,4026.67,3993.85,4049.23,3910.26,4059.49,0
12_32_19,74,4104.62,4085.13,4082.56,4117.44,4061.54,4131.79,4078.46,4071.28,4053.85,4024.62,4007.18,4050.77,3914.36,4064.1,0
12_32_19,75,4114.36,4097.44,4092.31,4125.13,4100.51,4143.59,4086.15,4076.41,4058.46,4025.13,4017.44,4059.49,3911.28,4065.64,0
12_32_19,76,4108.21,4102.05,4089.74,4111.79,4093.85,4142.56,4084.62,4075.9,4057.44,4032.31,4012.82,4062.05,3909.74,4060,0
12_32_19,77,4104.62,4092.82,4087.69,4108.21,4056.41,4136.92,4089.23,4075.9,4065.64,4035.9,4021.54,4067.69,3918.46,4060.51,0
12_32_19,78,4117.44,4083.59,4088.72,4114.87,4081.03,4140,4092.31,4076.92,4070.77,4029.74,4035.9,4068.72,3913.85,4062.05,0
12_32_19,79,4121.54,4098.46,4085.13,4109.23,4115.9,4143.08,4082.05,4074.87,4060.51,4039.49,4027.69,4063.08,3909.23,4061.54,0
12_32_19,80,4109.23,4114.36,4077.95,4098.97,4090.77,4137.44,4076.41,4068.72,4052.82,4049.74,4009.23,4060,3929.23,4065.64,0
12_32_19,81,4100,4100,4076.41,4101.54,4075.9,4133.33,4080.51,4062.56,4052.31,4043.08,4007.69,4055.9,3944.1,4064.62,0
12_32_19,82,4115.38,4095.38,4085.13,4111.28,4103.59,4137.44,4085.13,4065.13,4056.41,4046.15,4024.62,4062.56,3943.59,4063.59,0
12_32_19,83,4123.59,4105.13,4088.21,4110.26,4090.77,4132.31,4082.05,4066.67,4060,4044.62,4031.28,4069.74,3938.97,4063.08,0
12_32_19,84,4109.23,4093.85,4081.54,4112.82,4064.62,4122.05,4076.41,4064.1,4055.9,4029.23,4027.69,4064.1,3931.79,4058.97,0
12_32_19,85,4111.79,4090.26,4086.67,4115.9,4087.18,4126.67,4077.44,4065.13,4052.31,4033.85,4027.69,4065.64,3936.92,4066.15,0
12_32_19,86,4127.18,4108.21,4095.38,4113.85,4085.13,4127.18,4080,4071.28,4058.97,4053.85,4032.31,4078.46,3953.85,4076.41,0
12_32_19,87,4127.18,4109.23,4092.82,4118.46,4068.72,4124.1,4083.08,4072.82,4062.56,4061.54,4043.59,4083.59,3949.23,4078.46,0
12_32_19,88,4122.05,4105.64,4091.79,4118.97,4107.18,4131.28,4088.72,4071.79,4055.9,4061.54,4045.13,4078.97,3937.44,4080.51,0
12_32_19,89,4114.87,4104.1,4090.26,4106.15,4104.1,4121.03,4084.1,4070.26,4044.62,4050.26,4022.56,4067.18,3937.95,4069.74,0
12_32_19,90,4108.21,4093.85,4087.69,4101.54,4063.08,4108.72,4079.49,4069.74,4045.64,4045.13,4017.44,4065.13,3944.62,4061.54,0
12_32_19,91,4110.77,4087.18,4091.28,4110.26,4070.77,4121.03,4086.15,4070.77,4053.85,4045.64,4031.79,4075.9,3947.18,4069.74,0
12_32_19,92,4107.18,4081.54,4090.26,4115.38,4075.38,4118.46,4081.03,4062.05,4040.51,4024.62,4030.26,4071.28,3931.79,4067.18,0
12_32_19,93,4107.69,4087.18,4089.74,4109.74,4080,4100,4070.26,4062.56,4031.28,4028.72,4028.72,4065.64,3929.74,4061.03,0
12_32_19,94,4119.49,4106.15,4095.38,4098.46,4108.21,4105.13,4074.36,4071.28,4044.62,4064.62,4036.41,4080,3954.36,4075.9,0
12_32_19,95,4119.49,4101.54,4093.85,4094.36,4092.82,4110.77,4074.36,4062.05,4043.08,4054.36,4032.31,4080.51,3955.9,4080,0
12_32_19,96,4115.9,4081.54,4091.28,4103.59,4064.1,4103.08,4071.79,4054.36,4029.23,4023.59,4035.38,4073.85,3935.38,4069.74,0
12_32_19,97,4123.08,4091.79,4099.49,4113.33,4080,4106.15,4078.97,4065.64,4038.97,4042.56,4053.33,4086.15,3941.54,4082.05,0
12_32_19,98,4127.69,4109.23,4106.67,4116.92,4084.1,4111.28,4078.97,4070.77,4049.23,4062.05,4052.82,4095.9,3963.08,4093.33,0
12_32_19,99,4127.69,4104.62,4100,4112.82,4066.15,4106.67,4074.36,4066.15,4040.51,4034.87,4042.05,4089.74,3957.95,4080.51,0
12_32_19,100,4129.74,4096.92,4094.36,4108.21,4080.51,4105.64,4079.49,4073.85,4045.13,4035.9,4045.13,4086.15,3942.56,4072.82,0
12_32_19,101,4124.1,4092.82,4097.95,4110.26,4086.67,4107.18,4084.1,4078.46,4055.9,4066.67,4047.69,4088.21,3950.26,4085.13,0
12_32_19,102,4120.51,4093.85,4094.87,4107.69,4078.46,4106.67,4083.59,4068.21,4044.62,4057.95,4041.03,4084.62,3964.62,4088.21,0
12_32_19,103,4121.54,4103.59,4086.67,4102.56,4075.38,4103.59,4083.59,4062.05,4032.82,4037.95,4043.59,4082.05,3959.49,4080.51,0
12_32_19,104,4123.08,4109.23,4089.23,4107.18,4081.03,4105.13,4084.1,4071.28,4042.56,4052.31,4057.44,4086.15,3961.03,4083.59,0
12_32_19,105,4126.67,4102.56,4097.44,4111.79,4076.92,4110.77,4084.62,4076.92,4051.28,4058.97,4061.03,4094.36,3974.36,4087.69,0
12_32_19,106,4124.1,4088.72,4092.31,4106.67,4061.03,4107.69,4081.54,4066.15,4044.62,4042.56,4053.33,4092.31,3967.69,4086.67,0
12_32_19,107,4120,4092.31,4086.15,4106.67,4082.05,4103.59,4082.05,4066.67,4045.13,4055.9,4057.95,4089.23,3967.69,4090.77,0
12_32_19,108,4126.15,4109.74,4096.92,4109.74,4094.36,4107.18,4090.26,4079.49,4054.87,4069.23,4072.31,4098.97,3983.08,4094.87,0
12_32_19,109,4135.38,4108.21,4105.64,4112.82,4073.33,4108.72,4089.23,4077.95,4055.38,4055.38,4076.41,4106.67,3976.92,4093.33,0
12_32_19,110,4137.95,4097.95,4102.05,4114.87,4072.82,4106.15,4084.1,4071.79,4053.85,4060.51,4069.23,4106.15,3971.79,4093.33,0
12_32_19,111,4136.92,4099.49,4098.46,4110.26,4086.67,4108.72,4088.21,4077.44,4057.95,4079.49,4068.21,4106.15,3989.74,4094.87,0
12_32_19,112,4131.79,4097.44,4099.49,4110.26,4067.69,4107.18,4088.72,4077.95,4056.92,4064.62,4071.79,4106.67,3993.85,4094.87,0
12_32_19,113,4130.77,4100,4101.54,4118.97,4064.62,4106.67,4085.13,4072.82,4054.36,4043.08,4073.33,4109.74,3983.59,4091.79,0
12_32_19,114,4141.54,4120.51,4107.18,4121.54,4087.69,4112.31,4091.79,4078.97,4062.05,4072.31,4082.56,4119.49,3993.33,4093.85,0
12_32_19,115,4145.64,4112.31,4109.74,4122.56,4074.36,4110.77,4092.82,4087.69,4069.23,4105.13,4095.38,4126.67,4002.05,4108.21,0
12_32_19,116,4138.46,4092.31,4105.64,4125.13,4084.62,4113.85,4088.72,4086.15,4065.64,4083.08,4097.44,4125.64,3993.33,4108.72,0
12_32_19,117,4140.51,4110.26,4107.69,4115.9,4110.77,4122.05,4092.31,4080,4063.59,4060,4086.67,4120.51,3990.26,4094.36,0
12_32_19,118,4142.05,4117.95,4102.56,4102.56,4066.67,4111.28,4088.21,4074.87,4063.08,4078.46,4074.87,4110.26,3999.49,4095.38,0
12_32_19,119,4135.9,4096.92,4095.9,4109.23,4029.23,4098.46,4078.97,4074.87,4066.15,4098.97,4078.46,4110.77,4010.77,4109.23,0
12_32_20,120,4136.41,4093.85,4102.56,4119.49,4069.74,4106.15,4080.51,4079.49,4074.87,4096.92,4095.9,4123.08,4008.72,4107.18,0
12_32_20,121,4138.46,4102.56,4107.18,4113.33,4110.26,4117.44,4086.15,4081.54,4074.87,4091.28,4100.51,4122.56,3999.49,4097.95,0
12_32_20,122,4140,4115.38,4106.15,4105.64,4112.31,4118.97,4090.77,4086.15,4073.85,4095.9,4094.36,4118.97,4010.26,4101.03,0
12_32_20,123,4141.54,4121.03,4105.64,4113.33,4092.82,4113.85,4092.31,4090.77,4073.33,4098.46,4095.9,4124.62,4024.1,4106.67,0
12_32_20,124,4134.36,4100.51,4102.56,4120,4067.69,4105.64,4089.74,4087.69,4070.77,4097.44,4097.95,4125.64,4013.85,4108.21,0
12_32_20,125,4125.64,4091.79,4096.41,4108.72,4066.15,4107.18,4088.72,4084.1,4071.79,4094.87,4092.31,4120,4005.64,4101.54,0
12_32_20,126,4125.13,4106.67,4092.31,4103.08,4073.85,4114.87,4090.77,4085.13,4070.26,4079.49,4092.82,4118.97,4008.72,4092.82,0
12_32_20,127,4125.13,4108.21,4091.28,4107.18,4077.95,4113.33,4090.77,4085.13,4067.69,4078.97,4094.87,4118.97,4004.62,4089.23,0
12_32_20,128,4122.05,4096.41,4091.79,4105.64,4075.38,4107.18,4091.79,4082.56,4071.28,4099.49,4085.64,4116.41,4006.15,4092.82,0
12_32_20,0,4119.49,4082.56,4092.31,4106.67,4060,4106.15,4093.33,4083.59,4072.82,4107.69,4079.49,4108.21,4007.18,4089.74,0
12_32_20,1,4120,4083.08,4089.74,4109.74,4055.9,4110.26,4093.85,4087.18,4066.67,4087.69,4084.62,4101.54,4002.56,4085.64,0
12_32_20,2,4123.59,4089.74,4091.79,4105.13,4055.9,4109.23,4094.36,4089.74,4067.69,4067.18,4098.46,4112.31,4006.15,4099.49,0
12_32_20,3,4130.26,4083.08,4101.03,4106.15,4072.31,4106.15,4098.46,4090.26,4077.44,4081.54,4110.77,4124.1,4009.23,4107.18,0
12_32_20,4,4138.46,4101.54,4104.62,4107.18,4120.51,4108.72,4099.49,4091.28,4085.13,4120,4102.56,4118.97,4020,4100.51,0
12_32_20,5,4136.92,4125.13,4096.41,4102.56,4112.82,4108.21,4092.82,4091.79,4082.05,4128.21,4091.28,4114.36,4032.82,4099.49,0
12_32_20,6,4124.1,4100.51,4092.82,4112.31,4067.69,4105.13,4086.67,4088.72,4075.38,4103.59,4101.03,4118.97,4022.56,4104.1,0
12_32_20,7,4126.67,4094.36,4105.64,4120.51,4079.49,4105.13,4090.26,4091.28,4085.13,4106.67,4112.82,4125.13,4022.56,4108.72,0
12_32_20,8,4140,4120,4110.26,4114.87,4087.18,4105.13,4093.85,4093.33,4090.77,4116.92,4110.77,4126.67,4037.44,4109.23,0
12_32_20,9,4139.49,4115.38,4102.05,4109.23,4076.92,4106.67,4090.77,4090.77,4081.54,4102.56,4110.77,4125.64,4031.79,4105.64,0
12_32_20,10,4135.38,4103.08,4099.49,4113.33,4090.77,4107.69,4089.23,4090.26,4081.03,4095.38,4110.77,4123.59,4024.1,4102.05,0
12_32_20,11,4134.87,4096.92,4101.54,4118.46,4077.44,4104.1,4092.31,4091.28,4084.62,4098.46,4105.13,4122.05,4026.15,4104.62,0
12_32_20,12,4138.46,4094.87,4103.59,4114.36,4074.36,4107.18,4095.9,4092.31,4081.54,4114.36,4106.67,4125.13,4024.1,4113.85,0
12_32_20,13,4141.54,4112.31,4106.67,4103.08,4093.33,4108.72,4093.85,4090.77,4076.41,4109.23,4105.13,4126.67,4028.21,4116.41,0
12_32_20,14,4138.97,4116.41,4106.67,4104.1,4072.82,4101.54,4091.28,4091.28,4076.41,4077.44,4103.59,4126.15,4028.72,4108.21,0
12_32_20,15,4136.41,4096.92,4106.15,4112.31,4069.74,4104.1,4093.33,4093.85,4081.54,4081.03,4105.13,4127.18,4019.49,4103.59,0
12_32_20,16,4138.46,4103.08,4107.69,4102.05,4108.21,4109.23,4093.33,4089.23,4080,4111.28,4098.46,4128.21,4026.67,4108.72,0
12_32_20,17,4133.33,4113.85,4105.13,4093.85,4093.33,4100,4091.28,4081.54,4069.74,4094.87,4086.67,4122.05,4030.77,4100,0
12_32_20,18,4123.59,4098.97,4097.95,4104.62,4057.44,4093.33,4092.31,4081.03,4069.23,4069.74,4087.69,4117.95,4014.87,4086.67,0
12_32_20,19,4120.51,4078.97,4093.33,4109.23,4056.92,4092.31,4088.21,4079.49,4070.26,4089.23,4094.36,4122.05,4010.77,4091.79,0
12_32_20,20,4120,4076.41,4090.77,4094.87,4055.9,4085.64,4081.03,4074.36,4063.08,4102.05,4087.69,4117.95,4021.03,4093.33,0
12_32_20,21,4122.56,4098.97,4090.77,4082.05,4072.82,4084.62,4085.64,4075.9,4065.64,4088.21,4084.62,4112.82,4028.72,4085.64,0
12_32_20,22,4119.49,4106.15,4089.74,4083.59,4083.59,4087.69,4091.28,4076.41,4065.13,4070.26,4090.77,4110.26,4022.56,4082.56,0
12_32_20,23,4116.92,4092.82,4092.31,4098.46,4074.87,4089.74,4092.31,4080.51,4063.08,4077.95,4093.85,4113.33,4021.03,4093.85,0
12_32_20,24,4124.1,4095.38,4100,4104.1,4078.97,4088.72,4094.36,4089.74,4074.87,4112.31,4094.87,4127.69,4037.95,4105.64,0
12_32_20,25,4124.1,4096.92,4096.92,4093.85,4050.26,4074.36,4090.77,4087.69,4074.36,4115.38,4090.77,4128.21,4035.38,4098.97,0
12_32_20,26,4119.49,4083.08,4091.79,4092.31,4031.28,4067.18,4086.67,4083.59,4063.59,4079.49,4089.23,4116.92,4018.97,4088.72,0
12_32_20,27,4123.59,4091.28,4101.03,4100.51,4088.72,4083.08,4093.85,4091.28,4072.31,4070.26,4103.59,4124.62,4030.26,4093.33,0
12_32_20,28,4126.67,4112.31,4109.74,4104.62,4126.15,4089.74,4097.44,4094.36,4085.13,4101.54,4106.67,4140,4046.67,4103.08,0
12_32_20,29,4123.08,4108.21,4107.69,4105.13,4087.69,4084.1,4094.87,4090.77,4080,4112.31,4096.92,4139.49,4045.64,4106.67,0
12_32_20,30,4122.05,4089.23,4102.05,4108.72,4060.51,4083.59,4094.36,4086.67,4068.72,4084.62,4099.49,4132.31,4040,4103.59,0
12_32_20,31,4121.03,4088.72,4093.85,4108.21,4082.05,4081.54,4090.77,4076.92,4062.05,4071.28,4100.51,4126.15,4026.67,4093.33,0
12_32_20,32,4122.05,4109.23,4094.87,4102.56,4100.51,4078.97,4088.21,4075.38,4063.59,4084.62,4093.33,4120.51,4022.05,4093.33,0
12_32_20,33,4124.1,4100,4101.03,4105.13,4086.15,4083.08,4093.33,4087.18,4070.77,4085.13,4101.03,4122.56,4038.46,4107.69,0
12_32_20,34,4120.51,4081.03,4101.54,4110.77,4071.28,4087.18,4097.44,4093.85,4081.54,4097.95,4108.72,4131.79,4049.74,4109.23,0
12_32_20,35,4122.05,4100.51,4100,4104.1,4091.79,4086.15,4094.87,4093.85,4090.77,4131.28,4099.49,4132.82,4049.74,4100.51,0
12_32_20,36,4123.08,4117.44,4098.46,4093.33,4112.82,4084.1,4093.33,4090.77,4087.18,4116.92,4098.97,4125.13,4050.77,4098.97,0
12_32_20,37,4114.36,4106.67,4093.85,4092.82,4098.97,4087.18,4098.46,4088.72,4083.08,4086.67,4105.64,4120,4052.82,4103.08,0
12_32_20,38,4111.79,4100.51,4098.46,4102.05,4088.21,4093.85,4106.67,4095.38,4093.85,4111.28,4110.26,4126.15,4064.62,4107.18,0
12_32_20,39,4111.79,4085.64,4098.97,4107.69,4071.28,4085.64,4100.51,4097.95,4094.87,4123.08,4111.28,4126.67,4072.82,4105.64,0
12_32_20,40,4106.15,4067.69,4091.28,4106.67,4062.05,4074.36,4090.77,4089.23,4086.67,4096.92,4108.72,4117.44,4067.69,4103.08,0
12_32_20,41,4115.38,4095.9,4101.03,4097.95,4107.18,4086.67,4099.49,4095.38,4100,4105.13,4114.87,4121.03,4081.03,4106.67,0
12_32_20,42,4122.05,4112.82,4107.69,4095.9,4130.26,4102.05,4107.18,4108.21,4111.79,4124.1,4121.03,4127.69,4100.51,4108.72,0
12_32_20,43,4104.62,4079.49,4092.31,4101.03,4099.49,4093.33,4095.9,4097.95,4105.13,4115.38,4116.92,4116.41,4093.85,4104.62,0
12_32_20,44,4103.08,4075.9,4088.72,4095.38,4082.05,4081.03,4089.23,4087.69,4104.62,4122.56,4114.36,4107.69,4093.85,4106.15,0
12_32_20,45,4114.87,4095.38,4098.46,4088.72,4076.41,4084.62,4094.87,4092.31,4105.13,4125.13,4118.46,4111.28,4111.79,4110.26,0
12_32_20,46,4103.59,4079.49,4092.82,4096.92,4077.44,4091.79,4094.36,4092.82,4101.03,4096.41,4121.54,4109.74,4105.64,4104.1,0
12_32_20,47,4099.49,4077.95,4090.26,4099.49,4119.49,4094.36,4096.41,4096.41,4110.26,4109.74,4118.46,4108.72,4097.44,4102.05,0
12_32_20,48,4123.08,4109.74,4103.08,4095.9,4123.08,4096.92,4106.67,4109.74,4126.15,4146.67,4120.51,4121.03,4122.56,4116.92,0
12_32_20,49,4128.21,4104.1,4105.13,4100,4075.9,4098.97,4110.26,4113.85,4126.15,4131.28,4130.26,4127.69,4133.33,4125.13,0
12_32_20,50,4113.85,4083.08,4101.03,4101.03,4091.79,4098.46,4107.18,4107.69,4118.46,4115.9,4132.31,4123.08,4109.74,4120,0
12_32_20,51,4110.77,4086.15,4101.54,4101.03,4103.08,4095.9,4104.62,4106.15,4109.74,4120,4124.1,4118.46,4103.59,4114.87,0
12_32_20,52,4112.82,4083.08,4101.54,4106.15,4069.23,4093.85,4103.08,4106.15,4102.56,4108.72,4126.67,4120,4115.9,4114.36,0
12_32_20,53,4113.85,4082.56,4104.1,4101.03,4105.64,4098.46,4105.13,4107.18,4110.26,4122.56,4128.21,4130.26,4113.33,4116.92,0
12_32_20,54,4118.46,4094.36,4108.21,4096.92,4138.46,4100.51,4105.64,4110.77,4120.51,4144.62,4120,4136.41,4114.36,4123.59,0
12_32_20,55,4115.38,4082.05,4101.54,4108.72,4087.18,4096.92,4103.59,4109.23,4115.38,4115.38,4121.03,4133.33,4121.03,4123.59,0
12_32_20,56,4108.21,4067.18,4094.87,4103.59,4088.72,4101.03,4108.21,4106.15,4109.23,4107.18,4130.26,4131.28,4121.03,4114.87,0
12_32_20,57,4105.64,4077.44,4095.38,4082.56,4113.85,4097.44,4105.13,4103.59,4106.67,4136.92,4125.13,4124.1,4124.1,4115.9,0
12_32_20,58,4107.18,4075.9,4095.38,4084.62,4068.21,4084.62,4096.41,4102.56,4104.62,4125.13,4123.08,4118.97,4127.69,4122.05,0
12_32_20,59,4108.72,4060,4094.36,4095.38,4072.31,4092.31,4102.56,4105.64,4113.33,4109.74,4129.23,4123.08,4122.05,4121.54,0
12_32_20,60,4107.18,4061.54,4095.38,4092.82,4127.69,4110.77,4110.26,4109.23,4124.1,4123.08,4126.67,4122.56,4122.05,4117.44,0
12_32_20,61,4106.15,4071.28,4101.54,4088.72,4110.26,4105.13,4106.15,4109.23,4124.62,4115.38,4130.26,4122.56,4128.21,4117.44,0
12_32_20,62,4114.36,4071.79,4107.18,4093.33,4078.46,4091.28,4106.67,4109.23,4124.1,4115.38,4141.54,4133.33,4125.64,4124.1,0
12_32_20,63,4122.56,4077.44,4104.62,4093.33,4096.92,4092.31,4111.79,4114.36,4130.77,4146.15,4137.95,4137.44,4126.67,4129.23,0
12_32_20,64,4115.9,4074.36,4100.51,4089.23,4097.44,4093.85,4109.74,4114.87,4127.69,4135.38,4123.08,4128.21,4126.15,4123.08,0
12_32_20,65,4110.77,4056.92,4102.05,4090.77,4087.18,4096.41,4109.74,4111.28,4123.59,4105.13,4124.62,4125.13,4116.41,4117.44,0
12_32_20,66,4112.82,4062.05,4102.05,4090.77,4103.08,4103.08,4111.28,4112.82,4122.05,4115.38,4128.21,4127.69,4117.44,4115.9,0
12_32_20,67,4108.72,4078.97,4094.87,4087.69,4098.97,4096.92,4107.69,4110.77,4112.31,4117.95,4117.44,4126.67,4125.64,4114.87,0
12_32_20,68,4104.62,4069.23,4094.36,4090.77,4068.72,4087.18,4106.15,4106.15,4110.77,4098.46,4117.44,4123.59,4117.44,4114.36,0
12_32_20,69,4106.67,4059.49,4103.08,4094.87,4072.31,4092.31,4106.67,4107.69,4116.92,4103.08,4128.72,4125.64,4106.15,4113.33,0
12_32_20,70,4105.13,4073.85,4103.08,4091.79,4100.51,4093.85,4099.49,4105.13,4110.26,4110.26,4125.64,4124.62,4108.72,4110.26,0
12_32_20,71,4103.59,4072.31,4092.82,4083.08,4087.18,4085.64,4091.28,4093.85,4100.51,4092.31,4109.74,4115.38,4111.79,4106.67,0
12_32_20,72,4108.72,4054.36,4090.26,4085.13,4064.1,4085.13,4092.82,4088.21,4103.08,4077.44,4107.69,4112.31,4108.72,4106.67,0
12_32_20,73,4104.62,4049.23,4092.82,4086.67,4086.67,4090.26,4096.92,4094.87,4105.64,4094.87,4117.44,4118.46,4100.51,4104.62,0
12_32_20,74,4097.95,4065.64,4094.87,4082.05,4116.92,4094.87,4102.56,4104.1,4112.31,4123.59,4125.64,4122.05,4104.62,4106.15,0
12_32_20,75,4104.62,4090.26,4097.44,4082.56,4098.97,4096.41,4108.21,4102.56,4117.44,4120.51,4118.97,4123.08,4117.44,4110.26,0
12_32_20,76,4097.95,4079.49,4094.36,4083.08,4068.21,4089.74,4104.1,4095.38,4106.15,4090.77,4098.46,4118.97,4100.51,4098.97,0
12_32_20,77,4081.03,4043.59,4088.21,4077.95,4073.33,4086.15,4101.03,4098.97,4102.56,4081.03,4099.49,4117.95,4074.87,4088.72,0
12_32_20,78,4087.69,4032.31,4087.69,4073.33,4077.44,4086.15,4102.05,4106.67,4111.79,4098.46,4120.51,4124.1,4093.85,4099.49,0
12_32_20,79,4104.62,4040.51,4093.85,4075.38,4070.26,4082.56,4100,4103.59,4116.41,4117.95,4131.28,4134.36,4138.46,4121.54,0
12_32_20,80,4108.21,4029.74,4102.05,4077.44,4068.21,4083.08,4100,4105.13,4116.41,4116.92,4142.56,4145.64,4162.05,4140.51,0
12_32_20,81,4112.82,4010.77,4105.64,4070.26,4080.51,4089.23,4104.62,4115.9,4121.54,4115.38,4169.23,4159.49,4169.23,4157.44,0
12_32_20,82,4126.67,4008.72,4105.64,4067.18,4092.82,4090.77,4107.18,4123.59,4136.92,4150.26,4194.36,4175.38,4202.05,4172.82,0
12_32_20,83,4135.9,4003.59,4109.74,4070.26,4080,4089.74,4109.74,4127.69,4152.82,4166.15,4203.08,4183.59,4251.28,4194.87,0
12_32_20,84,4142.05,3996.92,4112.82,4068.72,4069.23,4092.31,4113.33,4127.69,4153.85,4137.95,4217.95,4187.69,4262.56,4215.9,0
12_32_20,85,4154.87,3984.62,4111.79,4067.18,4067.69,4090.77,4113.33,4125.64,4150.26,4146.15,4238.97,4195.9,4247.18,4223.59,0
12_32_20,86,4174.36,3968.72,4112.82,4070.77,4063.08,4089.23,4112.82,4125.13,4153.85,4184.1,4241.03,4200,4278.97,4245.13,0
12_32_20,87,4188.72,3973.85,4115.38,4065.64,4065.64,4089.23,4112.31,4129.74,4155.38,4182.05,4233.85,4203.08,4324.1,4273.85,0
12_32_20,88,4194.36,3982.56,4117.95,4057.95,4072.31,4085.13,4109.74,4131.28,4152.31,4162.05,4246.67,4213.85,4316.92,4281.03,0
12_32_20,89,4200.51,3971.79,4122.56,4058.97,4069.74,4084.1,4111.79,4126.15,4150.26,4167.18,4265.64,4221.03,4312.82,4292.31,0
12_32_20,90,4212.31,3963.08,4126.15,4055.38,4071.79,4089.23,4118.97,4127.69,4154.87,4188.21,4259.49,4217.95,4351.28,4313.85,0
12_32_20,91,4215.38,3953.33,4125.13,4046.15,4066.67,4088.21,4119.49,4129.23,4153.33,4180.51,4254.87,4220.51,4381.03,4321.03,0
12_32_20,92,4203.08,3922.56,4122.05,4047.18,4027.69,4075.9,4109.23,4121.03,4136.92,4143.08,4281.03,4226.15,4367.18,4311.28,0
12_32_20,93,4195.38,3905.13,4120.51,4050.77,4036.41,4071.28,4103.08,4123.08,4141.03,4166.15,4302.05,4229.74,4365.13,4310.77,0
12_32_20,94,4200,3910.26,4123.59,4046.15,4087.69,4082.56,4109.74,4137.44,4164.62,4230.26,4288.72,4237.95,4409.74,4334.87,0
12_32_20,95,4197.95,3901.54,4126.67,4033.85,4072.31,4089.74,4114.87,4140,4166.67,4217.95,4275.38,4247.18,4440.51,4351.28,0
12_32_20,96,4181.03,3889.23,4123.59,4024.62,4040,4089.74,4110.77,4133.85,4158.46,4178.97,4291.79,4251.79,4433.85,4337.44,0
12_32_20,97,4164.1,3883.59,4124.1,4026.67,4054.36,4090.26,4110.77,4135.9,4166.67,4201.03,4309.74,4250.77,4424.1,4320,0
12_32_20,98,4155.38,3870.77,4125.13,4029.23,4069.23,4091.79,4120.51,4146.67,4171.79,4235.9,4313.85,4255.38,4431.79,4316.41,0
12_32_20,99,4153.33,3862.56,4123.59,4027.18,4070.77,4099.49,4129.74,4154.36,4172.31,4232.31,4308.21,4264.1,4453.85,4311.28,0
12_32_20,100,4145.13,3860,4124.62,4020.51,4073.33,4107.18,4126.67,4153.33,4181.54,4210.77,4304.62,4258.46,4466.15,4302.56,0
12_32_20,101,4131.28,3845.13,4121.03,4011.28,4067.18,4103.08,4121.03,4154.36,4187.69,4210.77,4327.18,4251.79,4449.23,4288.21,0
12_32_20,102,4116.92,3822.05,4109.23,4004.1,4052.31,4091.28,4122.05,4152.31,4179.49,4232.31,4334.36,4251.79,4440.51,4270.26,0
12_32_20,103,4107.69,3827.18,4104.62,3998.46,4056.41,4090.77,4122.56,4145.64,4174.87,4240,4310.26,4248.72,4471.28,4272.82,0
12_32_20,104,4107.69,3847.69,4110.77,3999.49,4066.67,4098.46,4122.56,4149.23,4183.08,4229.74,4314.87,4251.79,4487.69,4283.08,0
12_32_20,105,4107.69,3843.08,4108.21,4008.21,4061.54,4102.05,4120,4156.92,4188.72,4241.03,4332.82,4260,4474.87,4278.97,0
12_32_20,106,4105.13,3837.44,4108.21,4020,4056.92,4108.21,4124.1,4160.51,4193.85,4268.21,4330.26,4263.59,4485.64,4275.38,0
12_32_20,107,4111.79,3842.56,4118.46,4028.72,4068.72,4114.36,4132.31,4163.59,4202.05,4264.1,4342.05,4271.28,4498.97,4275.9,0
12_32_20,108,4110.77,3829.74,4118.97,4018.97,4082.05,4110.26,4128.21,4158.46,4194.87,4238.97,4354.36,4273.85,4480,4264.1,0
12_32_20,109,4104.62,3826.15,4110.77,4002.56,4081.03,4106.15,4120,4151.28,4187.18,4245.13,4330.77,4259.49,4473.33,4252.31,0
12_32_20,110,4109.23,3849.23,4111.28,4005.13,4072.31,4109.74,4123.59,4157.95,4196.92,4273.33,4317.44,4250.77,4497.95,4255.38,0
12_32_20,111,4105.64,3852.82,4111.79,4018.46,4047.69,4105.64,4122.56,4154.87,4190.26,4263.08,4326.15,4250.77,4496.92,4253.33,0
12_32_20,112,4094.36,3843.08,4106.67,4018.97,4051.28,4102.56,4115.9,4145.64,4174.87,4241.54,4326.15,4245.13,4473.33,4245.64,0
12_32_20,113,4097.95,3847.69,4110.77,4016.41,4092.31,4114.36,4122.56,4161.54,4186.67,4243.59,4328.21,4247.69,4483.08,4246.15,0
12_32_20,114,4098.97,3844.62,4113.33,4021.03,4092.31,4115.9,4128.21,4170.77,4196.92,4246.67,4336.92,4251.79,4493.33,4239.49,0
12_32_21,115,4085.64,3840,4104.1,4017.44,4068.72,4103.59,4118.97,4154.87,4181.03,4240,4323.59,4238.97,4480,4229.74,0
12_32_21,116,4077.44,3850.26,4097.95,4012.82,4076.41,4104.1,4110.26,4147.69,4171.79,4236.92,4302.56,4223.08,4482.05,4233.33,0
12_32_21,117,4076.92,3853.85,4099.49,4021.54,4076.92,4112.31,4114.87,4156.92,4182.05,4245.64,4313.85,4225.13,4484.62,4230.26,0
12_32_21,118,4081.03,3853.85,4103.08,4032.31,4051.79,4108.72,4122.05,4156.41,4186.15,4246.15,4323.08,4231.28,4476.92,4224.1,0
12_32_21,119,4088.21,3856.41,4105.64,4031.28,4055.38,4107.18,4120.51,4151.79,4185.13,4241.03,4308.21,4230.26,4481.03,4227.69,0
12_32_21,120,4092.82,3858.97,4105.64,4029.74,4082.56,4120,4121.54,4163.08,4196.92,4242.05,4316.92,4232.82,4484.1,4231.79,0
12_32_21,121,4096.41,3865.64,4105.64,4033.85,4080.51,4123.08,4126.15,4169.23,4204.62,4248.21,4331.28,4233.85,4478.97,4236.92,0
12_32_21,122,4097.44,3877.44,4102.56,4029.74,4068.21,4115.9,4121.54,4160.51,4198.97,4266.67,4311.28,4229.74,4490.26,4240.51,0
12_32_21,123,4095.9,3885.13,4097.95,4025.13,4081.54,4116.41,4118.46,4153.33,4196.41,4286.67,4310.26,4229.23,4497.44,4234.87,0
12_32_21,124,4087.18,3869.74,4093.85,4028.72,4074.87,4114.87,4115.9,4149.74,4191.28,4268.72,4322.56,4223.59,4475.9,4224.1,0
12_32_21,125,4073.33,3848.21,4092.82,4026.67,4045.13,4105.13,4107.69,4145.13,4170.77,4215.38,4297.95,4212.82,4447.69,4216.92,0
12_32_21,126,4075.9,3859.49,4093.85,4019.49,4065.64,4106.67,4106.15,4146.67,4161.03,4204.62,4291.28,4212.31,4433.85,4212.31,0
12_32_21,127,4089.74,3882.56,4094.87,4011.79,4087.18,4111.79,4110.77,4153.33,4173.85,4235.9,4301.54,4214.36,4446.15,4213.85,0
12_32_21,128,4087.18,3878.46,4094.87,4018.46,4056.41,4111.79,4111.79,4153.85,4182.56,4247.69,4290.26,4215.38,4462.56,4222.05,0
12_32_21,0,4075.9,3872.31,4096.92,4033.85,4056.41,4121.03,4111.28,4147.18,4170.26,4236.41,4284.1,4215.9,4451.79,4215.38,0
12_32_21,1,4075.38,3877.95,4093.33,4026.15,4091.28,4125.13,4109.23,4137.95,4153.85,4220,4280,4204.62,4432.31,4197.95,0
12_32_21,2,4079.49,3879.49,4087.69,4011.79,4086.67,4120.51,4111.28,4140.51,4155.38,4216.92,4269.23,4194.87,4419.49,4195.9,0
12_32_21,3,4084.1,3882.05,4097.95,4026.15,4066.67,4129.23,4122.05,4153.33,4170.26,4233.85,4270.77,4204.62,4420.51,4210.26,0
12_32_21,4,4085.13,3886.15,4107.69,4038.46,4063.59,4140,4122.05,4155.38,4172.82,4232.31,4271.28,4208.72,4430.26,4207.69,0
12_32_21,5,4083.59,3886.15,4101.03,4032.31,4064.62,4136.92,4115.9,4151.79,4165.13,4196.41,4268.21,4199.49,4425.64,4195.38,0
12_32_21,6,4088.72,3891.79,4100,4038.97,4060,4135.9,4120,4155.38,4166.67,4193.85,4279.49,4201.54,4418.97,4198.97,0
12_32_21,7,4093.33,3901.54,4109.23,4049.74,4056.92,4138.97,4122.05,4155.38,4170.77,4235.9,4282.05,4211.79,4423.08,4204.1,0
12_32_21,8,4091.79,3906.67,4110.26,4044.62,4076.92,4141.03,4120.51,4153.33,4176.41,4243.08,4277.44,4216.41,4423.08,4203.59,0
12_32_21,9,4093.85,3911.79,4110.77,4042.05,4100,4142.56,4124.1,4154.87,4181.03,4228.72,4282.56,4216.41,4426.67,4206.15,0
12_32_21,10,4099.49,3923.08,4118.46,4050.26,4092.31,4145.64,4124.62,4156.41,4181.54,4252.82,4281.03,4218.46,4447.18,4211.28,0
12_32_21,11,4095.9,3928.21,4117.44,4056.41,4083.59,4151.79,4124.62,4157.95,4179.49,4275.38,4277.44,4216.41,4444.1,4211.79,0
12_32_21,12,4083.59,3921.03,4108.21,4052.31,4092.31,4153.33,4126.15,4159.49,4173.85,4261.54,4269.74,4207.18,4416.41,4205.64,0
12_32_21,13,4074.87,3913.33,4103.08,4041.54,4084.1,4142.56,4123.59,4154.87,4165.64,4239.49,4257.44,4200.51,4404.62,4194.87,0
12_32_21,14,4075.38,3915.38,4102.56,4040,4071.28,4136.92,4122.56,4149.23,4163.59,4224.62,4260.51,4204.1,4394.36,4184.1,0
12_32_21,15,4076.41,3920.51,4102.56,4048.72,4076.92,4142.56,4122.05,4151.79,4168.21,4230.26,4266.15,4211.28,4381.03,4184.1,0
12_32_21,16,4074.87,3925.64,4105.13,4051.28,4077.44,4143.08,4121.03,4156.92,4170.77,4246.67,4264.1,4214.36,4385.64,4189.23,0
12_32_21,17,4075.9,3930.26,4104.1,4049.23,4071.28,4141.54,4124.1,4156.41,4171.28,4247.69,4265.64,4214.87,4391.79,4186.15,0
12_32_21,18,4080,3933.85,4102.05,4051.79,4071.79,4143.08,4123.59,4155.38,4171.79,4223.59,4262.05,4213.85,4386.67,4185.64,0
12_32_21,19,4073.85,3933.85,4101.03,4050.77,4073.85,4140,4117.95,4154.36,4169.74,4195.38,4255.38,4205.13,4370.26,4180,0
12_32_21,20,4060.51,3928.72,4093.85,4038.97,4064.62,4133.33,4119.49,4153.33,4164.1,4206.67,4246.67,4188.72,4353.85,4167.18,0
12_32_21,21,4060.51,3925.64,4090.26,4036.41,4056.41,4131.28,4121.03,4150.26,4161.54,4225.64,4234.36,4181.54,4354.36,4166.15,0
12_32_21,22,4055.9,3928.21,4092.31,4042.05,4062.05,4143.59,4114.36,4142.05,4154.87,4188.21,4226.15,4179.49,4345.64,4164.62,0
12_32_21,23,4036.92,3933.33,4090.77,4037.95,4077.44,4156.41,4113.85,4133.85,4142.56,4153.85,4218.97,4170.77,4328.72,4151.28,0
12_32_21,24,4035.9,3945.64,4093.85,4037.95,4085.13,4154.87,4121.03,4141.03,4149.74,4197.95,4208.72,4174.36,4350.77,4155.38,0
12_32_21,25,4048.21,3954.87,4100,4044.1,4079.49,4150.26,4121.54,4155.38,4168.72,4225.64,4215.38,4192.82,4372.82,4160,0
12_32_21,26,4044.62,3952.82,4097.44,4044.62,4082.56,4153.85,4121.03,4158.46,4170.77,4192.31,4236.92,4197.95,4355.38,4148.72,0
12_32_21,27,4038.46,3959.49,4093.85,4044.62,4093.85,4156.92,4125.64,4154.87,4170.77,4200,4234.36,4189.23,4358.46,4162.56,0
12_32_21,28,4041.03,3968.21,4095.9,4044.1,4084.1,4152.31,4122.56,4147.69,4174.36,4210.77,4218.97,4184.62,4371.79,4168.72,0
12_32_21,29,4037.44,3963.59,4092.31,4037.95,4063.08,4144.1,4112.82,4139.49,4161.03,4168.72,4213.85,4178.46,4344.1,4136.92,0
12_32_21,30,4027.18,3960.51,4084.62,4034.87,4069.23,4140,4112.31,4134.87,4148.72,4163.08,4199.49,4170.26,4338.46,4130.26,0
12_32_21,31,4021.03,3972.31,4084.62,4035.9,4078.46,4142.56,4117.95,4136.41,4150.26,4186.15,4193.85,4169.74,4362.05,4147.18,0
12_32_21,32,4025.64,3974.36,4089.74,4038.97,4050.77,4144.62,4121.54,4138.97,4150.77,4165.13,4212.82,4173.33,4350.26,4134.36,0
12_32_21,33,4031.79,3970.26,4085.64,4042.56,4053.33,4148.72,4121.54,4141.03,4150.77,4166.15,4207.18,4170.77,4342.05,4130.26,0
12_32_21,34,4023.59,3978.46,4074.36,4030.77,4095.9,4153.85,4116.41,4140.51,4153.33,4196.41,4173.33,4156.92,4367.18,4148.21,0
12_32_21,35,4012.31,3981.54,4071.28,4012.82,4092.82,4150.26,4110.77,4137.95,4150.26,4182.56,4169.23,4149.23,4374.87,4138.97,0
12_32_21,36,4013.33,3978.46,4071.79,4014.36,4060,4145.64,4115.38,4140.51,4155.38,4170.77,4197.95,4161.03,4352.82,4119.49,0
12_32_21,37,4015.9,3989.74,4068.21,4024.62,4066.15,4151.28,4120,4143.08,4163.59,4182.05,4213.85,4170.77,4331.28,4123.59,0
12_32_21,38,4017.44,4003.08,4078.46,4034.87,4078.97,4156.92,4120,4142.05,4162.56,4177.44,4208.72,4170.26,4341.54,4136.41,0
12_32_21,39,4023.08,4003.59,4092.82,4038.46,4064.62,4150.77,4121.54,4141.03,4161.54,4180.51,4189.74,4168.72,4363.59,4143.08,0
12_32_21,40,4021.54,4000,4085.64,4031.79,4060.51,4142.05,4116.92,4135.9,4154.36,4182.05,4173.85,4161.03,4359.49,4134.36,0
12_32_21,41,4021.03,4001.54,4077.95,4031.79,4065.64,4139.49,4106.15,4132.82,4145.13,4165.13,4184.1,4160,4340,4121.03,0
12_32_21,42,4028.72,4007.69,4086.67,4041.54,4064.1,4140,4106.67,4136.41,4148.72,4180,4193.85,4171.28,4332.31,4123.08,0
12_32_21,43,4029.74,4014.36,4090.77,4044.1,4063.59,4141.54,4112.31,4139.49,4157.44,4222.05,4185.64,4171.79,4323.59,4125.64,0
12_32_21,44,4026.67,4017.95,4082.56,4043.08,4064.62,4141.54,4110.26,4137.44,4156.41,4223.08,4188.72,4167.69,4328.21,4122.05,0
12_32_21,45,4034.36,4025.13,4072.82,4045.13,4057.95,4140,4109.74,4138.97,4154.36,4197.44,4201.54,4174.87,4342.56,4127.18,0
12_32_21,46,4033.85,4034.87,4063.08,4043.08,4053.85,4138.97,4111.28,4139.49,4154.36,4201.54,4188.72,4172.82,4331.28,4131.28,0
12_32_21,47,4024.62,4041.54,4054.36,4035.9,4057.95,4138.97,4105.64,4128.21,4146.15,4207.69,4163.08,4164.62,4327.69,4127.69,0
12_32_21,48,4027.18,4045.13,4046.67,4031.79,4057.95,4138.46,4105.64,4126.67,4141.03,4191.79,4168.72,4169.23,4330.77,4122.05,0
12_32_21,49,4028.72,4045.13,4037.44,4035.38,4053.33,4136.41,4112.31,4132.82,4139.49,4192.31,4179.49,4164.62,4307.69,4115.38,0
12_32_21,50,4029.74,4045.64,4043.08,4044.62,4053.33,4139.49,4114.87,4130.77,4140.51,4198.97,4169.23,4157.95,4306.15,4122.05,0
12_32_21,51,4031.79,4046.67,4049.74,4041.03,4044.1,4138.46,4110.77,4123.59,4138.46,4168.21,4162.05,4157.95,4314.87,4128.21,0
12_32_21,52,4021.03,4040.51,4037.44,4027.69,4031.28,4124.62,4104.1,4118.97,4128.72,4162.56,4160.51,4144.62,4290.26,4110.26,0
12_32_21,53,4021.03,4042.05,4035.38,4033.33,4040.51,4123.59,4103.08,4120.51,4129.23,4209.74,4150.77,4137.44,4294.36,4103.08,0
12_32_21,54,4043.08,4063.59,4050.77,4047.69,4052.82,4138.46,4108.72,4125.13,4136.41,4198.46,4160,4150.26,4307.18,4115.9,0
12_32_21,55,4038.97,4067.69,4047.69,4045.64,4036.92,4133.85,4105.13,4118.97,4129.74,4155.9,4174.87,4142.05,4261.03,4104.1,0
12_32_21,56,4014.87,4045.64,4028.72,4034.36,4021.03,4113.33,4091.79,4106.15,4113.33,4176.92,4144.1,4111.28,4239.49,4083.59,0
