TIME, ED_COUNTER, AF3, F7, F3, FC5, T7, P7, O1, O2, P8, T8, FC6, F4, F8, AF4, LABEL
15_19_11,43,4327.18,4153.33,4065.13,4089.23,4188.21,3990.26,4123.59,4091.28,4094.36,4108.21,4063.59,4082.56,3983.59,4340.51,0
15_19_11,44,4330.77,4156.92,4067.18,4088.21,4198.97,3983.08,4124.1,4093.33,4091.28,4098.46,4063.08,4083.59,3990.77,4337.95,0
15_19_11,45,4332.31,4151.28,4067.18,4085.13,4181.03,3975.38,4123.08,4093.85,4088.72,4084.1,4071.79,4084.1,3994.87,4342.05,0
15_19_11,46,4318.46,4129.74,4066.15,4085.13,4171.79,3971.79,4121.54,4091.79,4085.13,4064.62,4054.87,4083.59,3981.54,4338.46,0
15_19_11,47,4304.62,4121.54,4066.15,4087.69,4180.51,3970.26,4122.05,4091.28,4081.03,4058.97,4031.28,4082.05,3960.51,4324.1,0
15_19_11,48,4306.67,4135.9,4065.64,4088.72,4174.87,3971.79,4122.05,4090.77,4082.05,4068.72,4036.41,4081.03,3961.03,4320.51,0
15_19_11,49,4307.18,4138.46,4064.1,4087.69,4162.05,3971.28,4122.05,4091.79,4083.08,4081.03,4043.59,4084.1,3965.64,4322.56,0
15_19_11,50,4300,4130.77,4067.18,4088.72,4164.62,3966.15,4123.59,4092.82,4083.08,4077.95,4032.82,4086.67,3955.9,4311.28,0
15_19_12,51,4305.13,4138.46,4068.21,4088.72,4172.82,3969.23,4125.64,4091.28,4082.05,4075.38,4031.28,4083.59,3956.41,4308.72,0
15_19_12,52,4321.03,4144.62,4063.59,4088.72,4173.33,3970.77,4125.13,4090.26,4080.51,4079.49,4034.87,4081.03,3967.18,4317.44,0
15_19_12,53,4320,4137.44,4061.54,4087.69,4162.56,3964.1,4122.05,4092.31,4078.97,4058.46,4023.59,4082.05,3958.46,4316.41,0
15_19_12,54,4309.23,4136.92,4060.51,4085.64,4152.31,3969.23,4120.51,4091.28,4077.44,4035.38,4017.44,4082.56,3950.26,4309.23,0
15_19_12,55,4312.31,4135.9,4059.49,4082.05,4151.28,3980,4122.56,4088.72,4075.38,4038.46,4021.54,4082.56,3958.46,4303.59,0
15_19_12,56,4320,4132.31,4060.51,4080.51,4152.82,3975.9,4120,4089.74,4072.82,4035.38,4016.41,4082.05,3955.38,4296.41,0
15_19_12,57,4317.95,4132.82,4062.05,4083.59,4160.51,3968.21,4113.85,4091.28,4073.33,4022.56,4014.36,4082.56,3949.23,4293.33,0
15_19_12,58,4319.49,4131.79,4059.49,4088.21,4173.33,3970.77,4117.44,4090.77,4080,4040.51,4033.85,4087.18,3963.08,4295.38,0
15_19_12,59,4330.77,4120.51,4058.46,4086.67,4174.36,3978.46,4125.64,4091.28,4085.64,4065.13,4048.21,4086.67,3978.97,4295.9,0
15_19_12,60,4340,4110.26,4061.03,4082.05,4168.72,3978.97,4119.49,4092.82,4082.56,4062.56,4037.44,4081.54,3976.92,4295.9,0
15_19_12,61,4340.51,4113.33,4062.05,4083.08,4162.56,3962.05,4109.23,4091.28,4076.41,4042.05,4016.92,4081.03,3958.46,4288.21,0
15_19_12,62,4338.97,4120,4057.95,4086.67,4147.18,3953.33,4108.72,4089.23,4074.36,4027.18,4006.67,4082.05,3942.05,4277.44,0
15_19_12,63,4345.64,4125.64,4056.92,4090.26,4135.9,3967.18,4113.85,4089.74,4075.38,4047.18,4015.38,4081.54,3947.69,4284.62,0
15_19_12,64,4350.77,4129.74,4057.95,4089.23,4142.05,3968.21,4119.49,4090.77,4076.41,4066.15,4027.18,4081.54,3958.46,4301.03,0
15_19_12,65,4343.59,4125.13,4058.97,4085.64,4159.49,3955.38,4122.56,4092.31,4077.44,4037.95,4028.72,4081.54,3954.87,4304.1,0
15_19_12,66,4340,4123.08,4056.41,4085.13,4178.97,3962.05,4121.54,4095.38,4077.95,4015.38,4031.28,4081.03,3956.41,4298.46,0
15_19_12,67,4343.08,4131.79,4055.38,4086.67,4181.54,3978.46,4121.03,4093.85,4076.41,4023.08,4028.21,4082.05,3956.92,4291.28,0
15_19_12,68,4336.92,4130.26,4058.46,4086.67,4180.51,3982.05,4122.56,4093.85,4076.41,4020.51,4012.82,4081.54,3946.15,4282.05,0
15_19_12,69,4326.67,4113.33,4058.46,4085.64,4190.77,3977.95,4122.56,4096.92,4078.46,4011.28,4013.85,4082.05,3948.21,4274.36,0
15_19_12,70,4325.64,4103.08,4055.9,4083.08,4173.85,3973.33,4121.03,4091.79,4075.9,4022.05,4025.64,4083.08,3956.92,4272.31,0
15_19_12,71,4327.69,4105.13,4053.85,4081.03,4149.74,3967.18,4117.44,4085.64,4077.44,4047.18,4022.56,4082.05,3956.92,4278.97,0
15_19_12,72,4325.64,4113.85,4056.41,4083.08,4174.87,3963.59,4116.41,4089.74,4086.67,4066.15,4030.26,4081.54,3966.15,4285.64,0
15_19_12,73,4325.13,4122.56,4060.51,4083.08,4200.51,3965.13,4121.03,4096.41,4093.33,4073.33,4048.72,4082.05,3979.49,4287.69,0
15_19_12,74,4327.69,4129.23,4056.41,4080.51,4182.05,3973.33,4119.49,4093.33,4092.82,4068.72,4041.54,4082.56,3976.92,4291.28,0
15_19_12,75,4328.72,4137.95,4049.74,4084.62,4169.23,3974.36,4109.74,4089.74,4090.26,4063.08,4030.26,4082.05,3972.82,4288.72,0
15_19_12,76,4327.69,4146.67,4053.33,4090.26,4177.95,3962.56,4106.67,4094.87,4092.82,4066.67,4036.41,4080,3974.87,4277.95,0
15_19_12,77,4324.1,4141.54,4059.49,4089.23,4173.33,3958.97,4109.23,4097.95,4095.38,4057.95,4026.15,4080.51,3963.08,4278.46,0
15_19_12,78,4319.49,4130.26,4055.9,4085.13,4159.49,3969.74,4108.21,4094.36,4085.13,4031.79,4002.05,4082.56,3940.51,4285.64,0
15_19_12,79,4318.46,4121.03,4054.36,4084.62,4164.1,3974.36,4106.15,4090.77,4075.38,4014.36,3998.46,4082.05,3929.23,4280,0
15_19_12,80,4320.51,4116.92,4057.95,4086.15,4180.51,3962.56,4105.64,4092.31,4083.59,4025.13,4010.77,4081.03,3937.44,4274.36,0
15_19_12,81,4320.51,4125.64,4056.92,4087.18,4189.74,3953.33,4107.18,4092.82,4095.38,4050.77,4020.51,4081.54,3959.49,4281.54,0
15_19_12,82,4320.51,4136.92,4056.41,4088.21,4191.28,3961.54,4110.77,4092.31,4093.33,4082.56,4032.31,4084.1,3980,4290.77,0
15_19_12,83,4325.13,4140.51,4057.95,4087.69,4187.18,3973.33,4112.31,4093.33,4090.77,4102.56,4045.13,4083.08,3989.23,4293.33,0
15_19_12,84,4327.18,4140.51,4060,4087.69,4174.36,3971.28,4113.33,4095.38,4094.87,4080,4044.62,4077.44,3992.31,4294.36,0
15_19_12,85,4327.69,4149.23,4060,4087.18,4150.26,3963.08,4118.97,4097.95,4096.92,4066.15,4047.69,4079.49,3998.46,4302.56,0
15_19_12,86,4333.33,4157.44,4057.44,4087.69,4132.31,3968.72,4122.56,4097.44,4095.38,4091.79,4061.03,4086.67,4003.08,4306.67,0
15_19_12,87,4338.46,4158.46,4056.41,4088.21,4147.69,3976.92,4122.05,4096.92,4092.31,4095.9,4062.56,4085.13,3996.41,4300.51,0
15_19_12,88,4333.33,4155.38,4056.41,4088.21,4176.41,3974.87,4119.49,4097.44,4091.28,4064.62,4050.26,4080,3981.54,4293.85,0
15_19_12,89,4324.62,4146.15,4055.9,4090.26,4172.82,3970.77,4116.92,4093.33,4089.74,4046.67,4044.62,4081.54,3972.82,4291.79,0
15_19_12,90,4321.03,4138.46,4058.97,4090.26,4153.85,3971.28,4112.31,4089.74,4089.23,4052.31,4044.1,4083.08,3972.31,4292.31,0
15_19_12,91,4322.05,4137.44,4063.08,4084.62,4158.97,3973.33,4108.21,4092.82,4092.82,4046.15,4042.56,4082.56,3969.74,4292.82,0
15_19_12,92,4325.64,4136.92,4060,4085.13,4166.15,3974.36,4112.82,4097.95,4093.33,4046.15,4045.64,4082.05,3968.21,4294.36,0
15_19_12,93,4322.05,4134.36,4054.87,4090.77,4147.69,3971.79,4116.92,4099.49,4092.82,4067.69,4044.1,4081.03,3970.77,4295.9,0
15_19_12,94,4312.82,4133.85,4057.95,4086.67,4131.28,3971.79,4110.26,4097.95,4094.87,4071.79,4040,4081.54,3974.87,4292.82,0
15_19_12,95,4314.87,4135.38,4063.59,4082.05,4138.97,3974.36,4105.13,4101.03,4099.49,4060.51,4043.59,4083.08,3980.51,4290.26,0
15_19_12,96,4326.15,4140,4062.56,4086.15,4154.87,3973.33,4110.26,4104.1,4098.46,4068.21,4052.82,4082.56,3990.26,4293.33,0
15_19_12,97,4322.05,4140.51,4058.97,4085.64,4158.97,3970.26,4112.31,4099.49,4092.82,4087.18,4057.44,4082.56,3993.85,4295.38,0
15_19_12,98,4308.72,4136.92,4059.49,4082.56,4154.36,3968.72,4109.74,4091.79,4091.28,4073.85,4046.15,4081.54,3978.46,4292.82,0
15_19_12,99,4309.74,4137.44,4061.54,4084.1,4152.31,3970.26,4110.77,4090.77,4092.31,4051.28,4031.28,4081.03,3966.15,4292.31,0
15_19_12,100,4313.85,4132.31,4061.03,4084.1,4156.92,3972.82,4109.74,4092.31,4090.26,4053.85,4033.85,4080.51,3977.44,4294.36,0
15_19_12,101,4304.62,4107.69,4058.46,4084.1,4155.9,3972.82,4109.74,4091.28,4089.23,4058.46,4037.95,4081.54,3986.67,4292.31,0
15_19_12,102,4294.87,4088.21,4057.44,4087.18,4142.05,3971.79,4109.74,4089.23,4091.28,4055.38,4032.82,4084.1,3987.69,4293.85,0
15_19_12,103,4300.51,4087.69,4061.03,4090.26,4132.82,3975.9,4109.23,4090.77,4092.31,4061.54,4048.72,4085.13,4006.67,4304.1,0
15_19_12,104,4307.18,4086.15,4060.51,4088.72,4142.56,3976.41,4113.85,4094.87,4095.9,4081.03,4078.97,4083.59,4031.79,4308.72,0
15_19_12,105,4300,4084.62,4057.44,4086.67,4157.44,3973.85,4120.51,4098.97,4106.67,4089.74,4086.15,4081.54,4037.95,4305.13,0
15_19_12,106,4295.38,4085.13,4058.97,4085.64,4148.21,3975.9,4123.59,4099.49,4110.26,4091.79,4076.41,4085.13,4034.87,4307.18,0
15_19_12,107,4304.1,4078.97,4062.05,4084.62,4122.05,3970.77,4121.03,4098.97,4103.59,4094.87,4067.18,4088.21,4032.82,4310.26,0
15_19_12,108,4306.67,4073.33,4059.49,4084.62,4122.56,3961.54,4115.38,4101.03,4096.92,4089.74,4060,4083.59,4028.21,4301.54,0
15_19_12,109,4291.28,4073.85,4060,4086.15,4142.56,3957.44,4109.23,4097.44,4088.72,4076.41,4055.9,4080,4015.9,4293.33,0
15_19_12,110,4278.97,4075.9,4065.64,4083.59,4144.62,3956.41,4106.15,4090.26,4081.54,4067.18,4049.74,4081.54,4004.1,4293.33,0
15_19_12,111,4280.51,4074.87,4066.15,4082.05,4146.15,3964.62,4106.15,4095.38,4084.62,4077.44,4041.54,4083.08,4004.1,4293.33,0
15_19_12,112,4281.03,4074.87,4061.54,4085.64,4157.44,3973.85,4107.69,4105.64,4090.77,4091.28,4042.05,4081.54,4004.62,4292.82,0
15_19_12,113,4275.38,4078.46,4060.51,4085.13,4151.28,3967.18,4109.23,4105.13,4090.26,4092.82,4044.62,4081.54,4001.54,4293.85,0
15_19_12,114,4269.23,4081.03,4063.59,4084.1,4141.03,3960,4107.69,4101.54,4088.72,4087.69,4036.92,4082.56,4004.62,4293.33,0
15_19_12,115,4271.28,4077.95,4062.05,4087.18,4150.77,3967.18,4110.26,4104.1,4089.74,4088.72,4034.87,4082.05,4009.23,4292.82,0
15_19_12,116,4274.36,4071.79,4060,4086.15,4158.97,3972.31,4113.85,4105.13,4090.26,4097.95,4045.13,4083.08,4008.72,4292.31,0
15_19_12,117,4268.21,4066.15,4062.56,4081.54,4150.26,3970.26,4108.21,4103.59,4091.28,4106.67,4043.08,4082.05,4006.67,4290.77,0
15_19_12,118,4263.08,4068.21,4064.62,4084.62,4147.69,3972.31,4105.13,4103.08,4090.77,4116.41,4036.41,4082.05,4005.13,4293.33,0
15_19_12,119,4265.13,4075.9,4065.13,4089.74,4162.05,3972.31,4108.21,4102.56,4087.18,4121.54,4044.62,4085.64,4007.69,4296.41,0
15_19_12,120,4267.18,4078.97,4067.69,4088.72,4169.74,3973.33,4106.67,4103.08,4083.59,4108.72,4046.15,4085.64,4005.64,4293.33,0
15_19_12,121,4261.54,4072.31,4068.21,4086.15,4177.44,3977.95,4104.1,4102.05,4080,4087.18,4027.18,4085.13,3995.38,4290.77,0
15_19_12,122,4255.38,4069.23,4067.69,4088.21,4187.69,3978.97,4110.26,4103.08,4082.56,4087.69,4017.95,4086.15,3993.85,4293.33,0
15_19_12,123,4250.26,4072.82,4068.21,4090.77,4176.92,3974.36,4113.33,4105.64,4089.23,4107.18,4034.36,4085.13,4004.1,4293.85,0
15_19_12,124,4249.74,4068.21,4065.64,4086.15,4162.56,3963.08,4107.18,4105.64,4091.28,4125.13,4046.67,4081.54,4008.72,4296.92,0
15_19_12,125,4256.92,4062.05,4063.08,4082.56,4175.38,3957.44,4105.13,4105.13,4091.79,4144.1,4048.21,4083.08,4004.62,4306.15,0
15_19_12,126,4261.03,4069.74,4068.21,4083.08,4196.92,3967.18,4108.72,4106.15,4091.79,4152.31,4055.9,4085.13,4008.72,4312.82,0
15_19_12,127,4255.9,4077.95,4067.69,4085.13,4194.36,3977.44,4110.26,4106.67,4088.72,4154.87,4064.1,4082.05,4014.87,4312.31,0
15_19_12,128,4245.13,4070.77,4063.59,4087.69,4175.38,3969.23,4108.72,4105.64,4086.15,4156.41,4057.95,4080.51,4010.26,4309.74,0
15_19_12,0,4233.85,4065.64,4069.23,4089.74,4170.77,3958.46,4108.72,4106.15,4086.67,4137.44,4049.74,4081.03,4003.08,4304.62,0
15_19_12,1,4223.08,4066.15,4077.95,4090.26,4174.36,3960,4108.21,4106.67,4082.05,4116.41,4040,4082.56,3993.85,4296.92,0
15_19_12,2,4214.87,4053.85,4083.08,4088.21,4164.1,3960,4106.15,4105.13,4080.51,4127.69,4024.1,4083.08,3977.95,4293.33,0
15_19_12,3,4216.41,4049.23,4086.15,4087.18,4178.46,3956.92,4104.1,4105.13,4084.62,4152.82,4023.08,4084.1,3970.77,4297.95,0
15_19_12,4,4219.49,4056.41,4090.26,4089.23,4214.36,3953.85,4104.1,4108.21,4079.49,4155.38,4033.85,4084.1,3974.87,4304.62,0
15_19_12,5,4211.79,4048.72,4091.79,4088.21,4206.67,3947.18,4105.64,4109.23,4073.85,4150.26,4026.15,4081.54,3965.64,4305.64,0
15_19_12,6,4203.08,4035.38,4087.18,4084.1,4182.05,3943.08,4104.62,4109.23,4076.92,4152.31,4010.77,4083.59,3953.85,4303.59,0
15_19_12,7,4203.08,4034.36,4082.05,4086.15,4192.31,3945.64,4103.59,4109.74,4075.38,4153.33,4011.79,4086.15,3963.08,4302.05,0
15_19_12,8,4204.1,4033.33,4082.56,4090.26,4195.38,3944.62,4106.15,4108.21,4074.87,4157.95,4014.36,4083.59,3972.31,4296.41,0
15_19_12,9,4202.56,4020.51,4083.59,4089.74,4171.79,3940.51,4102.56,4108.21,4080,4152.31,4007.69,4082.05,3966.67,4291.28,0
15_19_12,10,4196.41,4001.03,4081.54,4089.23,4172.31,3940,4091.28,4107.69,4076.41,4134.87,4003.59,4082.56,3961.03,4292.31,0
15_19_12,11,4196.92,3988.72,4082.56,4089.23,4183.59,3938.46,4089.23,4105.13,4071.79,4142.56,3993.85,4083.08,3952.82,4289.74,0
15_19_12,12,4217.44,3998.46,4085.13,4088.21,4184.1,3942.05,4094.87,4110.26,4080,4174.87,3987.18,4083.08,3948.72,4293.33,0
15_19_12,13,4238.97,4006.67,4083.08,4089.23,4193.85,3943.59,4094.87,4115.38,4080,4181.03,3994.87,4081.54,3957.44,4304.62,0
15_19_12,14,4233.33,3988.21,4081.03,4090.26,4202.05,3931.79,4091.28,4108.72,4065.64,4156.92,3988.72,4080.51,3948.72,4301.03,0
15_19_12,15,4219.49,3977.95,4082.05,4088.21,4192.82,3923.08,4088.72,4103.08,4066.67,4147.69,3969.74,4082.56,3928.72,4289.74,0
15_19_12,16,4223.08,3990.26,4079.49,4086.67,4185.13,3920,4086.15,4108.21,4077.95,4163.08,3978.46,4084.1,3930.77,4292.82,0
15_19_12,17,4227.69,3992.31,4070.77,4088.21,4187.69,3912.82,4088.21,4110.77,4076.92,4177.95,3994.36,4083.08,3940,4299.49,0
15_19_12,18,4226.67,3988.21,4061.54,4089.23,4193.85,3910.26,4089.74,4107.69,4072.31,4173.33,3985.13,4081.54,3938.97,4296.41,0
15_19_12,19,4229.74,3988.72,4060,4087.69,4202.56,3913.33,4084.62,4108.72,4071.79,4158.46,3973.33,4082.05,3933.33,4295.9,0
15_19_12,20,4229.74,3977.95,4057.44,4087.69,4199.49,3910.26,4081.03,4109.23,4068.21,4155.38,3968.21,4083.59,3918.46,4295.9,0
15_19_12,21,4220.51,3969.74,4054.36,4088.21,4191.28,3909.74,4081.54,4106.15,4062.56,4155.38,3957.95,4083.59,3907.18,4287.69,0
15_19_12,22,4215.38,3973.85,4057.44,4087.69,4199.49,3910.77,4081.03,4106.67,4060.51,4153.85,3947.69,4081.54,3912.31,4278.97,0
15_19_12,23,4218.97,3967.69,4058.97,4088.21,4207.18,3901.03,4076.92,4107.69,4060,4151.79,3941.54,4082.56,3905.13,4279.49,0
15_19_12,24,4220,3961.03,4056.92,4087.69,4193.85,3894.36,4073.33,4106.67,4057.95,4153.33,3940.51,4085.64,3891.79,4286.67,0
15_19_12,25,4216.92,3964.62,4058.97,4087.69,4185.64,3897.95,4074.87,4105.13,4057.95,4173.33,3945.64,4085.13,3893.85,4284.62,0
15_19_12,26,4216.92,3963.59,4062.05,4089.23,4192.82,3899.49,4073.33,4104.1,4062.05,4193.33,3943.59,4082.05,3899.49,4275.9,0
15_19_12,27,4220,3964.62,4057.44,4087.69,4200,3891.79,4067.69,4103.59,4060.51,4187.18,3932.82,4082.56,3895.38,4274.87,0
15_19_12,28,4222.05,3974.36,4050.26,4083.59,4209.23,3883.08,4066.15,4104.62,4054.36,4170.77,3927.69,4084.1,3887.18,4278.97,0
15_19_12,29,4217.95,3977.95,4050.77,4082.05,4219.49,3880,4065.64,4103.08,4055.38,4160,3924.62,4083.08,3885.13,4276.41,0
15_19_12,30,4214.87,3974.87,4054.87,4083.59,4221.03,3881.54,4060,4101.54,4055.38,4165.64,3926.67,4084.1,3893.33,4274.36,0
15_19_12,31,4218.97,3978.46,4055.9,4084.1,4219.49,3876.92,4058.46,4104.62,4051.28,4184.1,3926.15,4085.13,3894.87,4290.26,0
15_19_12,32,4218.97,3975.38,4050.26,4082.56,4214.36,3866.15,4061.54,4101.54,4049.23,4176.41,3914.87,4084.62,3883.59,4300,0
15_19_12,33,4213.33,3963.59,4048.72,4083.08,4206.15,3864.1,4057.44,4095.38,4049.74,4157.44,3908.21,4084.1,3872.82,4286.67,0
15_19_12,34,4212.31,3958.46,4053.85,4087.69,4197.44,3864.62,4053.33,4097.95,4051.79,4173.85,3913.33,4083.59,3866.15,4278.46,0
15_19_12,35,4215.9,3952.82,4056.41,4088.72,4186.15,3862.56,4050.26,4097.95,4051.79,4192.82,3911.28,4083.08,3863.59,4286.15,0
15_19_12,36,4216.41,3941.03,4056.41,4084.1,4187.18,3861.54,4041.54,4089.23,4047.69,4181.54,3898.97,4083.08,3857.44,4285.13,0
15_19_12,37,4210.26,3941.54,4059.49,4081.54,4212.31,3858.97,4039.49,4087.18,4044.62,4176.41,3892.82,4083.08,3854.36,4278.97,0
15_19_12,38,4205.64,3955.38,4063.08,4084.1,4228.21,3851.28,4042.56,4091.79,4044.62,4185.13,3894.36,4083.08,3860,4282.05,0
15_19_12,39,4205.64,3957.95,4060.51,4087.69,4217.95,3840.51,4038.97,4091.28,4039.49,4183.59,3896.41,4083.59,3856.41,4281.54,0
15_19_12,40,4205.64,3949.74,4056.41,4088.72,4205.13,3833.85,4035.38,4087.69,4036.41,4176.41,3894.87,4084.1,3846.67,4281.03,0
15_19_12,41,4202.05,3947.69,4056.92,4088.21,4203.08,3833.33,4034.36,4088.21,4032.82,4173.33,3881.03,4081.54,3842.05,4280,0
15_19_12,42,4200.51,3937.44,4061.03,4088.21,4198.46,3832.82,4026.15,4090.77,4023.08,4168.21,3865.13,4083.08,3829.23,4267.69,0
15_19_12,43,4202.05,3926.67,4061.54,4088.72,4198.46,3828.21,4019.49,4088.21,4020.51,4164.1,3858.46,4085.64,3814.36,4260,0
15_19_12,44,4201.54,3930.77,4057.95,4088.21,4209.74,3828.72,4020.51,4083.08,4022.56,4180.51,3852.31,4085.64,3820.51,4263.08,0
15_19_12,45,4198.46,3937.95,4056.41,4088.72,4203.08,3829.23,4021.03,4083.08,4021.03,4204.62,3843.08,4083.59,3829.74,4263.59,0
15_19_13,46,4201.03,3944.62,4056.92,4089.74,4189.23,3823.59,4019.49,4084.62,4022.05,4205.13,3848.72,4083.59,3829.74,4262.05,0
15_19_13,47,4210.77,3952.31,4056.41,4088.21,4216.41,3817.95,4010.77,4083.59,4020,4204.1,3860,4087.18,3832.82,4263.08,0
15_19_13,48,4213.33,3958.46,4058.46,4088.72,4245.64,3812.31,4004.1,4081.03,4008.72,4205.64,3856.41,4087.18,3833.85,4262.56,0
15_19_13,49,4202.56,3956.41,4060.51,4090.77,4221.03,3801.54,4004.62,4081.54,4004.1,4191.79,3852.31,4082.56,3829.74,4263.08,0
15_19_13,50,4196.41,3946.15,4056.41,4087.69,4198.97,3797.44,3998.46,4082.05,4007.18,4178.46,3858.46,4082.05,3829.74,4262.05,0
15_19_13,51,4200,3940,4050.77,4084.62,4215.38,3803.59,3987.69,4077.44,4006.15,4184.1,3864.1,4084.1,3833.33,4261.03,0
15_19_13,52,4203.08,3950.26,4051.28,4084.62,4217.95,3806.15,3987.18,4071.28,4005.64,4199.49,3864.62,4083.59,3834.36,4273.33,0
15_19_13,53,4203.08,3960,4055.38,4086.15,4210.26,3797.95,3991.28,4073.33,4006.15,4207.18,3862.56,4082.05,3839.49,4281.54,0
15_19_13,54,4207.69,3954.36,4055.9,4086.67,4223.08,3794.87,3987.69,4076.92,4004.1,4203.08,3862.56,4083.59,3844.62,4270.77,0
15_19_13,55,4216.92,3961.03,4054.87,4085.64,4237.44,3801.54,3980.51,4074.87,4004.1,4204.62,3868.21,4082.56,3840,4264.1,0
15_19_13,56,4216.92,3967.69,4056.41,4083.08,4234.87,3796.41,3974.36,4073.33,4000,4202.05,3863.08,4082.56,3825.13,4264.1,0
15_19_13,57,4203.08,3947.69,4055.38,4082.56,4229.23,3772.82,3971.28,4072.31,3989.23,4183.08,3844.62,4083.08,3811.28,4256.41,0
15_19_13,58,4201.03,3940,4053.85,4086.15,4230.77,3767.69,3971.79,4068.21,3989.23,4185.64,3840.51,4081.54,3813.85,4256.41,0
15_19_13,59,4212.31,3956.92,4060,4090.26,4225.13,3783.08,3967.18,4066.67,3997.44,4209.74,3856.41,4083.08,3828.72,4265.64,0
15_19_13,60,4215.38,3962.56,4063.08,4088.21,4222.05,3786.67,3958.97,4065.64,3994.36,4204.1,3867.18,4085.64,3840,4263.59,0
15_19_13,61,4207.18,3950.77,4056.92,4083.59,4227.69,3776.41,3955.38,4062.56,3984.1,4192.31,3854.36,4084.62,3833.33,4257.95,0
15_19_13,62,4206.15,3951.28,4056.41,4086.15,4225.64,3772.31,3958.97,4060,3984.62,4204.1,3840,4085.13,3826.67,4261.54,0
15_19_13,63,4220.51,3971.79,4062.05,4090.77,4232.82,3774.36,3954.87,4060.51,3990.26,4207.18,3849.23,4088.21,3835.38,4269.74,0
15_19_13,64,4232.82,3988.21,4065.13,4088.72,4252.82,3771.79,3943.08,4063.59,3990.77,4202.56,3861.03,4084.62,3848.21,4278.46,0
15_19_13,65,4231.28,3989.23,4064.62,4087.69,4255.9,3768.72,3939.49,4061.03,3990.26,4214.87,3854.87,4081.03,3848.72,4284.1,0
15_19_13,66,4229.74,3985.13,4064.62,4088.72,4241.03,3761.54,3937.95,4052.31,3985.64,4221.54,3843.08,4085.13,3836.41,4277.44,0
15_19_13,67,4230.77,3987.69,4065.13,4088.21,4243.59,3752.31,3929.74,4050.26,3977.44,4207.18,3838.46,4086.67,3829.23,4267.18,0
15_19_13,68,4222.56,3996.41,4067.69,4088.21,4255.38,3753.85,3922.56,4050.77,3972.82,4201.03,3842.56,4083.59,3837.95,4262.56,0
15_19_13,69,4222.05,4008.21,4070.77,4089.23,4247.69,3765.64,3925.64,4045.64,3974.87,4216.41,3857.95,4082.56,3850.26,4263.59,0
15_19_13,70,4232.82,4015.9,4073.33,4088.72,4247.18,3771.28,3923.59,4044.62,3974.87,4221.03,3863.59,4085.64,3850.77,4262.56,0
15_19_13,71,4232.31,4019.49,4082.56,4088.72,4271.79,3769.23,3912.31,4045.13,3971.79,4212.31,3850.26,4087.69,3850.26,4261.54,0
15_19_13,72,4227.18,4025.13,4090.26,4088.72,4292.82,3774.36,3910.77,4037.44,3970.77,4224.62,3842.56,4084.62,3858.97,4266.15,0
15_19_13,73,4229.74,4026.15,4090.26,4089.23,4283.59,3779.49,3913.85,4033.85,3972.82,4237.44,3845.13,4080,3863.59,4262.56,0
15_19_13,74,4231.79,4027.69,4089.23,4088.72,4264.62,3773.33,3905.13,4038.46,3975.38,4223.08,3846.15,4083.08,3861.54,4250.26,0
15_19_13,75,4236.41,4034.87,4090.77,4088.21,4265.13,3767.69,3891.79,4036.92,3972.31,4212.31,3843.59,4087.18,3858.97,4245.64,0
15_19_13,76,4244.62,4037.44,4091.79,4089.74,4282.56,3771.28,3893.33,4032.31,3969.74,4216.92,3844.1,4087.18,3864.62,4254.87,0
15_19_13,77,4252.82,4049.74,4092.82,4089.23,4308.21,3776.41,3906.15,4034.36,3974.87,4220,3856.92,4087.18,3881.03,4271.28,0
15_19_13,78,4260.51,4074.87,4093.85,4086.15,4309.23,3774.87,3908.21,4037.44,3978.46,4234.36,3868.72,4085.64,3892.82,4281.54,0
15_19_13,79,4265.13,4089.23,4090.26,4086.67,4292.31,3769.23,3899.49,4036.41,3975.38,4252.31,3866.15,4084.62,3898.46,4281.54,0
15_19_13,80,4268.72,4095.9,4091.79,4089.23,4308.21,3771.28,3893.33,4034.36,3972.82,4238.46,3867.69,4086.15,3914.36,4280,0
15_19_13,81,4275.38,4115.38,4095.9,4089.74,4331.28,3783.59,3895.9,4035.38,3976.41,4232.31,3881.03,4085.64,3926.67,4282.05,0
15_19_13,82,4281.03,4127.69,4093.33,4089.74,4310.77,3782.05,3891.79,4034.87,3970.77,4257.44,3878.46,4084.1,3914.36,4276.41,0
15_19_13,83,4286.67,4126.67,4091.28,4089.74,4293.85,3769.23,3881.54,4030.77,3961.03,4263.59,3874.36,4086.15,3908.21,4270.26,0
15_19_13,84,4296.92,4136.41,4096.41,4085.13,4320.51,3770.26,3881.54,4029.23,3967.18,4256.92,3893.33,4087.18,3935.38,4277.95,0
15_19_13,85,4298.46,4154.36,4100,4082.05,4335.38,3777.44,3882.56,4029.74,3971.79,4258.46,3904.1,4085.13,3963.08,4283.59,0
15_19_13,86,4296.41,4157.95,4098.97,4085.13,4325.13,3777.95,3877.95,4028.72,3966.15,4251.28,3898.97,4085.13,3971.28,4278.46,0
15_19_13,87,4304.62,4153.33,4097.95,4089.74,4325.13,3783.08,3878.46,4029.23,3970.77,4251.28,3907.18,4084.1,3978.97,4284.62,0
15_19_13,88,4311.79,4156.92,4097.95,4091.28,4326.15,3785.64,3883.59,4028.21,3977.44,4266.67,3913.85,4082.05,3986.15,4296.41,0
15_19_13,89,4310.77,4160,4100,4090.77,4328.72,3776.92,3878.97,4026.67,3971.79,4263.08,3900.51,4084.62,3981.03,4287.69,0
15_19_13,90,4311.28,4157.95,4101.54,4087.69,4338.46,3777.44,3874.87,4030.77,3972.31,4256.92,3895.9,4087.69,3984.1,4276.41,0
15_19_13,91,4311.28,4161.03,4097.44,4085.64,4334.36,3782.56,3877.44,4028.72,3971.79,4270.26,3901.03,4085.13,3990.77,4279.49,0
15_19_13,92,4310.77,4164.62,4093.33,4087.69,4321.03,3779.49,3874.87,4018.97,3962.05,4263.59,3891.28,4082.56,3984.62,4277.95,0
15_19_13,93,4317.95,4172.82,4094.87,4089.23,4330.26,3780.51,3873.85,4020.51,3965.13,4257.44,3892.82,4086.67,3993.85,4275.9,0
15_19_13,94,4326.15,4193.85,4095.9,4088.21,4349.23,3788.21,3881.03,4029.74,3976.41,4282.56,3908.72,4087.69,4023.59,4285.13,0
15_19_13,95,4326.67,4205.13,4093.33,4087.18,4347.69,3790.26,3880.51,4030.26,3976.41,4289.23,3910.77,4083.08,4035.9,4287.69,0
15_19_13,96,4326.15,4193.33,4090.77,4088.21,4336.92,3789.74,3872.82,4022.56,3969.74,4261.03,3902.05,4085.13,4025.64,4279.49,0
15_19_13,97,4332.82,4192.31,4092.31,4088.72,4327.69,3790.26,3874.87,4019.49,3969.23,4260.51,3905.13,4089.23,4028.72,4274.87,0
15_19_13,98,4344.62,4218.97,4092.82,4089.74,4323.08,3788.21,3877.95,4022.05,3968.21,4280,3920.51,4085.64,4047.69,4271.79,0
15_19_13,99,4352.31,4237.44,4088.21,4089.74,4331.28,3789.23,3869.23,4021.03,3966.15,4263.59,3925.13,4083.59,4049.74,4264.1,0
15_19_13,100,4352.82,4233.85,4085.13,4087.69,4347.69,3789.23,3865.64,4018.97,3968.72,4244.62,3918.97,4088.21,4038.97,4261.03,0
15_19_13,101,4360,4233.85,4086.67,4089.74,4355.9,3788.21,3875.38,4020,3973.85,4260.51,3928.72,4089.23,4045.13,4263.08,0
15_19_13,102,4369.74,4247.69,4089.23,4093.33,4347.69,3794.87,3880,4020.51,3975.38,4274.87,3942.56,4086.15,4060.51,4263.59,0
15_19_13,103,4368.21,4261.54,4087.69,4091.28,4341.54,3800.51,3875.38,4018.97,3972.82,4260.51,3937.44,4084.62,4059.49,4264.62,0
15_19_13,104,4364.1,4270.77,4083.08,4089.74,4353.85,3799.49,3876.92,4019.49,3972.31,4243.08,3941.03,4084.1,4061.03,4265.13,0
15_19_13,105,4370.77,4276.41,4082.56,4090.77,4351.79,3797.95,3881.03,4020,3970.26,4254.36,3961.03,4086.15,4070.77,4258.97,0
15_19_13,106,4378.46,4280,4083.08,4090.26,4324.62,3800.51,3877.44,4018.46,3968.72,4267.69,3964.62,4087.18,4081.54,4254.36,0
15_19_13,107,4381.03,4293.33,4083.08,4090.77,4328.21,3808.21,3873.33,4018.97,3969.23,4254.36,3957.95,4084.62,4098.97,4261.03,0
15_19_13,108,4384.62,4304.1,4083.59,4092.31,4360,3813.85,3875.9,4019.49,3967.18,4249.23,3957.95,4082.56,4110.26,4264.62,0
15_19_13,109,4396.92,4312.82,4086.15,4089.74,4368.21,3815.9,3878.97,4018.46,3968.72,4263.59,3968.21,4083.59,4113.33,4260.51,0
15_19_13,110,4412.82,4337.95,4086.67,4086.15,4361.54,3817.95,3881.03,4018.97,3974.87,4265.64,3989.23,4084.62,4128.21,4265.13,0
15_19_13,111,4417.95,4354.87,4085.64,4089.23,4362.56,3818.46,3882.05,4020,3976.41,4268.72,4001.03,4086.67,4142.56,4272.31,0
15_19_13,112,4411.79,4350.77,4087.18,4091.79,4356.41,3820.51,3879.49,4018.97,3973.33,4274.87,3998.97,4087.18,4138.97,4268.72,0
15_19_13,113,4409.74,4361.54,4088.72,4088.72,4337.44,3828.72,3878.97,4017.95,3972.82,4264.1,4005.13,4084.1,4140,4263.08,0
15_19_13,114,4421.54,4387.18,4090.26,4083.59,4338.97,3830.26,3881.03,4019.49,3975.38,4264.62,4018.97,4085.13,4156.92,4265.64,0
15_19_13,115,4433.85,4402.05,4090.26,4082.05,4363.59,3831.28,3881.03,4021.03,3976.41,4292.31,4033.33,4089.74,4179.49,4269.74,0
15_19_13,116,4431.28,4406.15,4090.26,4082.56,4371.28,3839.49,3883.08,4020,3974.36,4292.82,4045.64,4087.69,4187.69,4267.18,0
15_19_13,117,4425.64,4408.72,4090.77,4082.56,4357.95,3843.59,3893.33,4019.49,3970.77,4268.72,4053.33,4084.62,4184.1,4262.05,0
15_19_13,118,4429.23,4419.49,4090.77,4083.08,4358.97,3843.08,3898.97,4021.03,3972.31,4276.41,4066.15,4086.15,4190.26,4265.64,0
15_19_13,119,4429.23,4432.31,4089.74,4083.08,4366.67,3847.69,3893.85,4021.03,3974.87,4296.92,4071.79,4086.15,4201.03,4264.1,0
15_19_13,120,4431.28,4437.95,4090.26,4083.59,4354.36,3854.36,3893.33,4019.49,3973.85,4293.85,4065.13,4085.64,4211.79,4251.79,0
15_19_13,121,4441.03,4448.72,4092.31,4083.59,4345.13,3864.1,3904.1,4018.97,3976.41,4297.44,4070.26,4087.69,4227.69,4246.15,0
15_19_13,122,4439.49,4466.67,4089.74,4082.56,4361.54,3875.9,3913.33,4020,3983.59,4308.72,4086.67,4088.21,4240,4250.26,0
15_19_13,123,4433.85,4476.41,4091.79,4084.62,4377.95,3879.49,3912.31,4020,3984.1,4305.64,4098.97,4085.13,4249.23,4246.15,0
15_19_13,124,4438.46,4484.1,4103.08,4090.26,4374.36,3877.44,3909.74,4018.97,3976.41,4309.74,4108.72,4084.1,4266.67,4237.44,0
15_19_13,125,4435.38,4493.85,4106.67,4090.26,4357.95,3876.92,3909.74,4018.46,3972.31,4314.87,4110.77,4085.13,4271.28,4229.23,0
15_19_13,126,4423.08,4492.82,4103.08,4086.15,4349.74,3880,3910.26,4020.51,3972.82,4309.23,4104.1,4086.67,4257.95,4216.41,0
15_19_13,127,4431.79,4487.69,4104.1,4088.21,4353.85,3887.18,3910.77,4018.97,3971.79,4314.87,4109.23,4084.1,4263.08,4210.77,0
15_19_13,128,4444.62,4491.28,4106.15,4088.21,4349.74,3895.9,3912.82,4014.87,3975.9,4324.1,4127.18,4080.51,4283.08,4217.44,0
15_19_13,0,4442.56,4499.49,4108.21,4085.13,4346.67,3907.18,3921.54,4015.9,3986.15,4322.56,4148.21,4085.13,4298.46,4220,0
15_19_13,1,4447.18,4497.44,4109.74,4086.15,4355.38,3913.33,3931.28,4019.49,3987.18,4329.23,4163.08,4088.72,4306.15,4215.9,0
15_19_13,2,4456.41,4488.21,4109.74,4091.79,4358.97,3911.28,3932.82,4019.49,3982.05,4329.23,4161.03,4086.15,4306.15,4215.9,0
15_19_13,3,4465.64,4492.82,4113.33,4092.82,4354.87,3909.74,3932.31,4017.95,3984.1,4313.33,4157.95,4083.59,4310.26,4212.82,0
15_19_13,4,4480.51,4507.18,4118.46,4087.18,4365.13,3914.36,3936.92,4016.41,3984.62,4306.67,4166.67,4087.18,4321.54,4203.08,0
15_19_13,5,4490.77,4508.72,4115.38,4086.15,4364.1,3914.36,3940.51,4013.85,3981.03,4302.05,4171.79,4089.74,4326.15,4196.92,0
15_19_13,6,4492.82,4510.26,4114.36,4090.26,4334.87,3910.77,3939.49,4010.77,3983.59,4291.28,4176.41,4085.13,4328.72,4197.95,0
15_19_13,7,4505.13,4528.21,4120.51,4090.26,4307.69,3917.95,3946.67,4013.85,3990.26,4290.26,4193.85,4084.1,4349.74,4200,0
15_19_13,8,4523.08,4538.97,4121.03,4087.69,4295.9,3927.69,3957.44,4017.95,3990.77,4310.77,4207.18,4087.69,4367.69,4200,0
15_19_13,9,4524.1,4536.41,4122.56,4088.72,4303.59,3928.72,3960,4014.36,3985.13,4328.21,4206.15,4085.13,4370.26,4200.51,0
15_19_13,10,4520,4538.97,4132.82,4089.23,4314.36,3924.1,3955.9,4010.26,3984.62,4323.59,4203.59,4081.54,4375.38,4200.51,0
15_19_13,11,4528.21,4540.51,4136.41,4090.26,4302.05,3924.1,3951.28,4013.33,3984.1,4305.13,4203.08,4083.08,4385.64,4204.62,0
15_19_13,12,4539.49,4540.51,4133.85,4090.77,4289.23,3933.33,3955.9,4013.33,3977.95,4289.23,4204.1,4084.62,4394.36,4214.36,0
15_19_13,13,4541.03,4542.05,4135.9,4088.72,4297.95,3941.03,3963.08,4003.08,3973.33,4282.05,4204.62,4081.54,4395.9,4218.46,0
15_19_13,14,4543.59,4536.92,4139.49,4088.72,4294.87,3940,3960,4001.03,3973.33,4268.72,4198.97,4082.56,4391.79,4214.87,0
15_19_13,15,4560,4538.97,4137.95,4090.26,4281.54,3936.41,3957.44,4011.79,3975.9,4265.64,4198.46,4083.08,4393.33,4214.36,0
15_19_13,16,4570.77,4550.26,4137.44,4089.74,4289.23,3940.51,3968.21,4011.28,3976.92,4286.67,4202.56,4083.59,4397.95,4215.38,0
15_19_13,17,4569.74,4552.31,4137.95,4088.72,4298.46,3950.77,3976.92,4005.64,3974.36,4300,4202.05,4084.1,4399.49,4212.82,0
15_19_13,18,4577.44,4552.31,4137.95,4088.72,4297.44,3961.03,3975.38,4010.77,3977.95,4292.82,4208.72,4082.56,4414.36,4214.87,0
15_19_13,19,4586.67,4557.95,4137.44,4089.23,4296.41,3960,3977.95,4012.31,3982.56,4289.74,4216.41,4084.1,4429.23,4216.41,0
15_19_13,20,4586.15,4552.82,4137.44,4090.77,4292.82,3957.95,3981.54,4004.1,3976.92,4289.23,4212.82,4087.69,4428.21,4214.87,0
15_19_13,21,4589.23,4543.08,4138.46,4090.26,4284.62,3969.23,3984.62,4005.13,3973.33,4277.95,4218.46,4088.72,4433.85,4216.41,0
15_19_13,22,4600,4539.49,4136.41,4087.18,4281.03,3975.38,3988.72,4014.36,3980.51,4277.44,4234.36,4086.15,4446.67,4217.44,0
15_19_13,23,4602.56,4536.41,4137.95,4087.69,4274.36,3972.31,3988.72,4013.33,3981.54,4280.51,4237.44,4086.15,4448.21,4216.92,0
15_19_13,24,4598.97,4544.1,4142.05,4090.26,4262.56,3972.31,3987.18,4006.15,3980.51,4277.95,4233.33,4087.18,4451.28,4218.46,0
15_19_13,25,4604.62,4550.26,4144.1,4090.77,4262.05,3973.85,3988.21,4003.59,3987.18,4281.03,4235.38,4087.69,4460.51,4218.46,0
15_19_13,26,4613.33,4542.05,4144.1,4088.72,4267.18,3972.82,3987.69,4006.67,3989.74,4284.62,4234.36,4087.18,4461.03,4216.92,0
15_19_13,27,4616.41,4542.56,4146.67,4088.21,4265.13,3971.28,3991.28,4007.69,3984.1,4274.87,4237.44,4085.64,4465.64,4217.44,0
15_19_13,28,4621.54,4557.95,4149.74,4092.82,4261.03,3971.79,4003.08,4004.62,3984.1,4268.21,4254.36,4087.18,4478.97,4218.97,0
15_19_13,29,4625.64,4553.85,4150.77,4094.36,4267.69,3973.33,4005.64,4005.13,3991.79,4278.46,4259.49,4086.67,4480,4219.49,0
15_19_13,30,4621.03,4532.31,4151.28,4089.74,4266.67,3975.38,4000,4004.62,3989.74,4273.33,4249.74,4084.1,4472.82,4214.87,0
15_19_13,31,4618.97,4520.51,4150.26,4088.21,4238.97,3972.82,4003.59,4002.56,3975.38,4240.51,4248.21,4086.15,4472.31,4204.62,0
15_19_13,32,4621.03,4518.97,4150.26,4091.79,4225.64,3973.33,4008.72,4003.08,3973.85,4211.79,4247.18,4089.74,4465.64,4201.03,0
15_19_13,33,4617.95,4533.85,4151.79,4091.79,4241.03,3984.1,4005.64,4004.62,3989.23,4209.23,4238.46,4087.69,4458.46,4207.69,0
15_19_13,34,4620,4562.05,4152.82,4089.23,4240,3996.41,4006.67,4004.62,3998.46,4225.64,4245.64,4085.64,4471.28,4213.85,0
15_19_13,35,4630.26,4574.87,4153.33,4089.74,4217.44,3994.36,4010.77,4004.62,3987.69,4234.87,4255.9,4086.15,4478.97,4207.69,0
15_19_13,36,4632.31,4570.26,4153.85,4090.77,4206.67,3976.92,4005.13,4003.59,3973.33,4220,4236.41,4086.67,4456.41,4192.82,0
15_19_13,37,4628.21,4568.72,4154.87,4089.74,4204.62,3972.31,4001.03,4003.08,3970.26,4203.59,4223.59,4084.62,4436.41,4187.69,0
15_19_13,38,4629.74,4578.46,4154.36,4089.74,4196.41,3985.64,4004.62,4002.56,3977.44,4203.59,4240.51,4083.59,4445.64,4189.23,0
15_19_13,39,4631.28,4591.28,4153.85,4090.26,4198.46,3991.79,4006.67,4003.08,3984.62,4206.67,4255.38,4084.62,4458.46,4185.13,0
15_19_13,40,4633.33,4600,4153.85,4090.77,4210.26,3988.72,4007.69,4003.08,3986.15,4204.1,4257.44,4085.64,4460,4190.77,0
15_19_13,41,4634.36,4601.54,4155.38,4091.28,4213.85,3989.74,4012.82,4004.1,3987.18,4203.59,4256.92,4085.13,4462.05,4202.05,0
15_19_13,42,4626.15,4594.36,4155.38,4091.79,4201.54,3990.77,4016.41,4002.56,3985.64,4203.59,4254.36,4085.13,4460,4193.85,0
15_19_13,43,4622.56,4577.95,4153.33,4091.79,4190.26,3987.69,4013.85,3998.46,3977.95,4200,4248.72,4087.69,4449.23,4181.54,0
15_19_13,44,4627.18,4566.67,4153.33,4091.79,4189.23,3982.56,4010.26,3996.41,3973.33,4190.77,4248.21,4087.18,4441.54,4183.08,0
15_19_14,45,4617.44,4570.77,4155.38,4090.77,4171.79,3977.95,4011.79,3997.44,3975.38,4176.92,4250.77,4083.08,4439.49,4180.51,0
15_19_14,46,4598.97,4575.38,4153.85,4091.28,4147.69,3977.95,4014.36,3995.38,3974.87,4160,4239.49,4082.56,4433.33,4168.21,0
15_19_14,47,4595.9,4567.18,4152.31,4091.28,4135.38,3976.92,4009.23,3989.74,3970.26,4135.9,4215.9,4083.59,4412.31,4158.97,0
15_19_14,48,4601.03,4556.41,4154.87,4088.21,4128.21,3970.77,4005.64,3988.21,3971.79,4116.41,4201.54,4083.08,4393.33,4153.85,0
15_19_14,49,4598.46,4554.36,4154.36,4086.15,4129.23,3968.21,4003.59,3990.26,3974.36,4113.33,4197.44,4084.1,4384.62,4156.41,0
15_19_14,50,4596.92,4562.05,4152.82,4090.26,4134.36,3972.82,3993.33,3990.26,3971.79,4126.15,4188.72,4086.67,4369.74,4153.33,0
15_19_14,51,4601.03,4565.64,4156.41,4092.31,4126.15,3977.95,3989.23,3988.21,3966.15,4132.82,4184.62,4085.13,4356.92,4139.49,0
15_19_14,52,4603.08,4551.79,4159.49,4088.72,4106.15,3970.26,3996.92,3986.15,3961.54,4111.28,4189.74,4084.62,4363.59,4133.33,0
15_19_14,53,4600,4531.28,4153.85,4089.23,4090.26,3957.95,3995.38,3986.67,3959.49,4089.23,4187.18,4086.15,4368.72,4132.82,0
15_19_14,54,4593.33,4519.49,4149.23,4093.85,4064.1,3957.95,3986.67,3988.72,3958.46,4077.95,4168.72,4085.13,4341.03,4124.62,0
15_19_14,55,4594.87,4521.03,4158.97,4091.79,4050.77,3960.51,3986.67,3987.69,3956.92,4050.77,4150.26,4083.08,4309.23,4118.97,0
15_19_14,56,4604.62,4529.74,4164.62,4088.21,4070.26,3957.95,3988.72,3985.64,3955.9,4043.59,4149.23,4081.54,4306.15,4120,0
15_19_14,57,4604.62,4529.74,4160,4091.79,4078.97,3957.44,3988.72,3987.69,3956.41,4074.36,4152.31,4082.56,4315.38,4116.92,0
15_19_14,58,4603.08,4524.1,4159.49,4093.85,4065.13,3960.51,3990.77,3985.64,3956.41,4077.95,4142.05,4086.67,4308.72,4110.26,0
15_19_14,59,4610.77,4526.15,4165.64,4088.72,4058.46,3960.51,3987.18,3977.95,3953.33,4045.64,4140.51,4087.18,4304.62,4107.18,0
15_19_14,60,4615.9,4525.13,4165.13,4088.21,4059.49,3955.9,3980,3978.46,3954.87,4040.51,4156.92,4085.64,4316.92,4105.13,0
15_19_14,61,4618.97,4515.38,4162.56,4091.28,4042.56,3956.92,3983.59,3983.08,3957.95,4053.33,4160,4085.64,4318.97,4104.1,0
15_19_14,62,4620.51,4500.51,4163.08,4087.69,4018.46,3956.92,3987.18,3978.46,3951.79,4040,4132.31,4085.13,4298.97,4097.95,0
15_19_14,63,4602.56,4481.54,4157.44,4085.13,4011.79,3946.15,3981.03,3971.28,3941.03,4005.64,4104.62,4084.1,4269.23,4088.21,0
15_19_14,64,4582.56,4470.26,4151.79,4087.69,4017.44,3946.15,3980,3970.77,3938.97,3980,4108.21,4086.67,4251.79,4085.64,0
15_19_14,65,4586.67,4470.77,4153.85,4089.74,4013.33,3967.18,3985.64,3971.79,3946.67,3995.38,4126.67,4088.21,4255.38,4088.21,0
15_19_14,66,4593.85,4471.28,4154.87,4091.79,4003.59,3978.46,3987.69,3973.85,3958.46,4026.15,4130.77,4087.69,4266.67,4089.74,0
15_19_14,67,4586.67,4474.36,4152.82,4093.33,3999.49,3971.79,3987.18,3969.74,3956.41,4017.44,4131.28,4086.15,4265.64,4087.18,0
15_19_14,68,4583.59,4475.38,4153.33,4090.77,3983.59,3970.26,3979.49,3966.67,3942.56,3991.28,4138.97,4082.56,4253.33,4085.13,0
15_19_14,69,4593.33,4465.13,4154.36,4088.72,3966.67,3976.41,3970.77,3971.28,3948.21,3994.36,4137.44,4081.54,4248.72,4086.67,0
15_19_14,70,4600.51,4457.44,4152.82,4090.26,3975.9,3976.41,3980.51,3969.23,3958.46,3989.74,4126.67,4082.05,4246.67,4090.77,0
15_19_14,71,4599.49,4465.64,4154.36,4093.33,3987.69,3972.82,3990.26,3962.05,3948.72,3964.62,4120,4082.56,4238.46,4093.85,0
15_19_14,72,4598.97,4466.67,4154.36,4094.87,3980.51,3974.36,3981.03,3961.54,3947.69,3969.23,4120.51,4082.56,4231.79,4089.74,0
15_19_14,73,4598.97,4446.67,4152.31,4091.79,3967.18,3980,3979.49,3962.56,3959.49,3990.26,4123.59,4082.56,4237.44,4081.03,0
15_19_14,74,4597.95,4427.18,4152.31,4090.77,3948.72,3977.44,3985.64,3959.49,3953.85,3977.95,4115.9,4082.56,4238.46,4075.9,0
15_19_14,75,4595.38,4417.44,4154.36,4093.85,3940.51,3972.31,3977.44,3958.97,3943.59,3955.38,4109.74,4083.08,4225.64,4079.49,0
15_19_14,76,4587.69,4395.38,4152.82,4093.85,3942.56,3977.95,3968.72,3961.03,3946.15,3956.41,4105.64,4082.56,4212.31,4081.54,0
15_19_14,77,4581.54,4364.1,4149.74,4090.77,3935.9,3984.62,3972.31,3960,3945.64,3961.03,4095.9,4082.56,4205.13,4076.92,0
15_19_14,78,4582.05,4350.26,4150.77,4092.31,3921.03,3976.92,3973.85,3961.03,3942.05,3952.82,4094.36,4083.59,4197.95,4074.87,0
15_19_14,79,4587.18,4350.26,4153.33,4095.38,3916.92,3967.18,3970.77,3960,3947.18,3941.54,4106.15,4082.05,4188.72,4075.9,0
15_19_14,80,4593.33,4352.82,4151.79,4094.87,3920,3970.77,3978.97,3958.46,3952.82,3941.03,4113.33,4082.05,4189.23,4075.9,0
15_19_14,81,4592.31,4360,4151.79,4092.82,3927.18,3973.85,3988.72,3960.51,3954.36,3943.59,4104.1,4083.08,4197.44,4074.87,0
15_19_14,82,4586.15,4367.18,4153.33,4092.82,3923.59,3972.31,3988.72,3967.18,3957.95,3943.59,4095.38,4082.05,4197.44,4077.44,0
15_19_14,83,4581.54,4363.08,4151.79,4093.85,3908.72,3980,3988.21,3965.64,3956.92,3958.46,4090.77,4083.08,4190.77,4076.92,0
15_19_14,84,4576.92,4349.23,4151.28,4091.28,3913.85,3991.28,3987.69,3959.49,3946.15,3961.54,4084.1,4084.1,4177.95,4062.05,0
15_19_14,85,4571.28,4335.9,4150.77,4088.21,3921.54,3989.23,3984.1,3957.95,3942.56,3938.46,4070.26,4084.1,4158.46,4048.21,0
15_19_14,86,4573.85,4334.87,4150.26,4088.72,3906.67,3977.44,3986.15,3961.03,3952.31,3933.33,4056.92,4085.13,4151.28,4053.85,0
15_19_14,87,4579.49,4340,4151.79,4089.23,3904.62,3980,3992.82,3962.56,3958.97,3947.18,4058.97,4086.67,4161.54,4064.1,0
15_19_14,88,4578.46,4332.31,4148.21,4089.23,3911.79,3994.36,3990.77,3962.05,3953.33,3930.77,4062.05,4085.13,4156.92,4059.49,0
15_19_14,89,4564.1,4325.13,4140.51,4088.72,3891.79,3998.46,3986.67,3966.15,3948.72,3905.13,4060,4085.64,4143.59,4054.36,0
15_19_14,90,4535.9,4331.28,4138.97,4088.72,3880,3999.49,3986.67,3973.33,3953.33,3911.79,4058.46,4086.15,4151.28,4058.46,0
15_19_14,91,4518.97,4345.13,4139.49,4091.28,3906.15,4010.77,3983.08,3973.33,3957.44,3929.23,4058.46,4083.08,4163.08,4062.56,0
15_19_14,92,4522.05,4354.87,4136.41,4092.82,3914.87,4019.49,3977.95,3960.51,3956.92,3928.21,4065.64,4082.05,4157.44,4061.03,0
15_19_14,93,4518.97,4342.56,4136.41,4091.79,3892.31,4018.46,3981.54,3946.15,3956.92,3911.28,4075.38,4084.62,4153.85,4056.41,0
15_19_14,94,4506.15,4314.36,4139.49,4093.85,3887.69,4014.87,3989.23,3942.56,3955.38,3907.18,4072.31,4084.1,4153.85,4051.79,0
15_19_14,95,4503.08,4302.56,4138.97,4095.9,3895.9,4008.72,3989.74,3941.03,3949.23,3909.23,4058.46,4082.56,4141.54,4050.26,0
15_19_14,96,4506.67,4311.79,4137.44,4093.33,3876.92,4011.28,3988.21,3937.44,3948.21,3905.13,4051.79,4083.59,4133.33,4053.33,0
15_19_14,97,4508.21,4314.36,4139.49,4090.77,3871.28,4023.59,3992.31,3940,3956.92,3917.44,4054.87,4084.1,4140,4062.56,0
15_19_14,98,4508.21,4305.64,4141.54,4090.77,3900,4030.26,3991.79,3946.67,3962.05,3938.46,4056.92,4083.08,4142.05,4070.77,0
15_19_14,99,4505.64,4302.56,4137.95,4089.74,3910.77,4031.79,3984.62,3944.62,3958.97,3931.79,4057.95,4084.1,4138.46,4072.82,0
15_19_14,100,4508.21,4315.9,4134.87,4089.23,3901.54,4043.08,3991.79,3941.54,3959.49,3920.51,4072.82,4084.1,4152.31,4079.49,0
15_19_14,101,4520,4331.79,4136.41,4091.28,3910.77,4057.44,4006.15,3945.13,3968.21,3940,4098.46,4082.05,4172.31,4089.74,0
15_19_14,102,4524.1,4329.23,4137.44,4094.87,3929.23,4066.15,4005.64,3947.69,3973.33,3960,4101.54,4084.62,4171.28,4091.28,0
15_19_14,103,4522.05,4321.54,4136.41,4099.49,3937.44,4072.31,4003.59,3947.69,3970.77,3969.74,4087.18,4087.18,4161.54,4094.36,0
15_19_14,104,4525.13,4328.72,4134.87,4098.97,3940,4078.46,4006.67,3953.85,3973.33,3977.95,4090.77,4083.08,4175.9,4106.67,0
15_19_14,105,4526.15,4328.72,4136.41,4093.33,3945.13,4077.44,4006.15,3956.41,3980.51,3970.26,4104.1,4080.51,4195.9,4110.26,0
15_19_14,106,4523.08,4315.38,4136.41,4092.31,3955.38,4072.82,4004.1,3948.72,3978.97,3959.49,4096.92,4082.56,4190.77,4101.54,0
15_19_14,107,4515.9,4308.21,4128.72,4093.33,3957.44,4071.79,4002.56,3940,3971.28,3958.97,4074.87,4083.59,4168.72,4091.79,0
15_19_14,108,4508.21,4305.13,4122.56,4090.26,3945.13,4073.85,3997.95,3941.03,3971.28,3950.77,4069.23,4082.56,4161.54,4089.23,0
15_19_14,109,4514.36,4308.21,4126.15,4088.21,3938.97,4082.56,4001.54,3949.23,3979.49,3933.85,4094.87,4083.08,4180.51,4100,0
15_19_14,110,4527.69,4320.51,4130.26,4090.26,3946.15,4090.26,4007.69,3945.13,3985.64,3940.51,4118.46,4082.56,4203.08,4110.77,0
15_19_14,111,4527.69,4329.23,4127.18,4090.77,3956.92,4092.82,4005.13,3924.62,3989.23,3967.18,4114.87,4082.05,4208.21,4108.21,0
15_19_14,112,4521.03,4324.62,4126.15,4089.74,3958.97,4100,4001.54,3909.74,3990.26,3968.21,4111.79,4083.08,4203.59,4109.74,0
15_19_14,113,4523.08,4323.08,4127.18,4091.79,3960,4114.36,4005.13,3910.77,3990.26,3956.41,4118.97,4083.08,4210.26,4121.54,0
15_19_14,114,4526.67,4327.18,4124.1,4094.36,3977.44,4125.64,4007.18,3911.28,3991.79,3959.49,4119.49,4083.08,4221.03,4125.13,0
15_19_14,115,4521.54,4321.03,4122.56,4093.85,3986.67,4118.46,3997.95,3905.13,3984.1,3953.33,4104.62,4081.03,4208.21,4121.03,0
15_19_14,116,4508.72,4310.77,4123.08,4092.31,3964.62,4105.13,3988.72,3902.56,3974.36,3934.36,4089.74,4082.05,4183.08,4120.51,0
15_19_14,117,4495.38,4298.97,4122.05,4093.33,3946.15,4110.26,3992.31,3905.13,3976.41,3934.87,4094.87,4085.64,4168.72,4122.05,0
15_19_14,118,4492.31,4280,4122.05,4093.85,3950.26,4123.08,3998.97,3910.77,3983.08,3943.59,4106.67,4084.62,4168.21,4121.54,0
15_19_14,119,4492.82,4261.54,4119.49,4092.31,3943.08,4123.59,3997.44,3908.21,3984.1,3934.87,4103.08,4083.08,4170.77,4119.49,0
15_19_14,120,4485.64,4256.41,4116.41,4091.28,3930.77,4126.67,3993.85,3900.51,3980.51,3922.05,4092.82,4084.62,4173.33,4117.95,0
15_19_14,121,4475.38,4259.49,4118.46,4091.28,3948.21,4134.36,3993.85,3902.05,3980.51,3927.18,4100.51,4083.59,4171.79,4121.03,0
15_19_14,122,4474.87,4261.03,4120,4091.79,3975.38,4142.05,3998.97,3906.15,3986.15,3943.59,4110.26,4081.03,4168.72,4121.03,0
15_19_14,123,4477.44,4256.41,4117.95,4091.28,3972.31,4154.87,3998.46,3904.1,3994.36,3941.54,4110.26,4083.08,4170.77,4119.49,0
15_19_14,124,4475.38,4251.79,4121.03,4090.77,3954.36,4160,3990.77,3904.62,3997.44,3941.03,4107.69,4084.62,4171.79,4125.13,0
15_19_14,125,4474.87,4256.41,4120,4091.28,3959.49,4146.67,3989.74,3909.74,3998.46,3956.92,4109.23,4083.08,4166.67,4130.26,0
15_19_14,126,4475.38,4254.36,4112.31,4091.28,3966.67,4138.46,3994.36,3908.21,3998.46,3953.33,4107.69,4083.59,4156.92,4120.51,0
15_19_14,127,4477.95,4238.46,4113.85,4090.77,3950.26,4147.18,3988.72,3905.64,3996.92,3940,4098.46,4083.59,4155.38,4115.38,0
15_19_14,128,4477.44,4230.77,4120,4090.26,3942.05,4152.82,3984.1,3909.74,3997.44,3941.54,4099.49,4082.56,4155.38,4122.56,0
15_19_14,0,4466.15,4235.38,4117.44,4093.85,3953.85,4152.82,3990.26,3912.82,3994.36,3938.97,4105.64,4082.05,4146.15,4121.03,0
15_19_14,1,4458.46,4235.38,4116.92,4096.41,3962.56,4156.41,3993.33,3912.82,3996.92,3937.44,4107.69,4081.03,4146.15,4113.85,0
15_19_14,2,4454.87,4228.21,4121.54,4096.92,3958.97,4157.95,3988.72,3912.31,4005.13,3951.79,4110.26,4084.62,4151.79,4117.95,0
15_19_14,3,4444.62,4214.87,4117.44,4095.9,3954.87,4150.77,3987.69,3913.33,3999.49,3949.74,4102.56,4088.21,4136.92,4123.59,0
15_19_14,4,4439.49,4203.59,4114.36,4090.77,3955.38,4152.31,3988.21,3911.79,3988.21,3930.26,4091.28,4086.67,4120.51,4118.46,0
15_19_14,5,4436.92,4198.97,4115.38,4089.23,3948.72,4161.54,3984.62,3910.26,3993.33,3924.1,4092.31,4084.62,4123.08,4112.31,0
15_19_14,6,4423.08,4188.21,4113.85,4098.46,3926.67,4156.92,3980,3911.79,3997.95,3927.69,4086.15,4084.1,4116.41,4108.21,0
15_19_14,7,4411.79,4180,4113.85,4100.51,3922.05,4149.23,3975.9,3911.28,3992.31,3927.18,4078.46,4085.64,4107.18,4103.59,0
15_19_14,8,4412.31,4176.41,4117.95,4090.26,3942.05,4152.31,3971.79,3909.23,3995.38,3914.36,4086.67,4085.64,4107.69,4105.13,0
15_19_14,9,4407.18,4162.05,4116.41,4088.21,3937.95,4153.85,3971.28,3910.26,3999.49,3896.41,4083.08,4082.05,4094.87,4108.72,0
15_19_14,10,4401.03,4146.67,4113.33,4099.49,3916.41,4151.79,3973.33,3908.72,3993.33,3890.77,4065.64,4079.49,4074.36,4108.72,0
15_19_14,11,4405.13,4148.72,4116.41,4102.56,3922.56,4152.31,3970.77,3906.67,3992.31,3892.31,4057.44,4082.05,4066.67,4111.28,0
15_19_14,12,4406.15,4149.23,4111.79,4092.31,3933.33,4153.85,3969.23,3907.18,3997.95,3890.26,4047.69,4083.59,4065.64,4114.36,0
15_19_14,13,4396.92,4131.79,4103.08,4088.72,3921.03,4153.85,3970.77,3912.31,3997.95,3893.33,4038.97,4081.03,4058.46,4114.87,0
15_19_14,14,4397.95,4125.64,4103.59,4092.82,3926.67,4151.79,3972.31,3921.03,3997.95,3892.31,4050.77,4081.54,4050.77,4115.38,0
15_19_14,15,4412.31,4139.49,4104.62,4092.31,3946.15,4153.33,3973.33,3924.1,3997.95,3883.08,4062.05,4083.08,4053.33,4112.82,0
15_19_14,16,4416.41,4145.13,4103.08,4090.26,3951.28,4158.97,3974.87,3921.54,3998.46,3895.9,4058.46,4083.08,4060.51,4107.18,0
15_19_14,17,4408.21,4138.46,4104.62,4093.33,3953.33,4158.97,3974.87,3922.56,4002.56,3922.05,4058.46,4082.05,4061.03,4107.18,0
15_19_14,18,4404.62,4141.54,4106.67,4093.33,3949.23,4155.9,3973.33,3920,4005.13,3926.15,4060,4082.05,4059.49,4109.74,0
15_19_14,19,4403.59,4146.67,4103.08,4090.77,3947.18,4156.41,3973.85,3917.44,4004.62,3909.23,4058.46,4082.05,4054.87,4107.18,0
15_19_14,20,4392.82,4133.33,4103.08,4091.28,3954.36,4153.33,3971.79,3918.97,4006.67,3889.74,4056.92,4082.05,4036.92,4104.62,0
15_19_14,21,4387.18,4122.05,4107.69,4094.36,3950.77,4150.26,3969.74,3920,4011.79,3880.51,4060.51,4083.08,4027.18,4107.69,0
15_19_14,22,4394.87,4126.15,4104.1,4096.92,3942.56,4149.23,3971.28,3918.46,4016.41,3892.82,4060,4082.05,4031.79,4110.77,0
15_19_14,23,4393.85,4125.64,4098.97,4096.92,3953.85,4140,3971.79,3916.41,4014.87,3902.05,4047.18,4081.54,4026.15,4101.54,0
15_19_14,24,4374.87,4110.26,4102.56,4091.79,3956.92,4131.79,3971.28,3917.44,4011.79,3889.23,4035.38,4085.13,4016.92,4092.82,0
15_19_14,25,4367.18,4101.03,4103.08,4088.72,3943.08,4135.9,3971.79,3922.05,4015.9,3883.08,4036.92,4086.15,4023.08,4102.56,0
15_19_14,26,4377.44,4110.26,4097.44,4093.33,3954.87,4139.49,3972.31,3925.64,4021.03,3891.79,4044.62,4082.56,4026.15,4109.74,0
15_19_14,27,4383.59,4122.05,4096.41,4096.92,3964.62,4137.95,3972.31,3925.64,4023.59,3899.49,4047.18,4081.54,4011.28,4105.64,0
15_19_14,28,4382.05,4121.54,4098.46,4093.33,3954.36,4138.97,3973.85,3928.72,4028.72,3892.82,4046.67,4086.15,4001.54,4104.62,0
15_19_14,29,4376.92,4109.23,4098.97,4091.79,3960.51,4141.03,3974.87,3933.85,4030.26,3883.59,4049.74,4086.15,4002.56,4106.15,0
15_19_14,30,4376.41,4107.18,4096.92,4095.9,3978.97,4138.46,3973.85,3930.26,4028.72,3893.85,4060,4082.05,4005.64,4109.74,0
15_19_14,31,4381.03,4121.03,4097.44,4095.38,3988.21,4140.51,3973.33,3928.72,4035.9,3917.44,4075.38,4082.05,4014.87,4121.54,0
15_19_14,32,4377.44,4127.18,4100.51,4090.77,3990.26,4154.36,3977.44,3935.9,4037.44,3927.69,4077.44,4083.59,4024.1,4128.72,0
15_19_14,33,4365.64,4124.1,4097.44,4091.28,3982.05,4168.21,3984.1,3939.49,4029.74,3924.1,4066.15,4081.03,4020,4125.13,0
15_19_14,34,4361.54,4125.13,4092.82,4093.85,3967.18,4168.72,3987.69,3935.9,4029.23,3924.1,4058.46,4081.54,4014.87,4122.56,0
15_19_14,35,4364.62,4120.51,4097.95,4092.31,3983.08,4160,3990.77,3936.92,4033.85,3921.54,4060.51,4084.62,4021.03,4123.59,0
15_19_14,36,4362.05,4109.74,4100.51,4090.26,4013.85,4154.36,3991.79,3943.08,4038.46,3920,4066.67,4085.64,4025.64,4124.1,0
15_19_14,37,4355.9,4106.67,4097.44,4091.28,4013.85,4155.9,3989.23,3941.03,4042.56,3933.85,4072.31,4086.67,4018.97,4122.05,0
15_19_14,38,4350.26,4108.72,4097.95,4091.79,3997.44,4160.51,3989.74,3940.51,4043.08,3943.59,4080,4085.64,4013.33,4117.95,0
15_19_14,39,4350.77,4108.72,4100,4092.31,3994.36,4157.95,3991.79,3948.21,4042.56,3940.51,4082.05,4083.59,4014.36,4116.41,0
15_19_14,40,4349.23,4100,4098.46,4094.36,4005.13,4154.87,3989.74,3949.23,4044.62,3937.44,4074.36,4085.13,4009.74,4119.49,0
15_19_14,41,4340,4088.72,4098.46,4093.85,4001.54,4158.97,3989.74,3943.59,4043.08,3930.77,4074.36,4086.67,4002.05,4122.05,0
15_19_14,42,4336.92,4087.18,4101.54,4093.33,3996.41,4166.15,3990.26,3946.67,4044.1,3927.69,4088.72,4084.62,4003.08,4124.1,0
15_19_14,43,4335.9,4093.33,4099.49,4094.36,4026.15,4170.26,3988.72,3955.38,4052.82,3942.05,4096.92,4085.13,4009.23,4131.79,0
15_19_15,44,4326.67,4092.82,4095.38,4094.87,4054.87,4170.77,3995.9,3956.92,4051.28,3944.62,4091.79,4086.15,4005.64,4137.95,0
15_19_15,45,4326.67,4085.64,4096.92,4094.36,4033.33,4172.82,4006.67,3956.92,4048.21,3944.1,4092.31,4082.05,3998.97,4136.92,0
15_19_15,46,4335.38,4081.54,4102.05,4093.33,4015.38,4172.31,4007.18,3961.54,4055.9,3961.54,4096.41,4081.03,4002.56,4136.41,0
15_19_15,47,4329.74,4082.56,4102.56,4090.77,4038.46,4169.23,4004.1,3960.51,4059.49,3956.92,4090.77,4085.64,4001.03,4140.51,0
15_19_15,48,4323.08,4088.21,4100,4092.31,4047.18,4173.33,4005.64,3957.44,4055.9,3937.95,4084.62,4086.15,3990.77,4140.51,0
15_19_15,49,4324.1,4091.79,4098.97,4096.41,4042.05,4184.62,4005.13,3961.03,4057.95,3944.1,4090.26,4084.1,3987.69,4137.95,0
15_19_15,50,4317.95,4091.28,4098.46,4094.36,4061.54,4191.28,4007.18,3966.15,4064.62,3955.9,4101.03,4086.15,3992.31,4142.56,0
15_19_15,51,4310.26,4090.26,4100,4091.28,4079.49,4186.67,4016.41,3967.18,4065.64,3964.62,4099.49,4085.13,3990.77,4152.82,0
15_19_15,52,4311.28,4091.79,4096.92,4092.82,4075.38,4176.92,4014.87,3965.13,4064.62,3971.79,4098.46,4082.05,3990.26,4156.41,0
15_19_15,53,4312.31,4096.41,4092.82,4095.38,4069.74,4175.9,4009.74,3965.64,4061.03,3963.59,4105.64,4084.62,3990.26,4154.87,0
15_19_15,54,4310.26,4093.85,4094.87,4095.38,4080.51,4182.05,4016.41,3968.21,4057.95,3952.82,4105.13,4087.18,3977.95,4161.54,0
15_19_15,55,4312.31,4089.23,4097.44,4094.87,4078.46,4183.59,4022.56,3968.21,4061.54,3951.79,4093.85,4084.1,3973.85,4171.28,0
15_19_15,56,4312.31,4089.74,4098.46,4092.31,4057.95,4185.13,4021.03,3968.72,4068.72,3942.56,4092.31,4081.54,3985.64,4170.77,0
15_19_15,57,4303.08,4087.18,4098.46,4090.77,4067.18,4189.74,4017.95,3971.79,4075.38,3947.18,4096.92,4083.59,3993.33,4168.72,0
15_19_15,58,4293.33,4077.95,4097.95,4091.79,4090.77,4181.54,4013.33,3972.31,4076.41,3977.95,4091.79,4085.13,3991.28,4173.33,0
15_19_15,59,4293.85,4078.46,4098.97,4091.28,4084.1,4176.41,4012.31,3972.31,4076.41,3995.9,4096.41,4083.08,3993.85,4174.87,0
15_19_15,60,4296.41,4087.18,4099.49,4090.77,4084.1,4184.62,4018.97,3973.33,4078.97,3993.33,4109.23,4083.08,3996.41,4168.72,0
15_19_15,61,4283.59,4086.67,4097.95,4093.33,4106.67,4178.97,4020.51,3972.82,4080,3977.44,4100,4085.13,3979.49,4165.13,0
15_19_15,62,4271.79,4075.38,4099.49,4092.31,4098.97,4163.59,4018.46,3972.82,4073.33,3953.85,4080.51,4082.56,3958.46,4168.72,0
15_19_15,63,4275.38,4067.69,4101.54,4090.26,4074.36,4165.13,4020,3976.41,4064.62,3943.08,4082.05,4081.03,3954.36,4170.26,0
15_19_15,64,4273.33,4065.13,4097.95,4093.85,4063.08,4170.77,4019.49,3976.41,4056.92,3929.23,4082.05,4084.62,3947.18,4166.67,0
15_19_15,65,4258.97,4063.08,4096.41,4097.44,4054.36,4164.1,4018.97,3972.31,4045.64,3906.67,4060,4084.62,3930.77,4166.15,0
15_19_15,66,4251.28,4056.92,4098.46,4094.36,4061.03,4156.92,4018.46,3974.36,4041.03,3913.33,4056.41,4081.54,3930.77,4166.15,0
15_19_15,67,4250.26,4049.23,4097.95,4090.77,4072.82,4154.36,4015.38,3981.03,4043.08,3946.67,4070.26,4084.1,3941.54,4155.38,0
15_19_15,68,4247.18,4049.74,4093.85,4093.85,4070.26,4153.85,4015.38,3983.08,4045.13,3958.97,4083.59,4088.21,3948.72,4149.74,0
15_19_15,69,4247.69,4052.82,4090.77,4098.46,4073.33,4155.9,4018.97,3985.13,4052.82,3967.18,4101.03,4086.15,3956.92,4161.54,0
15_19_15,70,4242.05,4041.03,4092.82,4097.95,4070.77,4154.36,4017.95,3987.18,4060.51,3990.77,4108.21,4082.56,3958.97,4164.62,0
15_19_15,71,4227.18,4027.18,4094.36,4096.41,4057.44,4152.31,4018.46,3987.18,4055.9,3983.59,4091.28,4082.56,3945.13,4153.33,0
15_19_15,72,4222.05,4035.9,4093.33,4094.87,4055.9,4160,4027.69,3988.21,4051.28,3951.28,4085.13,4083.59,3941.03,4157.44,0
15_19_15,73,4230.26,4046.15,4092.82,4095.38,4053.33,4167.18,4031.28,3989.23,4054.87,3951.79,4102.05,4082.05,3949.74,4170.26,0
15_19_15,74,4233.33,4044.1,4094.36,4097.44,4052.82,4168.21,4027.69,3987.69,4057.95,3971.79,4109.74,4079.49,3947.69,4171.28,0
15_19_15,75,4231.28,4047.18,4094.36,4093.33,4081.03,4171.28,4031.28,3990.26,4058.97,3969.74,4106.67,4080,3940.51,4169.23,0
15_19_15,76,4228.21,4045.13,4093.85,4090.26,4105.13,4172.82,4032.82,3991.79,4053.85,3955.38,4101.03,4081.03,3937.44,4171.79,0
15_19_15,77,4222.05,4030.77,4096.41,4093.33,4092.82,4169.74,4027.69,3988.21,4049.74,3945.64,4093.33,4079.49,3931.28,4169.74,0
15_19_15,78,4216.92,4024.62,4097.95,4094.36,4074.36,4169.23,4027.69,3989.74,4055.9,3945.13,4088.21,4080.51,3921.54,4170.77,0
15_19_15,79,4210.77,4027.69,4098.46,4091.28,4075.38,4170.26,4030.26,3992.82,4060,3952.82,4087.18,4081.54,3924.1,4170.77,0
15_19_15,80,4207.69,4026.15,4098.46,4092.82,4077.95,4173.85,4028.21,3991.79,4062.05,3955.38,4092.82,4082.56,3935.38,4169.23,0
15_19_15,81,4215.38,4031.28,4098.46,4093.33,4072.82,4185.64,4032.31,3993.33,4072.31,3963.59,4106.15,4085.64,3950.77,4177.44,0
15_19_15,82,4222.56,4043.08,4100.51,4090.77,4079.49,4185.64,4038.46,3998.97,4078.46,3974.87,4119.49,4086.67,3970.26,4184.62,0
15_19_15,83,4218.97,4046.67,4098.97,4092.82,4103.08,4173.33,4033.33,3999.49,4074.36,3970.77,4118.97,4082.56,3980.51,4185.64,0
15_19_15,84,4216.92,4045.64,4093.33,4091.79,4109.23,4177.44,4027.18,3997.95,4074.36,3978.46,4112.82,4080.51,3980.51,4194.87,0
15_19_15,85,4215.38,4042.56,4090.26,4089.74,4094.36,4185.64,4031.79,3998.97,4076.41,4000,4107.69,4086.15,3970.26,4201.54,0
15_19_15,86,4207.18,4038.46,4091.79,4094.36,4088.21,4176.92,4036.92,3996.41,4072.82,3976.41,4101.03,4086.67,3949.23,4187.69,0
15_19_15,87,4197.95,4029.23,4090.26,4094.36,4089.74,4165.64,4035.38,3994.87,4072.82,3937.44,4092.82,4083.08,3927.18,4169.74,0
15_19_15,88,4188.72,4012.31,4088.72,4088.72,4076.41,4165.64,4035.9,3995.9,4074.36,3941.03,4086.67,4084.62,3919.49,4166.67,0
15_19_15,89,4186.15,3997.95,4089.23,4089.74,4061.03,4167.18,4037.44,3998.97,4074.87,3941.54,4091.79,4085.13,3929.74,4173.33,0
15_19_15,90,4189.23,3997.95,4088.72,4093.85,4068.21,4166.67,4037.44,4000.51,4083.59,3928.21,4097.95,4082.05,3941.54,4180,0
15_19_15,91,4189.23,4003.59,4089.23,4092.31,4076.41,4170.26,4044.62,3997.95,4090.77,3949.74,4095.9,4081.54,3943.08,4183.59,0
15_19_15,92,4185.64,4004.62,4089.74,4090.26,4073.85,4172.82,4052.82,3998.97,4084.62,3970.77,4091.79,4082.56,3942.05,4183.59,0
15_19_15,93,4178.46,3999.49,4089.23,4091.79,4076.41,4176.92,4051.79,4004.1,4080,3953.85,4088.72,4081.54,3939.49,4182.56,0
15_19_15,94,4172.31,3996.92,4090.77,4092.31,4077.44,4178.46,4050.26,4004.62,4085.13,3944.62,4092.82,4082.56,3937.95,4183.08,0
15_19_15,95,4178.46,4003.08,4092.82,4091.28,4080.51,4174.87,4054.36,4007.69,4090.77,3975.38,4104.1,4084.62,3948.21,4186.15,0
15_19_15,96,4188.21,4007.69,4093.33,4091.28,4083.59,4173.33,4056.41,4020,4093.33,3993.33,4110.77,4082.05,3961.54,4186.67,0
15_19_15,97,4184.1,4008.72,4092.31,4091.28,4068.21,4166.67,4052.31,4019.49,4093.33,3977.95,4112.31,4081.54,3959.49,4185.64,0
15_19_15,98,4170.26,4007.69,4091.79,4090.26,4059.49,4160.51,4048.72,4006.15,4091.28,3972.31,4111.79,4082.05,3955.38,4183.59,0
15_19_15,99,4160.51,3993.33,4091.79,4092.82,4071.28,4162.05,4048.72,4002.05,4090.77,3981.03,4092.82,4082.56,3951.28,4176.92,0
15_19_15,100,4163.08,3981.54,4092.31,4096.41,4067.18,4167.69,4049.23,4005.13,4094.36,3977.95,4080.51,4084.1,3946.67,4171.28,0
15_19_15,101,4166.67,3985.64,4091.28,4093.33,4054.36,4170.26,4050.77,4009.23,4096.41,3971.28,4097.44,4085.13,3949.74,4170.77,0
15_19_15,102,4160.51,3983.08,4090.26,4091.79,4061.54,4170.26,4052.31,4013.33,4091.28,3975.38,4097.44,4084.1,3949.23,4170.26,0
15_19_15,103,4157.44,3970.26,4091.79,4092.82,4067.69,4170.77,4051.28,4011.79,4091.79,3954.87,4078.46,4082.05,3942.05,4170.26,0
15_19_15,104,4157.95,3968.21,4091.28,4091.28,4051.79,4170.26,4052.82,4008.72,4099.49,3934.87,4077.44,4084.1,3938.46,4172.31,0
15_19_15,105,4157.44,3970.26,4087.18,4091.79,4049.23,4170.26,4062.56,4011.79,4103.08,3960.51,4075.9,4086.15,3939.49,4169.74,0
15_19_15,106,4156.92,3972.31,4084.62,4095.9,4070.26,4167.69,4068.21,4016.41,4105.13,3983.08,4064.62,4083.59,3940.51,4170.77,0
15_19_15,107,4157.44,3974.87,4086.67,4092.82,4075.9,4168.21,4068.72,4017.95,4108.72,3973.33,4073.85,4081.54,3942.56,4180,0
15_19_15,108,4160,3971.28,4088.72,4089.23,4064.62,4173.85,4072.82,4019.49,4108.21,3979.49,4092.31,4083.08,3949.74,4186.15,0
15_19_15,109,4166.67,3979.49,4085.13,4092.82,4077.44,4177.95,4074.87,4020,4108.21,3995.38,4095.9,4083.08,3961.03,4185.64,0
15_19_15,110,4163.59,3991.79,4076.92,4093.85,4094.87,4175.38,4070.77,4018.97,4108.21,3976.92,4091.79,4082.56,3958.97,4181.03,0
15_19_15,111,4140.51,3967.69,4070.26,4092.82,4072.31,4167.69,4066.15,4018.46,4098.46,3955.9,4080,4084.62,3936.92,4165.13,0
15_19_15,112,4121.54,3938.97,4067.18,4095.9,4053.85,4166.15,4066.67,4018.97,4094.87,3955.38,4062.56,4086.15,3918.46,4151.79,0
15_19_15,113,4121.54,3950.26,4066.67,4093.33,4074.87,4169.23,4072.82,4018.97,4104.62,3952.31,4058.46,4084.1,3919.49,4157.95,0
15_19_15,114,4124.62,3963.59,4067.18,4089.23,4072.82,4169.74,4072.82,4017.44,4110.26,3961.03,4070.77,4083.08,3930.26,4169.74,0
15_19_15,115,4117.44,3955.9,4067.18,4091.79,4041.54,4168.21,4067.18,4017.95,4108.21,3981.03,4080.51,4084.1,3933.85,4170.26,0
15_19_15,116,4111.28,3952.82,4067.69,4091.79,4049.74,4168.21,4067.18,4021.54,4107.69,3970.26,4074.87,4084.62,3924.1,4164.1,0
15_19_15,117,4121.03,3951.28,4067.18,4089.74,4076.92,4174.87,4074.36,4020,4108.21,3947.18,4070.77,4082.56,3923.08,4161.54,0
15_19_15,118,4134.36,3951.28,4069.23,4092.31,4077.95,4185.64,4075.9,4018.97,4107.69,3959.49,4080,4082.56,3938.46,4166.67,0
15_19_15,119,4138.97,3960.51,4071.79,4094.36,4080,4188.72,4075.38,4024.1,4105.64,3980.51,4079.49,4087.18,3943.08,4169.23,0
15_19_15,120,4137.95,3959.49,4071.28,4094.36,4084.1,4185.13,4078.97,4025.13,4105.64,3962.56,4066.15,4087.69,3935.9,4163.08,0
15_19_15,121,4136.41,3952.31,4066.15,4094.36,4081.54,4185.64,4077.44,4020.51,4105.64,3934.87,4064.62,4085.13,3943.59,4160,0
15_19_15,122,4137.95,3962.05,4062.05,4093.85,4092.82,4188.72,4073.85,4023.08,4105.64,3946.67,4077.44,4085.64,3968.21,4166.15,0
15_19_15,123,4144.1,3977.95,4065.13,4092.31,4086.15,4187.18,4080.51,4030.77,4113.33,3983.08,4090.26,4084.62,3984.1,4168.21,0
15_19_15,124,4144.62,3976.92,4069.74,4091.28,4061.03,4184.62,4087.69,4030.26,4118.46,4001.54,4090.77,4081.03,3978.97,4163.59,0
15_19_15,125,4137.44,3960.51,4069.23,4090.77,4073.85,4181.54,4082.05,4026.67,4109.23,4001.03,4078.97,4082.05,3973.85,4160.51,0
15_19_15,126,4137.95,3948.72,4064.62,4091.79,4095.9,4181.54,4076.92,4027.18,4107.18,4001.54,4072.82,4086.67,3973.33,4165.13,0
15_19_15,127,4149.74,3954.87,4063.59,4092.31,4091.79,4185.64,4087.69,4029.23,4114.87,4005.13,4079.49,4085.64,3968.72,4170.77,0
15_19_15,128,4148.72,3958.97,4063.08,4092.31,4088.21,4184.62,4094.87,4033.33,4115.38,4003.08,4080,4081.54,3965.13,4171.28,0
15_19_15,0,4142.05,3953.85,4061.54,4092.31,4091.28,4183.59,4090.77,4036.92,4116.41,3991.28,4078.46,4082.56,3967.69,4168.21,0
15_19_15,1,4148.72,3964.1,4061.54,4091.79,4096.92,4191.28,4090.77,4034.36,4121.03,3989.74,4089.74,4086.15,3973.33,4167.69,0
15_19_15,2,4152.31,3978.46,4062.05,4089.74,4093.33,4192.82,4096.41,4032.31,4115.38,3999.49,4088.72,4085.13,3970.26,4170.77,0
15_19_15,3,4143.08,3972.31,4060.51,4089.74,4072.82,4185.64,4095.9,4033.85,4110.77,3991.79,4074.36,4083.08,3961.54,4173.85,0
15_19_15,4,4139.49,3970.26,4061.03,4091.79,4069.74,4191.28,4095.38,4030.26,4118.46,3976.92,4077.44,4085.13,3964.1,4173.33,0
15_19_15,5,4142.05,3981.03,4062.56,4092.82,4092.31,4204.1,4103.59,4023.59,4123.08,3978.97,4088.21,4086.67,3972.82,4168.72,0
15_19_15,6,4138.46,3980,4063.08,4090.77,4093.85,4203.59,4109.23,4027.18,4122.56,3990.26,4094.87,4087.18,3973.85,4165.13,0
15_19_15,7,4138.97,3971.79,4059.49,4088.21,4084.62,4199.49,4105.64,4030.26,4123.08,4004.62,4107.18,4086.15,3981.03,4167.69,0
15_19_15,8,4137.95,3963.59,4055.38,4090.26,4086.67,4198.97,4103.08,4024.1,4121.03,4006.15,4106.67,4084.62,3989.23,4169.74,0
15_19_15,9,4130.77,3956.92,4053.33,4091.79,4077.95,4199.49,4108.21,4022.56,4116.92,4001.03,4090.77,4086.15,3981.54,4167.69,0
15_19_15,10,4133.33,3962.56,4053.85,4089.74,4065.64,4200,4107.69,4029.23,4117.95,4006.15,4088.72,4086.67,3970.26,4168.72,0
15_19_15,11,4139.49,3971.28,4054.36,4088.72,4071.79,4200,4107.18,4032.31,4123.08,4009.74,4091.28,4082.56,3971.28,4172.31,0
15_19_15,12,4141.03,3979.49,4055.38,4089.74,4078.46,4206.67,4118.46,4035.38,4127.18,4007.18,4093.33,4082.56,3982.05,4172.82,0
15_19_15,13,4137.44,3991.28,4056.92,4090.26,4073.33,4218.46,4125.13,4035.9,4124.1,4010.26,4098.97,4084.1,3984.1,4171.79,0
15_19_15,14,4130.26,3984.1,4058.46,4092.82,4078.46,4216.41,4113.85,4030.77,4110.77,4000,4083.59,4082.56,3963.59,4168.72,0
15_19_15,15,4125.64,3961.03,4053.85,4093.85,4092.31,4203.08,4108.21,4028.72,4105.64,3968.72,4062.05,4083.08,3948.72,4165.13,0
15_19_15,16,4127.18,3956.92,4049.74,4090.26,4088.72,4197.95,4112.31,4031.28,4108.72,3956.92,4070.26,4086.67,3956.92,4167.69,0
15_19_15,17,4127.18,3963.08,4055.9,4088.21,4073.85,4198.46,4109.74,4029.23,4107.18,3972.82,4082.05,4087.18,3960.51,4169.74,0
15_19_15,18,4121.03,3955.9,4060,4089.23,4066.67,4196.41,4110.26,4030.26,4110.26,3983.59,4073.85,4085.13,3955.9,4167.18,0
15_19_15,19,4123.08,3952.31,4054.87,4091.28,4071.79,4196.41,4118.46,4034.87,4120.51,3993.33,4073.85,4083.59,3968.21,4167.69,0
15_19_15,20,4132.82,3959.49,4055.9,4092.31,4080,4200.51,4123.08,4035.9,4122.05,4013.33,4087.18,4085.64,3987.69,4171.79,0
15_19_15,21,4136.92,3962.05,4057.44,4091.79,4075.38,4201.54,4122.56,4034.36,4121.54,4022.56,4088.72,4085.64,3994.36,4172.31,0
15_19_15,22,4134.87,3956.92,4054.36,4091.28,4064.62,4196.92,4121.54,4035.38,4122.56,4009.74,4078.97,4081.03,3987.69,4162.56,0
15_19_15,23,4134.87,3953.85,4056.41,4090.77,4080,4196.41,4119.49,4036.41,4113.85,3992.31,4069.74,4081.54,3977.95,4153.33,0
15_19_15,24,4136.41,3959.49,4060.51,4088.72,4106.67,4198.46,4121.54,4035.38,4108.72,3982.05,4065.64,4084.62,3974.36,4154.87,0
15_19_15,25,4133.85,3970.26,4061.03,4089.23,4096.92,4203.08,4123.59,4033.85,4116.41,3985.64,4067.69,4083.59,3974.87,4161.54,0
15_19_15,26,4129.74,3977.44,4060,4089.74,4075.9,4211.79,4122.05,4033.33,4121.03,3996.92,4074.87,4084.62,3977.44,4160.51,0
15_19_15,27,4126.15,3975.38,4061.03,4090.77,4086.67,4215.38,4121.54,4035.38,4114.87,3994.36,4075.9,4088.21,3974.87,4154.87,0
15_19_15,28,4124.1,3966.15,4062.56,4093.33,4097.95,4218.46,4123.08,4035.9,4109.74,3984.62,4073.85,4088.21,3973.85,4161.54,0
15_19_15,29,4124.1,3960.51,4060,4091.28,4086.15,4224.62,4124.1,4033.85,4109.23,3989.23,4082.05,4086.15,3982.05,4167.69,0
15_19_15,30,4122.56,3955.9,4054.87,4088.21,4083.08,4221.03,4123.59,4034.36,4113.33,3997.44,4090.77,4086.67,3988.72,4162.05,0
15_19_15,31,4122.56,3952.31,4056.92,4091.28,4089.74,4213.33,4123.08,4036.92,4118.46,4010.77,4094.36,4087.18,3992.31,4161.54,0
15_19_15,32,4125.64,3955.38,4060.51,4092.31,4085.64,4215.38,4125.13,4034.87,4113.85,4015.38,4088.21,4083.08,3990.77,4168.21,0
15_19_15,33,4123.08,3958.97,4058.97,4090.77,4086.15,4216.41,4126.67,4032.82,4109.74,3998.46,4078.97,4080.51,3980.51,4162.56,0
15_19_15,34,4113.85,3954.87,4059.49,4090.26,4093.33,4216.41,4124.1,4036.41,4116.92,3993.85,4081.54,4082.05,3975.9,4151.79,0
15_19_15,35,4112.82,3952.31,4060.51,4090.77,4097.95,4227.69,4126.67,4036.92,4122.56,4005.13,4081.03,4083.59,3984.62,4151.79,0
15_19_15,36,4120,3966.67,4060,4091.79,4108.72,4235.38,4136.92,4033.85,4122.05,4009.74,4079.49,4082.05,3994.87,4161.03,0
15_19_15,37,4123.08,3974.36,4061.03,4092.82,4109.74,4230.77,4142.05,4034.87,4124.1,4009.23,4087.69,4081.03,3996.41,4168.72,0
15_19_15,38,4121.54,3962.56,4062.56,4091.79,4092.31,4227.69,4138.97,4037.95,4121.54,4007.18,4085.64,4083.08,3991.79,4161.03,0
15_19_16,39,4122.05,3956.92,4062.05,4091.79,4096.92,4231.79,4138.97,4036.92,4113.33,4002.56,4076.41,4084.62,3992.82,4155.9,0
15_19_16,40,4123.08,3969.23,4055.9,4092.31,4111.28,4232.31,4140.51,4035.38,4116.41,4000,4086.15,4083.59,4005.13,4172.31,0
15_19_16,41,4121.54,3975.9,4049.74,4090.77,4094.87,4228.72,4140.51,4038.46,4121.03,4007.18,4095.38,4084.62,4010.26,4180.51,0
15_19_16,42,4121.54,3971.28,4046.67,4091.79,4095.9,4231.79,4142.56,4043.08,4122.56,4025.64,4094.36,4088.21,4004.1,4170.26,0
15_19_16,43,4120,3974.87,4045.13,4092.31,4126.67,4237.44,4144.1,4044.62,4125.64,4042.05,4102.05,4085.64,4007.69,4169.74,0
15_19_16,44,4114.36,3975.38,4045.13,4090.26,4126.15,4235.38,4139.49,4042.56,4125.13,4034.36,4096.92,4083.59,4003.59,4167.18,0
15_19_16,45,4110.26,3963.59,4047.18,4089.74,4097.95,4231.28,4136.92,4042.56,4120.51,4021.54,4073.85,4088.72,3988.21,4153.85,0
15_19_16,46,4114.36,3957.44,4050.26,4091.79,4090.77,4232.82,4140,4043.08,4118.46,4019.49,4069.23,4088.72,3982.56,4153.85,0
15_19_16,47,4117.44,3966.67,4050.26,4089.74,4108.21,4233.85,4140.51,4042.56,4118.46,4014.87,4084.1,4085.64,3990.77,4168.72,0
15_19_16,48,4113.85,3974.87,4048.21,4087.18,4121.03,4232.82,4140,4044.62,4115.38,4013.85,4091.28,4086.15,4000.51,4174.36,0
15_19_16,49,4114.36,3973.33,4045.64,4089.74,4117.95,4231.28,4148.21,4050.26,4114.87,4004.62,4082.56,4085.64,4006.67,4169.74,0
15_19_16,50,4122.05,3974.87,4045.13,4090.77,4108.72,4231.28,4154.87,4054.36,4113.85,3988.21,4075.38,4083.59,4005.13,4170.26,0
15_19_16,51,4121.03,3975.38,4045.64,4088.72,4094.87,4231.28,4149.23,4050.77,4108.21,3996.92,4079.49,4081.54,3998.97,4173.33,0
15_19_16,52,4109.74,3973.85,4049.23,4089.74,4083.59,4230.77,4148.72,4051.28,4112.31,4017.44,4085.13,4081.54,4000.51,4171.79,0
15_19_16,53,4104.62,3971.79,4052.82,4090.77,4095.38,4234.36,4153.33,4060,4121.54,4019.49,4087.18,4082.05,4004.1,4171.28,0
15_19_16,54,4103.59,3961.54,4048.72,4089.74,4110.26,4236.92,4147.18,4057.95,4117.95,4016.92,4084.1,4082.05,4003.08,4171.79,0
15_19_16,55,4096.92,3952.31,4044.1,4090.26,4097.95,4234.36,4137.95,4051.28,4108.72,4026.67,4074.36,4085.64,4001.03,4169.23,0
15_19_16,56,4095.38,3956.92,4045.64,4091.79,4083.59,4231.79,4140,4056.41,4111.28,4029.23,4073.33,4087.69,4005.13,4165.13,0
15_19_16,57,4096.92,3956.92,4048.21,4090.77,4087.18,4232.82,4140.51,4058.46,4113.33,4012.82,4080.51,4086.15,4008.72,4167.18,0
15_19_16,58,4095.9,3951.79,4043.08,4090.26,4088.21,4233.85,4137.44,4054.36,4107.18,3998.46,4077.95,4085.64,4006.67,4169.23,0
15_19_16,59,4100,3957.44,4037.44,4093.33,4083.59,4232.82,4143.08,4057.44,4108.21,4005.13,4071.79,4087.69,4001.03,4162.56,0
15_19_16,60,4109.74,3961.03,4038.97,4092.82,4079.49,4232.82,4150.26,4060.51,4109.74,4014.36,4075.38,4086.67,3992.82,4160.51,0
15_19_16,61,4110.26,3957.95,4041.03,4091.28,4081.54,4235.38,4146.67,4057.95,4107.18,4005.13,4078.97,4083.08,3990.26,4164.1,0
15_19_16,62,4105.13,3965.13,4036.41,4091.79,4094.87,4235.9,4141.03,4058.97,4111.79,4004.1,4080,4083.59,3996.41,4162.05,0
15_19_16,63,4104.62,3973.85,4035.38,4090.26,4105.64,4233.85,4145.13,4060.51,4116.41,4022.05,4084.1,4086.67,4004.1,4160,0
15_19_16,64,4109.23,3980,4041.54,4088.72,4103.08,4237.44,4152.82,4063.59,4114.36,4032.31,4088.72,4087.69,4014.36,4166.15,0
15_19_16,65,4112.31,3992.31,4041.54,4089.74,4093.33,4241.03,4152.31,4067.69,4116.41,4029.74,4095.38,4086.67,4026.67,4172.31,0
15_19_16,66,4110.26,3996.92,4035.38,4091.28,4088.21,4238.97,4149.23,4066.67,4122.05,4034.36,4100.51,4087.69,4031.28,4173.33,0
15_19_16,67,4107.69,3991.28,4036.41,4089.74,4093.85,4233.85,4152.82,4065.64,4120.51,4036.92,4095.38,4087.69,4029.23,4172.31,0
15_19_16,68,4105.64,3991.28,4042.56,4088.21,4103.08,4232.82,4157.44,4068.21,4116.92,4027.18,4094.87,4084.62,4031.79,4171.79,0
15_19_16,69,4106.15,3995.9,4045.13,4090.77,4111.28,4240,4155.38,4069.74,4119.49,4021.54,4103.08,4086.67,4032.82,4171.79,0
15_19_16,70,4108.21,3993.33,4048.72,4093.85,4110.77,4247.69,4154.36,4068.21,4118.46,4010.77,4101.03,4089.74,4021.54,4172.31,0
15_19_16,71,4104.62,3983.59,4050.26,4092.31,4094.36,4247.18,4155.9,4068.21,4115.38,3994.87,4085.13,4086.67,4004.1,4168.21,0
15_19_16,72,4100.51,3983.08,4044.62,4090.77,4089.23,4240.51,4156.41,4071.79,4120,4003.08,4088.21,4084.1,4009.23,4166.15,0
15_19_16,73,4106.67,3995.38,4042.05,4092.31,4109.23,4235.38,4154.36,4073.33,4121.54,4017.44,4114.87,4086.15,4034.36,4174.87,0
15_19_16,74,4108.72,3997.44,4047.69,4092.82,4108.72,4234.87,4151.79,4070.77,4110.26,3996.92,4123.59,4086.15,4045.64,4187.69,0
15_19_16,75,4097.44,3989.23,4048.72,4091.79,4083.59,4234.36,4151.79,4072.31,4104.1,3970.26,4106.67,4081.54,4035.9,4188.72,0
15_19_16,76,4092.82,3990.77,4047.69,4091.28,4088.21,4233.85,4152.82,4076.41,4111.79,3968.21,4095.38,4083.08,4026.67,4185.64,0
15_19_16,77,4101.03,3992.31,4048.72,4090.77,4108.72,4239.49,4154.87,4073.33,4113.33,3975.38,4101.54,4088.21,4029.74,4192.82,0
15_19_16,78,4106.67,3988.72,4047.18,4090.77,4112.82,4248.21,4157.95,4068.72,4113.85,3971.28,4110.77,4087.18,4037.95,4194.87,0
15_19_16,79,4098.97,3992.31,4046.67,4090.77,4109.23,4246.67,4157.44,4067.69,4120,3958.46,4110.26,4084.1,4033.33,4186.15,0
15_19_16,80,4089.23,3989.23,4045.64,4091.28,4098.46,4240,4154.87,4067.69,4121.54,3962.05,4098.46,4085.64,4016.92,4181.03,0
15_19_16,81,4088.72,3981.54,4045.64,4092.82,4100,4243.08,4157.44,4069.23,4119.49,3983.59,4092.82,4087.69,4011.28,4181.03,0
15_19_16,82,4092.31,3991.79,4051.28,4090.77,4126.15,4251.28,4160,4073.33,4119.49,3995.9,4104.1,4087.18,4029.23,4182.56,0
15_19_16,83,4090.77,4009.23,4052.82,4089.23,4133.33,4249.74,4156.41,4075.38,4122.56,4000,4114.36,4083.08,4046.15,4184.62,0
15_19_16,84,4088.72,4005.13,4048.21,4091.79,4109.23,4246.15,4155.38,4074.87,4123.08,4003.08,4112.31,4081.03,4044.1,4185.64,0
15_19_16,85,4089.74,3991.79,4048.21,4092.31,4106.67,4251.79,4155.9,4073.33,4113.85,3983.08,4104.62,4085.64,4036.41,4183.08,0
15_19_16,86,4088.72,3989.74,4051.79,4089.23,4129.23,4255.38,4154.36,4073.33,4110.26,3967.69,4101.03,4088.72,4035.9,4185.64,0
15_19_16,87,4086.67,4001.54,4049.74,4088.21,4130.77,4252.82,4155.9,4074.87,4118.97,3987.69,4099.49,4083.59,4037.44,4189.23,0
15_19_16,88,4088.21,4012.31,4049.74,4091.28,4120,4249.23,4156.92,4074.87,4123.08,4000,4095.38,4080.51,4034.87,4181.03,0
15_19_16,89,4090.26,4008.72,4051.28,4093.33,4129.23,4246.67,4154.87,4074.87,4120,3990.77,4090.77,4082.56,4027.69,4167.18,0
15_19_16,90,4092.31,4009.23,4047.18,4092.31,4142.56,4251.28,4162.05,4076.92,4118.46,4003.59,4092.82,4086.15,4027.69,4169.23,0
15_19_16,91,4094.36,4014.36,4044.62,4089.23,4135.9,4254.36,4167.18,4075.38,4111.79,4017.95,4093.85,4088.21,4032.82,4172.82,0
15_19_16,92,4095.9,4001.03,4045.64,4088.21,4122.05,4242.56,4158.46,4071.79,4104.1,3990.26,4087.69,4084.62,4021.54,4160,0
15_19_16,93,4100,3985.13,4044.62,4089.74,4117.44,4239.49,4152.31,4074.36,4107.18,3967.18,4089.23,4082.56,4008.72,4159.49,0
15_19_16,94,4106.67,3988.21,4043.59,4089.74,4117.44,4247.18,4156.41,4077.95,4112.82,3982.05,4091.79,4086.67,4011.28,4169.23,0
15_19_16,95,4105.13,3992.31,4044.1,4089.74,4115.9,4239.49,4157.44,4073.85,4109.74,3990.26,4082.05,4087.69,4005.13,4160,0
15_19_16,96,4096.41,3987.69,4044.1,4091.79,4126.67,4228.72,4156.92,4068.72,4112.82,3985.13,4081.03,4081.54,3995.38,4146.15,0
15_19_16,97,4091.79,3987.69,4046.15,4091.28,4142.56,4235.38,4156.92,4067.69,4121.03,3985.13,4090.77,4082.56,4003.59,4149.74,0
15_19_16,98,4093.33,3988.21,4049.74,4088.21,4139.49,4240,4155.38,4066.67,4120.51,3985.64,4083.08,4088.21,4008.21,4152.31,0
15_19_16,99,4100.51,3995.9,4051.28,4090.77,4137.95,4238.97,4164.1,4065.13,4113.85,3992.31,4079.49,4087.69,4008.21,4149.74,0
15_19_16,100,4111.28,4011.28,4052.82,4093.85,4156.41,4245.13,4169.23,4066.15,4113.85,4007.69,4098.97,4087.18,4027.69,4157.95,0
15_19_16,101,4108.72,4017.44,4053.33,4091.28,4157.95,4242.05,4158.46,4068.72,4113.33,4000,4103.08,4090.26,4039.49,4161.54,0
15_19_16,102,4095.38,4005.64,4056.92,4090.77,4128.72,4230.77,4150.77,4068.21,4108.21,3970.77,4080.51,4090.26,4020,4147.69,0
15_19_16,103,4090.77,3989.74,4063.59,4095.38,4116.92,4228.72,4154.36,4066.67,4110.26,3967.69,4067.69,4095.38,3999.49,4142.05,0
15_19_16,104,4093.33,3995.38,4065.64,4098.97,4131.79,4232.82,4157.95,4071.28,4120.51,3985.64,4072.31,4100.51,3999.49,4150.77,0
15_19_16,105,4094.36,4010.77,4078.46,4100.51,4135.9,4228.72,4156.41,4076.41,4118.46,3985.64,4073.85,4107.69,4002.05,4157.44,0
15_19_16,106,4095.9,4010.77,4093.85,4100,4135.38,4217.44,4155.9,4075.9,4108.72,3977.95,4074.36,4115.38,4003.59,4160.51,0
15_19_16,107,4091.28,4009.23,4071.28,4094.36,4136.92,4213.33,4155.38,4069.74,4108.72,3984.1,4088.21,4097.44,4023.59,4165.13,0
15_19_16,108,4078.97,4017.95,4032.31,4089.23,4123.59,4214.87,4155.38,4063.59,4108.72,3995.38,4105.13,4067.18,4043.59,4160.51,0
15_19_16,109,4075.9,4021.54,4028.21,4088.21,4128.21,4214.36,4150.77,4062.56,4106.67,4006.67,4108.21,4067.69,4040.51,4153.85,0
15_19_16,110,4086.67,4016.92,4041.54,4089.74,4156.41,4212.31,4152.82,4067.18,4115.9,4024.1,4102.05,4084.62,4035.38,4161.54,0
15_19_16,111,4095.9,4021.54,4041.03,4090.77,4156.92,4220,4166.67,4069.23,4126.15,4024.62,4100,4083.08,4046.15,4172.31,0
15_19_16,112,4096.41,4036.41,4041.03,4091.79,4142.05,4229.74,4171.28,4066.67,4120.51,4012.31,4093.85,4080.51,4045.13,4169.74,0
15_19_16,113,4095.38,4049.23,4049.74,4092.82,4151.28,4233.33,4162.56,4069.23,4116.92,4018.97,4091.28,4088.72,4034.36,4166.15,0
15_19_16,114,4103.08,4051.79,4054.36,4092.31,4153.33,4235.38,4162.05,4074.87,4123.59,4030.26,4109.23,4092.31,4052.82,4177.95,0
15_19_16,115,4107.69,4047.18,4050.26,4091.79,4141.03,4231.28,4165.13,4073.33,4124.62,4030.77,4130.26,4088.72,4079.49,4188.21,0
15_19_16,116,4098.97,4047.18,4042.05,4089.74,4154.36,4220,4157.44,4069.23,4121.03,4036.41,4127.18,4085.13,4073.33,4177.44,0
15_19_16,117,4092.82,4048.21,4039.49,4088.21,4161.03,4214.36,4154.87,4067.69,4121.03,4044.1,4110.77,4081.54,4057.95,4169.23,0
15_19_16,118,4093.85,4052.82,4039.49,4089.74,4148.72,4225.64,4166.15,4067.69,4123.08,4030.26,4107.18,4077.44,4060,4180,0
15_19_16,119,4093.33,4068.21,4038.97,4090.26,4155.9,4235.38,4172.82,4068.21,4123.59,4029.23,4114.36,4076.41,4069.23,4187.18,0
15_19_16,120,4089.74,4074.36,4037.95,4087.18,4169.23,4231.28,4169.23,4069.74,4123.08,4060,4121.03,4081.03,4073.85,4185.64,0
15_19_16,121,4087.18,4061.54,4035.9,4087.18,4172.31,4228.21,4167.69,4067.18,4121.54,4060.51,4120.51,4082.56,4068.72,4183.59,0
15_19_16,122,4085.64,4060,4034.87,4091.28,4172.82,4233.33,4170.77,4066.15,4120.51,4022.05,4108.72,4081.03,4055.9,4178.46,0
15_19_16,123,4082.56,4074.87,4034.87,4090.26,4161.54,4233.33,4171.79,4068.72,4120,4021.03,4101.54,4079.49,4052.31,4177.44,0
15_19_16,124,4080,4077.95,4035.38,4089.23,4157.95,4227.69,4169.23,4069.23,4120,4052.82,4111.28,4080.51,4063.08,4184.62,0
15_19_16,125,4081.03,4080.51,4035.38,4091.79,4177.95,4225.13,4170.26,4067.18,4122.05,4060,4126.15,4082.05,4078.97,4186.67,0
15_19_16,126,4083.08,4089.74,4035.9,4090.77,4179.49,4221.03,4173.33,4067.18,4124.62,4057.95,4128.72,4082.05,4090.26,4181.54,0
15_19_16,127,4080,4082.05,4034.36,4089.74,4164.1,4215.38,4169.74,4067.69,4122.56,4061.54,4118.97,4081.03,4091.28,4181.03,0
15_19_16,128,4075.38,4067.69,4034.36,4091.28,4170.77,4215.9,4166.67,4066.15,4118.97,4057.95,4108.72,4081.54,4084.62,4183.08,0
15_19_16,0,4077.95,4076.92,4034.87,4089.74,4165.64,4217.44,4170.77,4066.15,4119.49,4054.87,4105.64,4082.05,4078.97,4184.1,0
15_19_16,1,4080.51,4091.28,4036.41,4088.72,4147.69,4212.82,4170.77,4070.77,4121.54,4060,4107.18,4082.05,4080,4184.62,0
15_19_16,2,4080,4089.74,4036.92,4089.23,4159.49,4211.28,4168.72,4074.87,4123.08,4059.49,4106.15,4081.54,4086.15,4183.08,0
15_19_16,3,4084.1,4092.82,4035.38,4089.23,4177.95,4217.44,4176.92,4073.85,4122.56,4045.64,4106.67,4082.05,4090.26,4183.59,0
15_19_16,4,4089.23,4106.67,4035.9,4090.77,4177.95,4220.51,4185.13,4074.36,4121.54,4038.97,4110.26,4082.56,4090.26,4185.13,0
15_19_16,5,4090.77,4112.31,4036.41,4090.77,4177.44,4218.97,4185.13,4076.41,4123.08,4060.51,4105.13,4082.56,4090.26,4181.54,0
15_19_16,6,4090.26,4105.13,4035.9,4088.21,4177.95,4222.05,4186.67,4074.87,4124.1,4079.49,4107.18,4083.08,4092.31,4181.03,0
15_19_16,7,4085.64,4096.41,4036.92,4088.21,4177.95,4223.08,4188.21,4074.87,4124.1,4067.18,4120,4084.1,4095.38,4184.1,0
15_19_16,8,4076.41,4089.23,4036.41,4089.74,4170.26,4211.79,4185.64,4075.38,4124.62,4068.72,4114.87,4085.13,4095.38,4177.44,0
15_19_16,9,4071.79,4088.72,4034.36,4089.23,4155.9,4203.59,4189.23,4073.85,4124.1,4091.28,4103.08,4083.08,4101.54,4166.67,0
15_19_16,10,4067.69,4093.33,4034.87,4088.72,4158.46,4205.13,4200,4074.36,4123.08,4087.69,4105.64,4082.05,4109.23,4169.23,0
15_19_16,11,4062.56,4090.77,4035.38,4090.77,4165.64,4203.08,4198.97,4073.85,4123.08,4070.77,4107.18,4085.13,4101.03,4174.87,0
15_19_16,12,4069.23,4083.59,4036.92,4091.79,4157.95,4200.51,4195.38,4068.72,4124.1,4080,4102.56,4085.64,4093.85,4171.79,0
15_19_16,13,4079.49,4092.31,4042.56,4088.72,4154.36,4207.18,4206.67,4069.23,4125.13,4094.36,4108.21,4082.56,4105.64,4173.85,0
15_19_16,14,4081.54,4110.26,4041.03,4087.69,4156.41,4210.26,4217.95,4075.38,4125.64,4094.87,4112.31,4082.05,4114.36,4184.1,0
15_19_16,15,4074.87,4109.74,4034.87,4089.74,4160.51,4203.08,4215.38,4076.41,4125.13,4087.18,4105.64,4084.1,4101.54,4184.1,0
15_19_16,16,4067.69,4102.05,4031.79,4088.21,4170.26,4199.49,4211.28,4073.85,4124.62,4078.46,4104.1,4079.49,4090.77,4173.85,0
15_19_16,17,4067.18,4102.05,4031.28,4085.13,4161.54,4202.56,4215.9,4074.87,4124.62,4088.72,4107.69,4075.38,4091.79,4169.23,0
15_19_16,18,4070.26,4096.41,4032.82,4089.23,4140,4201.54,4214.36,4075.9,4123.59,4105.13,4106.67,4079.49,4093.33,4170.26,0
15_19_16,19,4068.72,4088.21,4035.9,4092.31,4136.41,4197.95,4205.13,4070.77,4121.03,4098.46,4107.69,4083.59,4097.95,4175.38,0
15_19_16,20,4058.46,4089.74,4036.92,4089.23,4138.46,4195.9,4206.67,4068.72,4118.97,4086.67,4119.49,4082.05,4104.62,4182.56,0
15_19_16,21,4049.23,4091.79,4034.87,4088.72,4138.46,4200.51,4214.87,4073.33,4120.51,4096.41,4124.1,4082.05,4108.21,4184.1,0
15_19_16,22,4050.77,4095.9,4035.9,4090.77,4149.74,4209.74,4217.95,4077.44,4125.13,4106.67,4116.92,4084.62,4106.67,4182.05,0
15_19_16,23,4056.92,4107.69,4042.05,4088.21,4157.95,4207.18,4218.46,4076.41,4124.62,4107.18,4116.92,4084.1,4109.74,4191.28,0
15_19_16,24,4062.05,4112.31,4043.59,4088.72,4157.95,4199.49,4220.51,4076.41,4124.1,4108.72,4121.54,4082.05,4114.36,4204.62,0
15_19_16,25,4069.74,4106.15,4040.51,4090.26,4157.44,4200.51,4217.95,4079.49,4124.62,4108.72,4118.46,4083.59,4110.77,4198.46,0
15_19_16,26,4075.9,4105.64,4039.49,4089.74,4151.79,4203.08,4222.05,4080,4123.08,4101.54,4113.85,4087.18,4104.1,4187.69,0
15_19_16,27,4078.97,4113.33,4042.05,4089.74,4144.62,4198.97,4230.26,4077.44,4125.13,4103.59,4124.62,4086.67,4112.82,4194.36,0
15_19_16,28,4077.44,4108.21,4042.05,4089.23,4138.46,4197.95,4221.03,4078.46,4125.64,4120.51,4135.9,4080.51,4122.56,4198.97,0
15_19_16,29,4066.67,4094.36,4040.51,4087.18,4140,4199.49,4216.92,4084.1,4125.64,4123.08,4128.21,4080,4109.74,4185.64,0
15_19_16,30,4060,4101.03,4044.1,4087.18,4158.46,4199.49,4226.15,4084.62,4133.33,4115.38,4125.13,4087.18,4104.1,4182.05,0
15_19_16,31,4064.1,4114.87,4048.72,4090.26,4171.28,4201.54,4230.26,4082.05,4141.54,4123.08,4141.54,4088.21,4123.08,4189.74,0
15_19_16,32,4065.64,4105.64,4047.69,4090.26,4163.08,4202.05,4225.13,4081.54,4135.38,4124.1,4142.56,4084.62,4132.82,4185.13,0
15_19_16,33,4064.1,4091.79,4044.1,4089.23,4154.36,4197.44,4222.56,4082.05,4128.72,4110.26,4125.64,4085.13,4118.46,4178.46,0
15_19_16,34,4061.54,4091.79,4044.1,4088.72,4152.31,4190.26,4225.13,4084.1,4130.77,4114.87,4112.31,4087.69,4105.13,4182.05,0
15_19_16,35,4054.87,4091.79,4041.54,4089.23,4149.74,4186.15,4226.15,4090.26,4130.77,4126.15,4105.13,4084.62,4104.1,4184.1,0
15_19_16,36,4053.85,4091.28,4037.95,4090.77,4150.26,4186.15,4222.56,4089.23,4128.21,4114.36,4113.33,4084.1,4109.23,4184.1,0
15_19_16,37,4054.87,4091.79,4042.56,4087.69,4144.1,4188.21,4217.44,4082.05,4126.67,4101.54,4120,4087.18,4103.08,4180.51,0
15_19_17,38,4050.26,4085.64,4045.64,4084.1,4134.36,4186.67,4217.95,4084.1,4124.62,4102.56,4107.18,4084.62,4089.23,4170.77,0
15_19_17,39,4047.18,4076.41,4041.54,4085.13,4137.95,4185.64,4219.49,4088.21,4122.56,4102.56,4100,4082.05,4090.26,4167.69,0
15_19_17,40,4045.64,4073.33,4041.54,4089.74,4144.1,4188.72,4218.46,4090.26,4123.08,4102.05,4100,4084.62,4093.33,4172.82,0
15_19_17,41,4043.59,4075.9,4044.62,4090.26,4140.51,4186.67,4218.46,4098.46,4123.59,4105.13,4094.36,4088.72,4087.18,4170.77,0
15_19_17,42,4041.03,4076.41,4044.62,4086.15,4138.46,4181.03,4215.9,4103.08,4121.54,4104.1,4092.82,4084.62,4091.28,4168.21,0
15_19_17,43,4039.49,4078.46,4044.62,4087.18,4151.28,4182.56,4217.44,4098.46,4127.18,4097.95,4095.9,4081.03,4104.62,4173.33,0
15_19_17,44,4041.54,4082.05,4045.64,4092.82,4165.64,4185.64,4225.64,4095.9,4135.38,4108.21,4097.95,4082.05,4106.67,4173.85,0
15_19_17,45,4047.18,4080.51,4047.69,4090.26,4169.74,4183.59,4228.72,4097.44,4137.95,4126.67,4109.23,4082.05,4106.67,4171.79,0
15_19_17,46,4044.62,4081.03,4047.69,4084.1,4177.44,4182.05,4219.49,4096.92,4135.9,4117.44,4111.28,4082.05,4108.21,4170.77,0
15_19_17,47,4040,4090.77,4044.1,4087.69,4190.77,4183.59,4211.28,4105.13,4135.38,4111.28,4107.69,4082.56,4108.21,4170.77,0
15_19_17,48,4044.62,4098.97,4040.51,4090.77,4186.67,4187.18,4214.36,4118.46,4137.95,4141.54,4115.9,4082.05,4110.77,4180,0
15_19_17,49,4047.18,4094.87,4041.54,4085.13,4174.87,4189.23,4216.92,4124.62,4137.95,4149.23,4116.41,4085.13,4112.31,4189.23,0
15_19_17,50,4042.56,4087.69,4044.1,4082.05,4177.44,4186.15,4218.97,4123.08,4135.38,4122.56,4103.59,4088.21,4105.64,4185.13,0
15_19_17,51,4044.1,4089.74,4043.59,4085.64,4190.77,4184.1,4222.05,4121.54,4136.41,4127.69,4105.13,4083.59,4103.08,4184.1,0
15_19_17,52,4050.26,4093.85,4046.67,4089.74,4194.87,4181.03,4221.54,4121.54,4141.03,4150.77,4122.56,4080.51,4109.74,4190.26,0
15_19_17,53,4048.21,4084.62,4045.13,4089.23,4191.79,4174.36,4224.62,4122.05,4140,4143.59,4123.59,4082.56,4114.87,4186.67,0
15_19_17,54,4045.64,4074.36,4041.54,4088.21,4186.15,4171.28,4224.1,4122.05,4134.87,4132.82,4108.72,4082.56,4110.26,4183.08,0
15_19_17,55,4050.26,4080,4041.54,4088.21,4173.33,4172.31,4218.46,4120.51,4136.41,4130.26,4096.41,4082.05,4097.95,4182.05,0
15_19_17,56,4053.85,4085.64,4042.05,4088.72,4168.72,4171.79,4222.56,4118.97,4137.95,4117.95,4088.72,4083.08,4088.21,4173.85,0
15_19_17,57,4054.87,4075.38,4041.54,4088.21,4189.74,4169.23,4232.82,4121.54,4134.87,4111.79,4087.69,4081.54,4087.69,4169.74,0
15_19_17,58,4061.03,4066.15,4039.49,4088.21,4205.13,4164.62,4232.82,4123.08,4134.36,4125.64,4089.23,4081.54,4089.74,4172.82,0
15_19_17,59,4062.56,4066.67,4040,4088.72,4189.74,4160,4228.21,4120,4135.38,4137.95,4088.72,4082.05,4090.77,4171.28,0
15_19_17,60,4054.87,4062.05,4044.1,4088.21,4179.49,4161.03,4228.72,4119.49,4132.31,4131.28,4091.28,4082.05,4086.67,4167.69,0
15_19_17,61,4047.69,4053.85,4040.51,4088.21,4185.64,4156.92,4227.18,4122.05,4127.69,4121.03,4090.77,4082.05,4077.44,4166.67,0
15_19_17,62,4045.13,4056.41,4033.33,4090.77,4184.62,4152.31,4227.69,4123.08,4132.31,4130.26,4080.51,4082.05,4080,4165.13,0
15_19_17,63,4048.72,4067.18,4038.97,4092.31,4184.1,4164.62,4231.28,4121.03,4137.44,4143.08,4082.56,4082.05,4092.82,4167.69,0
15_19_17,64,4055.9,4066.15,4047.18,4089.74,4185.64,4169.74,4229.23,4118.46,4129.74,4134.36,4092.82,4081.54,4090.26,4173.33,0
15_19_17,65,4057.95,4052.82,4045.13,4088.21,4186.67,4153.33,4226.67,4118.97,4123.59,4126.67,4086.15,4082.56,4073.85,4172.31,0
15_19_17,66,4058.46,4045.64,4045.64,4088.72,4190.77,4148.21,4229.23,4121.03,4131.79,4135.38,4080.51,4082.05,4070.26,4172.31,0
15_19_17,67,4062.05,4047.18,4048.21,4087.18,4187.69,4151.28,4232.82,4121.03,4138.97,4148.72,4090.77,4080,4082.56,4180,0
15_19_17,68,4064.1,4052.82,4048.21,4085.64,4179.49,4142.05,4232.31,4121.03,4136.41,4162.56,4099.49,4084.62,4093.85,4185.13,0
15_19_17,69,4066.15,4062.05,4050.77,4087.69,4184.62,4135.9,4231.28,4122.05,4136.92,4173.33,4099.49,4089.23,4099.49,4180,0
15_19_17,70,4068.21,4066.67,4050.26,4090.77,4199.49,4141.54,4233.85,4122.56,4141.03,4171.28,4094.36,4084.1,4095.9,4176.92,0
15_19_17,71,4063.08,4055.9,4046.15,4091.79,4205.13,4142.56,4241.03,4122.05,4140.51,4166.15,4085.64,4079.49,4083.59,4183.59,0
15_19_17,72,4053.85,4047.18,4044.62,4093.33,4208.21,4142.56,4245.13,4122.05,4139.49,4167.69,4076.92,4086.15,4074.36,4185.64,0
15_19_17,73,4052.31,4052.31,4045.13,4093.33,4202.56,4139.49,4239.49,4123.08,4139.49,4164.1,4072.31,4089.74,4075.38,4182.05,0
15_19_17,74,4052.82,4051.79,4046.15,4090.77,4188.72,4128.21,4232.82,4122.56,4139.49,4164.62,4074.87,4084.1,4076.92,4184.1,0
15_19_17,75,4050.77,4040.51,4049.74,4088.72,4190.77,4129.23,4234.36,4119.49,4138.46,4173.33,4081.54,4080,4070.26,4186.67,0
15_19_17,76,4050.77,4043.59,4051.79,4088.72,4201.03,4140.51,4243.08,4120,4138.97,4185.13,4087.69,4083.08,4068.72,4187.18,0
15_19_17,77,4051.28,4062.05,4051.28,4090.26,4197.95,4142.56,4247.69,4122.56,4140.51,4194.87,4092.82,4088.21,4075.9,4194.87,0
15_19_17,78,4047.69,4065.13,4051.79,4092.82,4206.67,4140,4241.03,4123.08,4144.1,4195.9,4096.41,4089.74,4082.05,4205.64,0
15_19_17,79,4045.64,4052.82,4049.74,4093.85,4218.97,4140,4232.31,4121.54,4150.26,4197.44,4096.92,4088.21,4083.59,4207.18,0
15_19_17,80,4048.21,4048.72,4046.15,4090.77,4206.67,4130.77,4232.82,4120.51,4151.28,4205.13,4086.67,4089.23,4080.51,4202.56,0
15_19_17,81,4043.59,4053.85,4044.62,4088.72,4203.59,4121.03,4236.41,4120,4143.59,4195.38,4071.28,4088.72,4073.85,4201.03,0
15_19_17,82,4030.26,4046.67,4043.59,4090.26,4217.44,4121.03,4233.33,4120.51,4136.41,4172.31,4064.1,4087.69,4062.56,4201.54,0
15_19_17,83,4025.64,4034.87,4047.69,4089.74,4217.95,4121.54,4233.33,4121.54,4137.95,4180.51,4069.23,4086.15,4056.92,4209.23,0
15_19_17,84,4031.79,4041.54,4052.31,4087.69,4211.79,4119.49,4236.92,4122.05,4140,4208.21,4077.44,4084.62,4067.69,4217.44,0
15_19_17,85,4031.28,4048.72,4051.28,4087.18,4206.15,4115.9,4235.9,4121.03,4137.95,4206.15,4077.95,4085.64,4075.38,4215.38,0
15_19_17,86,4025.13,4037.95,4049.74,4088.21,4203.08,4108.72,4231.28,4120,4135.9,4196.41,4074.87,4086.15,4066.67,4208.21,0
15_19_17,87,4028.72,4039.49,4051.79,4089.23,4208.72,4105.13,4233.85,4120.51,4136.92,4208.72,4071.28,4083.59,4057.95,4208.72,0
15_19_17,88,4037.95,4055.9,4051.79,4090.26,4210.26,4108.21,4237.95,4122.56,4141.03,4213.85,4063.59,4081.03,4061.54,4208.21,0
15_19_17,89,4038.97,4048.72,4050.77,4089.74,4197.95,4106.15,4233.33,4121.03,4138.46,4198.46,4055.9,4084.1,4057.44,4199.49,0
15_19_17,90,4034.36,4022.56,4051.28,4088.21,4193.33,4095.38,4226.67,4113.33,4130.77,4190.77,4049.74,4085.64,4037.44,4196.41,0
15_19_17,91,4038.97,4026.15,4050.26,4087.69,4201.54,4090.26,4228.21,4113.33,4131.79,4205.64,4048.21,4082.56,4032.31,4201.54,0
15_19_17,92,4046.67,4047.69,4051.28,4088.72,4204.1,4092.82,4231.79,4122.05,4138.46,4226.67,4065.13,4085.13,4048.21,4205.64,0
15_19_17,93,4045.64,4047.18,4052.82,4089.74,4203.08,4087.69,4230.77,4123.59,4140,4231.28,4078.46,4089.23,4052.31,4204.1,0
15_19_17,94,4035.38,4038.46,4051.79,4088.72,4206.15,4077.95,4226.15,4117.44,4138.97,4222.56,4063.59,4089.74,4038.46,4198.46,0
15_19_17,95,4029.23,4035.9,4056.92,4090.26,4215.9,4076.92,4222.56,4120,4141.03,4217.95,4053.85,4089.23,4044.62,4196.92,0
15_19_17,96,4030.26,4028.21,4060.51,4092.31,4212.31,4076.41,4220,4122.05,4140,4219.49,4063.59,4088.21,4057.44,4194.36,0
15_19_17,97,4027.18,4014.87,4053.85,4090.26,4189.74,4071.79,4217.95,4115.38,4137.44,4220.51,4062.05,4088.21,4047.69,4185.64,0
15_19_17,98,4017.95,4011.28,4048.72,4087.69,4188.72,4071.79,4215.9,4113.33,4136.41,4215.9,4053.33,4089.23,4039.49,4182.05,0
15_19_17,99,4021.54,4023.08,4052.31,4087.69,4213.85,4075.38,4215.9,4121.54,4137.44,4213.33,4068.72,4086.67,4050.77,4187.18,0
15_19_17,100,4029.23,4036.41,4054.87,4089.23,4224.62,4075.38,4216.92,4123.08,4139.49,4232.31,4082.05,4085.13,4054.36,4188.21,0
15_19_17,101,4015.38,4026.67,4051.28,4089.23,4210.26,4066.15,4214.87,4116.92,4136.92,4249.23,4060.51,4086.67,4038.46,4182.05,0
15_19_17,102,4002.05,4010.77,4050.26,4088.72,4198.97,4048.72,4210.77,4116.41,4136.41,4231.79,4042.05,4086.67,4025.13,4180,0
15_19_17,103,4010.77,4029.23,4056.41,4088.72,4199.49,4048.21,4207.69,4120.51,4136.92,4211.28,4051.79,4087.18,4030.26,4185.13,0
15_19_17,104,4011.28,4047.18,4061.03,4089.23,4203.08,4058.97,4203.59,4120.51,4131.28,4221.03,4049.23,4089.23,4034.87,4185.13,0
15_19_17,105,4000.51,4036.92,4055.38,4089.23,4211.28,4050.77,4201.03,4118.97,4128.72,4233.85,4032.82,4088.72,4031.79,4171.79,0
15_19_17,106,4004.1,4044.1,4050.77,4089.74,4213.33,4041.54,4204.1,4121.54,4138.46,4229.23,4041.54,4086.15,4035.9,4170.77,0
15_19_17,107,4010.77,4060,4051.79,4090.26,4200.51,4043.08,4203.08,4124.1,4141.54,4232.31,4052.82,4083.08,4038.97,4184.1,0
15_19_17,108,4002.56,4044.62,4051.79,4086.15,4187.18,4036.41,4197.44,4120.51,4130.26,4240,4043.59,4081.54,4029.23,4182.05,0
15_19_17,109,3996.41,4034.36,4051.79,4084.62,4198.97,4027.18,4198.97,4113.85,4129.23,4241.54,4042.56,4086.67,4027.18,4168.21,0
15_19_17,110,3999.49,4054.36,4050.77,4089.23,4223.08,4026.15,4199.49,4106.67,4134.36,4243.59,4051.79,4090.77,4037.95,4169.74,0
15_19_17,111,4006.15,4064.62,4051.28,4090.77,4233.85,4022.05,4190.26,4103.08,4130.77,4250.26,4057.44,4089.23,4039.49,4179.49,0
15_19_17,112,4013.85,4058.46,4057.44,4088.21,4233.85,4015.38,4185.13,4100.51,4125.64,4251.79,4058.97,4088.72,4028.21,4183.08,0
15_19_17,113,4017.44,4060,4061.54,4087.18,4225.64,4010.77,4184.62,4094.87,4123.59,4246.15,4055.9,4089.23,4022.56,4185.13,0
15_19_17,114,4012.31,4063.59,4061.03,4088.21,4213.33,4001.54,4183.08,4095.38,4121.03,4242.05,4052.82,4088.72,4022.05,4181.03,0
15_19_17,115,4008.72,4063.59,4060.51,4089.23,4212.82,3989.74,4180,4101.54,4116.92,4248.72,4048.21,4090.26,4017.44,4175.9,0
15_19_17,116,4011.79,4069.74,4061.54,4089.74,4216.92,3982.56,4173.33,4100,4115.9,4260,4043.08,4089.23,4016.41,4181.03,0
15_19_17,117,4008.21,4074.36,4060,4087.69,4212.31,3982.05,4167.18,4095.38,4112.31,4254.87,4040.51,4083.08,4017.44,4181.03,0
15_19_17,118,4004.62,4074.36,4056.41,4087.69,4209.74,3991.28,4168.72,4096.92,4107.18,4243.59,4042.05,4081.54,4010.26,4169.74,0
15_19_17,119,4015.9,4078.46,4055.9,4088.21,4210.77,3990.77,4169.23,4098.46,4107.18,4249.23,4042.56,4083.08,4003.08,4171.28,0
15_19_17,120,4032.82,4094.87,4060.51,4087.69,4221.54,3971.28,4167.69,4096.41,4116.41,4268.72,4049.74,4084.1,4013.33,4186.67,0
15_19_17,121,4039.49,4116.41,4061.03,4087.69,4241.54,3958.46,4166.67,4097.44,4120,4287.69,4066.15,4084.1,4029.74,4192.82,0
15_19_17,122,4036.41,4121.03,4056.41,4088.21,4242.56,3955.9,4158.97,4100,4109.23,4283.59,4070.26,4083.08,4026.15,4189.23,0
15_19_17,123,4029.74,4114.87,4056.92,4087.69,4224.62,3948.21,4153.33,4097.44,4102.56,4265.13,4061.54,4084.1,4006.15,4183.59,0
15_19_17,124,4030.26,4123.08,4062.05,4087.69,4219.49,3937.95,4155.9,4092.82,4108.21,4268.21,4062.05,4088.72,4007.18,4181.03,0
15_19_17,125,4038.46,4140,4062.56,4088.72,4233.33,3930.77,4150.26,4089.23,4111.79,4282.56,4074.36,4090.77,4027.69,4185.13,0
15_19_17,126,4035.38,4140.51,4062.56,4089.23,4244.62,3924.1,4136.41,4089.23,4108.72,4278.97,4078.46,4088.21,4028.21,4181.03,0
15_19_17,127,4030.26,4134.36,4064.62,4088.21,4242.56,3925.64,4127.18,4089.23,4106.67,4271.28,4070.26,4085.13,4015.9,4169.74,0
15_19_17,128,4039.49,4138.97,4067.69,4087.69,4238.97,3924.62,4120.51,4088.21,4107.18,4272.31,4076.41,4082.56,4026.15,4168.72,0
15_19_17,0,4049.23,4142.56,4067.18,4088.21,4241.03,3914.87,4111.79,4088.21,4105.64,4281.03,4091.28,4082.05,4038.46,4171.28,0
15_19_17,1,4043.08,4137.95,4063.08,4087.69,4239.49,3910.26,4103.08,4089.23,4105.64,4293.85,4085.64,4084.1,4031.28,4168.21,0
15_19_17,2,4035.9,4142.56,4063.08,4087.69,4230.77,3905.64,4086.67,4089.23,4105.64,4300.51,4077.95,4084.1,4030.77,4170.26,0
15_19_17,3,4041.03,4154.36,4067.69,4089.23,4234.87,3894.87,4065.13,4088.72,4101.03,4296.41,4085.13,4081.54,4039.49,4172.31,0
15_19_17,4,4043.08,4150.77,4067.18,4090.26,4233.85,3891.79,4051.79,4086.15,4099.49,4286.67,4073.85,4084.1,4031.79,4169.23,0
15_19_17,5,4038.97,4135.9,4066.15,4089.23,4216.92,3889.23,4043.59,4083.08,4103.08,4280,4046.67,4089.74,4014.87,4173.33,0
15_19_17,6,4041.54,4141.03,4068.72,4088.21,4223.08,3881.03,4032.82,4083.59,4104.62,4281.54,4047.18,4090.77,4012.82,4178.97,0
15_19_17,7,4046.15,4158.46,4069.23,4088.72,4247.18,3875.38,4026.15,4083.08,4105.13,4281.54,4060,4087.18,4018.97,4172.31,0
15_19_17,8,4045.13,4158.97,4067.69,4089.23,4243.08,3868.72,4026.67,4081.54,4102.05,4273.85,4053.85,4088.21,4013.85,4166.67,0
15_19_17,9,4047.18,4149.74,4068.21,4088.72,4214.36,3861.03,4026.67,4086.67,4095.9,4276.92,4048.21,4090.26,4012.82,4169.74,0
15_19_17,10,4060,4149.23,4070.77,4088.72,4212.31,3868.21,4023.08,4089.74,4096.92,4292.31,4052.31,4086.67,4020.51,4165.64,0
15_19_17,11,4069.74,4158.46,4072.31,4089.23,4238.46,3878.97,4023.59,4082.56,4105.13,4296.92,4058.46,4084.62,4022.56,4155.38,0
15_19_17,12,4071.79,4170.77,4073.33,4089.23,4252.82,3878.46,4028.21,4080,4107.18,4302.05,4064.62,4088.72,4022.05,4153.33,0
15_19_17,13,4080,4185.13,4075.38,4090.26,4254.36,3878.46,4028.21,4083.59,4106.67,4315.38,4072.31,4090.77,4033.85,4155.9,0
15_19_17,14,4093.33,4203.59,4074.36,4090.26,4264.1,3877.44,4025.64,4080,4107.69,4318.97,4082.05,4086.15,4046.67,4157.44,0
15_19_17,15,4095.38,4227.18,4067.69,4089.23,4275.9,3866.15,4023.08,4077.44,4106.67,4314.87,4090.26,4082.05,4051.79,4154.87,0
15_19_17,16,4097.44,4239.49,4065.64,4087.69,4271.79,3858.97,4019.49,4080,4104.62,4307.18,4094.36,4081.54,4057.44,4148.72,0
15_19_17,17,4103.08,4234.36,4071.79,4087.69,4257.95,3865.13,4022.05,4076.41,4103.59,4301.03,4094.36,4084.62,4060,4143.59,0
15_19_17,18,4096.41,4236.41,4073.85,4089.23,4255.9,3867.69,4025.64,4073.33,4105.13,4303.08,4093.33,4090.26,4057.95,4141.54,0
15_19_17,19,4085.64,4246.15,4074.36,4088.21,4273.33,3861.03,4021.03,4077.44,4106.15,4309.23,4088.72,4092.31,4055.38,4140,0
15_19_17,20,4094.36,4252.31,4076.41,4086.67,4291.79,3858.97,4019.49,4080,4107.18,4321.03,4093.85,4086.15,4060,4136.92,0
15_19_17,21,4107.18,4262.05,4077.44,4086.67,4297.44,3864.62,4026.67,4081.03,4109.23,4340,4106.67,4085.13,4072.82,4136.92,0
15_19_17,22,4104.62,4274.87,4081.03,4086.67,4295.38,3863.59,4028.72,4082.05,4109.74,4345.64,4104.62,4090.26,4079.49,4137.95,0
15_19_17,23,4101.54,4281.54,4084.62,4086.15,4289.74,3852.82,4022.56,4078.46,4108.21,4325.64,4098.97,4090.77,4077.44,4140,0
15_19_17,24,4114.36,4289.23,4082.56,4088.72,4277.95,3847.18,4020.51,4072.31,4104.62,4312.82,4105.64,4086.15,4077.95,4135.9,0
15_19_17,25,4138.97,4300,4081.54,4090.26,4274.36,3846.67,4019.49,4072.31,4099.49,4319.49,4108.21,4084.62,4085.64,4126.15,0
15_19_17,26,4163.59,4307.18,4083.59,4088.72,4291.28,3842.56,4018.97,4075.9,4101.03,4328.21,4105.13,4086.67,4091.79,4127.18,0
15_19_17,27,4178.46,4316.92,4084.1,4089.23,4295.9,3843.59,4019.49,4073.33,4104.62,4325.64,4108.21,4086.15,4093.33,4134.87,0
15_19_17,28,4180.51,4323.08,4083.08,4091.79,4277.95,3847.18,4012.82,4069.74,4100,4318.46,4108.72,4085.13,4089.74,4131.79,0
15_19_17,29,4180.51,4325.13,4083.08,4090.26,4283.08,3845.13,4007.18,4072.31,4096.92,4324.62,4103.59,4087.69,4097.44,4128.72,0
15_19_17,30,4184.1,4335.9,4084.62,4086.67,4308.21,3844.1,4013.85,4075.9,4102.05,4338.46,4109.23,4089.74,4111.28,4136.41,0
15_19_17,31,4185.13,4352.82,4083.08,4088.21,4308.72,3848.72,4021.03,4072.82,4105.64,4345.64,4120.51,4088.21,4112.31,4135.38,0
15_19_17,32,4183.59,4360.51,4080.51,4091.28,4291.79,3844.1,4016.92,4067.69,4104.1,4337.95,4118.97,4087.18,4113.33,4128.21,0
15_19_17,33,4181.03,4355.38,4082.05,4086.67,4284.62,3831.28,4008.21,4067.18,4098.97,4326.15,4110.26,4089.23,4121.54,4125.64,0
15_19_17,34,4181.54,4354.87,4083.08,4083.08,4283.59,3827.69,4006.15,4067.69,4095.9,4323.08,4114.87,4089.74,4124.62,4124.62,0
15_19_17,35,4185.64,4366.15,4082.56,4087.69,4285.13,3833.33,4006.67,4067.18,4096.92,4322.56,4127.18,4089.74,4126.15,4120,0
15_19_17,36,4183.08,4369.23,4084.1,4090.26,4285.64,3833.85,4005.64,4070.77,4093.85,4316.92,4132.31,4089.23,4132.31,4115.9,0
15_19_18,37,4174.87,4370.26,4084.62,4086.15,4283.59,3828.21,4007.69,4073.33,4091.28,4319.49,4135.38,4087.18,4134.36,4121.54,0
15_19_18,38,4180.51,4385.64,4083.08,4087.69,4291.28,3830.26,4015.9,4069.23,4091.79,4331.79,4140.51,4087.69,4145.13,4135.9,0
15_19_18,39,4196.41,4399.49,4082.56,4091.79,4291.28,3831.79,4019.49,4067.69,4092.82,4330.77,4143.59,4087.18,4161.54,4140.51,0
15_19_18,40,4203.08,4400,4083.08,4089.74,4282.56,3833.33,4017.44,4069.23,4092.82,4323.08,4142.56,4085.64,4161.54,4134.87,0
15_19_18,41,4194.87,4405.13,4085.64,4088.21,4300,3844.1,4017.95,4066.67,4091.79,4330.26,4142.56,4086.67,4159.49,4135.38,0
15_19_18,42,4189.23,4418.97,4089.23,4090.77,4326.67,3850.26,4020.51,4070.77,4091.28,4342.56,4149.23,4088.21,4171.79,4138.46,0
15_19_18,43,4196.92,4426.67,4089.23,4090.77,4325.13,3845.64,4025.64,4075.38,4093.85,4344.62,4160.51,4089.74,4185.64,4135.38,0
15_19_18,44,4202.56,4432.31,4088.72,4088.21,4309.23,3842.56,4028.21,4069.23,4094.36,4339.49,4163.08,4089.74,4193.33,4136.41,0
15_19_18,45,4195.38,4442.05,4089.74,4088.72,4309.74,3844.1,4028.21,4066.15,4090.26,4338.97,4161.03,4089.23,4200,4145.13,0
15_19_18,46,4196.41,4451.79,4090.77,4089.74,4322.05,3848.72,4031.28,4074.36,4094.36,4344.62,4169.74,4089.23,4206.15,4151.79,0
15_19_18,47,4212.82,4462.56,4091.28,4088.21,4337.44,3856.41,4037.44,4075.9,4106.67,4358.97,4184.62,4090.77,4214.36,4154.87,0
15_19_18,48,4222.56,4485.13,4091.79,4088.72,4349.23,3862.56,4042.56,4068.72,4106.15,4375.38,4193.33,4087.69,4231.28,4160.51,0
15_19_18,49,4213.33,4498.46,4088.72,4091.79,4331.79,3864.1,4042.56,4065.13,4092.82,4370.77,4189.23,4085.13,4240,4161.03,0
15_19_18,50,4202.56,4477.95,4090.77,4090.26,4307.18,3859.49,4037.95,4067.18,4086.67,4346.15,4169.74,4094.36,4222.05,4148.72,0
15_19_18,51,4200.51,4460.51,4094.87,4082.56,4306.15,3849.23,4032.82,4066.15,4089.23,4321.03,4155.38,4093.85,4205.13,4136.92,0
15_19_18,52,4192.82,4472.31,4091.79,4082.56,4304.1,3847.18,4033.33,4062.56,4083.08,4307.69,4165.64,4081.03,4220,4140.51,0
15_19_18,53,4184.62,4483.59,4087.69,4089.23,4292.82,3851.79,4033.85,4058.97,4073.85,4309.74,4178.46,4082.56,4238.97,4149.74,0
15_19_18,54,4190.77,4470.77,4090.26,4090.26,4295.9,3845.64,4034.36,4057.95,4077.95,4318.97,4170.77,4092.82,4233.85,4152.31,0
15_19_18,55,4196.41,4460,4093.33,4089.74,4299.49,3841.03,4038.97,4057.95,4088.72,4322.56,4162.05,4085.64,4233.85,4149.23,0
15_19_18,56,4196.41,4477.95,4092.82,4089.23,4295.38,3854.36,4044.1,4055.9,4092.82,4325.13,4172.82,4078.97,4254.87,4150.26,0
15_19_18,57,4200,4495.9,4091.28,4086.15,4307.18,3867.18,4045.13,4051.79,4089.74,4326.67,4180.51,4088.72,4268.72,4154.87,0
15_19_18,58,4197.44,4482.56,4089.74,4086.67,4310.26,3856.92,4043.59,4051.79,4089.74,4315.38,4168.72,4094.36,4259.49,4153.33,0
15_19_18,59,4183.59,4469.74,4089.74,4091.28,4299.49,3843.59,4045.13,4053.85,4091.79,4306.67,4169.23,4092.82,4260,4151.28,0
15_19_18,60,4171.28,4481.03,4093.33,4090.26,4301.03,3853.33,4046.15,4051.79,4091.79,4317.95,4189.74,4093.33,4277.44,4153.33,0
15_19_18,61,4166.15,4485.13,4096.41,4086.67,4301.54,3863.08,4045.13,4051.79,4094.87,4323.08,4191.28,4092.31,4281.03,4154.36,0
15_19_18,62,4166.67,4485.13,4098.97,4088.72,4307.18,3862.05,4044.62,4054.36,4097.95,4310.26,4184.1,4090.26,4281.03,4154.36,0
15_19_18,63,4164.62,4500,4100,4090.26,4325.13,3868.72,4041.54,4054.36,4094.87,4305.13,4201.03,4090.77,4294.36,4155.38,0
15_19_18,64,4154.87,4503.08,4099.49,4089.23,4323.59,3877.95,4036.92,4050.26,4086.67,4314.36,4209.23,4089.23,4300.51,4155.9,0
15_19_18,65,4152.82,4488.72,4099.49,4088.72,4303.59,3876.41,4035.38,4050.77,4084.1,4313.85,4188.21,4088.21,4298.46,4154.87,0
15_19_18,66,4155.9,4487.69,4096.41,4089.23,4309.23,3874.87,4033.33,4056.92,4088.72,4301.54,4185.13,4088.72,4305.13,4155.9,0
15_19_18,67,4152.31,4502.05,4091.28,4089.23,4320,3879.49,4033.33,4057.44,4092.31,4305.13,4200.51,4089.23,4308.72,4156.41,0
15_19_18,68,4150.77,4509.74,4090.77,4088.21,4301.03,3879.49,4038.97,4055.9,4090.26,4317.95,4204.1,4089.74,4309.74,4154.87,0
15_19_18,69,4160.51,4510.77,4095.38,4088.21,4297.44,3876.41,4043.59,4055.9,4084.62,4307.18,4205.64,4089.23,4323.59,4156.41,0
15_19_18,70,4169.23,4511.79,4098.46,4089.23,4321.54,3876.41,4049.74,4054.87,4086.15,4287.69,4211.28,4086.67,4334.87,4156.92,0
15_19_18,71,4171.28,4509.74,4096.92,4090.26,4330.26,3874.87,4060,4051.28,4090.77,4290.26,4204.1,4088.21,4329.23,4154.36,0
15_19_18,72,4170.26,4514.87,4095.38,4088.72,4325.64,3877.44,4066.67,4051.28,4087.18,4308.21,4198.46,4090.77,4325.13,4161.03,0
15_19_18,73,4169.74,4522.05,4098.46,4087.69,4335.9,3887.18,4069.23,4052.82,4085.13,4320.51,4212.82,4086.67,4337.44,4174.36,0
15_19_18,74,4168.21,4515.9,4100,4087.69,4331.28,3886.67,4068.72,4051.79,4090.77,4315.9,4217.95,4084.1,4348.72,4171.28,0
15_19_18,75,4161.03,4503.59,4095.38,4088.21,4298.46,3873.85,4060.51,4051.79,4084.1,4295.38,4203.59,4088.21,4344.1,4156.92,0
15_19_18,76,4158.46,4505.64,4095.38,4087.69,4288.21,3871.79,4058.97,4051.79,4070.77,4286.67,4202.05,4089.74,4339.49,4151.28,0
15_19_18,77,4168.21,4514.36,4100,4087.69,4297.95,3878.97,4070.77,4053.33,4077.95,4296.41,4218.46,4087.69,4345.64,4155.9,0
15_19_18,78,4167.69,4504.1,4099.49,4088.21,4285.64,3876.41,4071.79,4053.33,4082.05,4289.74,4218.97,4088.72,4345.13,4154.87,0
15_19_18,79,4151.28,4482.56,4096.92,4088.21,4274.87,3880,4066.67,4051.28,4071.28,4268.21,4200,4088.72,4337.44,4145.64,0
15_19_18,80,4154.36,4486.15,4097.95,4089.74,4291.28,3892.82,4072.31,4051.79,4075.9,4263.08,4203.08,4087.18,4342.56,4145.64,0
15_19_18,81,4167.69,4510.26,4099.49,4092.31,4304.1,3901.03,4079.49,4052.82,4085.13,4273.85,4222.05,4088.21,4356.92,4153.33,0
15_19_18,82,4160.51,4511.28,4098.97,4090.77,4292.31,3904.1,4074.87,4050.26,4077.95,4281.03,4218.97,4090.26,4358.46,4145.64,0
15_19_18,83,4150.26,4504.62,4097.95,4086.67,4287.18,3902.05,4071.79,4047.69,4077.44,4281.03,4213.85,4090.77,4353.33,4133.85,0
15_19_18,84,4153.85,4517.44,4097.44,4087.69,4295.9,3895.9,4083.08,4051.28,4089.74,4277.95,4227.18,4088.21,4363.08,4137.95,0
15_19_18,85,4156.92,4513.85,4103.08,4091.79,4297.95,3894.87,4093.33,4052.82,4087.18,4274.87,4226.67,4087.18,4370.26,4138.97,0
15_19_18,86,4152.82,4493.85,4106.15,4091.79,4286.15,3893.33,4091.28,4048.21,4075.38,4257.44,4216.41,4088.72,4360.51,4127.69,0
15_19_18,87,4143.59,4489.74,4103.59,4088.72,4262.05,3888.72,4087.69,4045.64,4071.79,4229.23,4214.36,4089.23,4356.92,4123.59,0
15_19_18,88,4137.44,4489.74,4104.62,4089.23,4264.1,3892.31,4090.26,4047.69,4075.9,4226.15,4205.13,4088.72,4362.56,4122.56,0
15_19_18,89,4137.44,4476.41,4108.21,4092.31,4280,3890.77,4084.1,4047.18,4075.38,4237.95,4191.79,4089.23,4351.28,4115.38,0
15_19_18,90,4137.95,4470.77,4106.15,4091.79,4268.72,3879.49,4076.92,4043.59,4068.21,4231.28,4193.85,4088.72,4340.51,4110.77,0
15_19_18,91,4143.08,4477.95,4104.62,4088.72,4256.41,3885.64,4083.08,4044.62,4068.21,4219.49,4208.72,4090.26,4356.92,4108.72,0
15_19_18,92,4151.79,4474.36,4107.18,4088.21,4263.08,3896.92,4090.77,4045.13,4075.38,4211.79,4216.92,4090.77,4367.18,4105.64,0
15_19_18,93,4152.31,4470.77,4105.64,4089.23,4269.23,3894.87,4092.31,4038.97,4071.28,4208.72,4216.41,4087.18,4355.9,4105.64,0
15_19_18,94,4151.28,4476.41,4105.13,4090.26,4263.59,3891.28,4090.26,4034.87,4064.62,4215.38,4215.38,4088.21,4348.72,4106.15,0
15_19_18,95,4150.77,4473.33,4109.74,4091.28,4260,3895.38,4089.74,4037.95,4070.77,4213.85,4214.36,4088.21,4346.15,4101.54,0
15_19_18,96,4147.69,4462.05,4110.26,4090.26,4268.72,3898.46,4097.44,4040,4077.44,4201.54,4215.38,4081.03,4350.77,4096.41,0
15_19_18,97,4152.31,4461.03,4105.13,4090.77,4276.41,3900,4103.08,4037.44,4074.87,4203.08,4219.49,4082.05,4364.62,4091.28,0
15_19_18,98,4150.77,4462.05,4103.59,4091.79,4269.74,3894.36,4092.82,4034.87,4066.67,4203.08,4211.28,4089.23,4363.08,4083.59,0
15_19_18,99,4138.46,4453.33,4105.64,4091.79,4262.56,3893.33,4086.15,4034.87,4064.1,4185.64,4203.08,4087.69,4351.28,4081.54,0
15_19_18,100,4142.56,4458.97,4104.62,4091.79,4271.28,3906.67,4099.49,4036.92,4071.28,4186.15,4229.23,4085.64,4371.28,4092.82,0
15_19_18,101,4159.49,4476.41,4105.13,4093.33,4290.77,3912.82,4110.77,4036.92,4076.41,4203.59,4257.95,4088.72,4401.54,4103.59,0
15_19_18,102,4167.18,4477.44,4109.23,4093.33,4303.59,3911.28,4108.21,4034.87,4076.41,4196.92,4254.87,4087.69,4393.85,4099.49,0
15_19_18,103,4167.69,4470.77,4108.72,4090.77,4298.46,3917.95,4106.67,4034.87,4076.41,4168.21,4242.56,4087.18,4378.46,4096.41,0
15_19_18,104,4171.79,4481.03,4104.1,4090.26,4300,3927.18,4115.38,4035.38,4076.92,4166.67,4242.56,4088.72,4390.77,4104.62,0
15_19_18,105,4177.44,4496.41,4105.13,4090.77,4327.18,3926.15,4125.13,4035.9,4080,4190.77,4246.67,4089.74,4407.18,4110.77,0
15_19_18,106,4175.9,4486.67,4107.18,4088.72,4331.79,3916.92,4125.13,4036.41,4084.62,4178.97,4243.59,4088.72,4398.97,4108.21,0
15_19_18,107,4165.13,4473.85,4103.08,4087.18,4310.26,3908.72,4120,4035.38,4083.08,4150.26,4232.31,4088.21,4384.62,4102.56,0
15_19_18,108,4165.13,4481.03,4102.05,4090.26,4308.72,3915.9,4122.56,4033.85,4082.05,4158.97,4232.82,4087.69,4386.15,4096.41,0
15_19_18,109,4171.79,4487.18,4105.64,4094.36,4317.95,3926.15,4126.67,4035.38,4084.1,4184.62,4250.26,4086.15,4398.97,4098.46,0
15_19_18,110,4156.92,4472.82,4106.15,4091.79,4321.03,3916.41,4123.59,4034.87,4080,4166.15,4250.77,4085.64,4400,4102.56,0
15_19_18,111,4142.05,4459.49,4104.62,4087.69,4321.54,3901.54,4118.46,4029.74,4074.87,4122.05,4226.67,4089.23,4380,4091.28,0
15_19_18,112,4147.18,4455.9,4104.1,4090.77,4310.77,3908.21,4117.95,4030.77,4074.87,4105.13,4211.79,4091.79,4366.15,4082.56,0
15_19_18,113,4153.85,4455.9,4106.15,4092.82,4309.23,3924.62,4121.03,4034.36,4076.41,4117.95,4221.03,4090.26,4376.92,4088.72,0
15_19_18,114,4155.9,4469.23,4106.15,4090.77,4333.33,3928.21,4124.62,4031.28,4078.97,4129.74,4233.33,4091.28,4389.74,4092.31,0
15_19_18,115,4150.77,4477.95,4103.59,4091.28,4340,3924.62,4120,4025.64,4077.44,4112.31,4235.38,4089.74,4385.64,4084.1,0
15_19_18,116,4140.51,4464.1,4103.59,4090.77,4319.49,3924.62,4112.31,4027.69,4072.82,4093.33,4232.82,4085.64,4378.97,4081.54,0
15_19_18,117,4142.05,4453.85,4107.18,4088.72,4318.97,3925.64,4116.92,4032.82,4077.95,4107.69,4233.33,4084.62,4385.13,4087.69,0
15_19_18,118,4153.33,4461.03,4105.64,4089.74,4329.23,3924.1,4124.1,4031.28,4084.1,4128.21,4241.03,4085.64,4394.87,4090.77,0
15_19_18,119,4153.33,4462.05,4102.56,4089.74,4327.69,3926.15,4123.59,4030.26,4081.03,4112.82,4245.64,4088.21,4401.54,4091.28,0
15_19_18,120,4146.67,4453.33,4104.62,4088.21,4328.21,3931.28,4124.62,4032.31,4077.95,4087.69,4241.03,4089.74,4396.92,4088.21,0
15_19_18,121,4141.54,4440.51,4105.64,4089.74,4314.87,3922.56,4120,4031.79,4075.9,4075.9,4230.77,4086.67,4378.46,4082.05,0
15_19_18,122,4131.28,4425.13,4107.18,4089.74,4294.87,3908.21,4107.18,4027.69,4068.72,4063.59,4220,4084.62,4359.49,4085.13,0
15_19_18,123,4126.15,4424.62,4104.62,4090.26,4301.54,3915.38,4109.23,4029.23,4069.74,4060,4212.82,4086.15,4355.38,4092.31,0
15_19_18,124,4127.69,4432.82,4100,4091.79,4306.67,3928.72,4123.08,4033.33,4075.9,4056.92,4215.9,4086.15,4357.95,4087.69,0
15_19_18,125,4125.13,4427.18,4101.03,4092.82,4290.77,3924.62,4121.54,4028.72,4074.36,4048.21,4218.46,4086.67,4354.87,4076.92,0
15_19_18,126,4123.08,4417.44,4101.54,4091.79,4280.51,3922.05,4111.28,4020.51,4067.69,4052.31,4208.72,4088.21,4344.1,4077.44,0
15_19_18,127,4121.54,4412.82,4100,4089.74,4272.82,3924.1,4109.74,4018.97,4062.56,4045.64,4198.97,4085.64,4328.72,4077.44,0
15_19_18,128,4110.77,4391.79,4101.03,4087.69,4254.36,3914.87,4102.56,4021.03,4058.46,4007.18,4192.31,4084.62,4311.28,4063.08,0
15_19_18,0,4096.41,4366.67,4100,4090.26,4239.49,3913.33,4094.87,4019.49,4057.44,3983.08,4181.54,4086.67,4297.95,4051.28,0
15_19_18,1,4092.82,4361.03,4095.9,4092.31,4239.49,3934.36,4104.62,4018.97,4057.95,3990.26,4170.77,4088.21,4293.33,4057.44,0
15_19_18,2,4094.87,4360.51,4101.03,4089.23,4242.56,3941.03,4109.23,4019.49,4052.31,3980.51,4170.26,4088.72,4296.41,4062.56,0
15_19_18,3,4090.26,4354.36,4104.62,4087.69,4236.41,3925.64,4093.33,4018.97,4046.67,3952.31,4169.23,4086.67,4291.79,4052.31,0
15_19_18,4,4086.15,4355.9,4101.54,4088.21,4229.74,3926.67,4085.13,4019.49,4049.74,3940.51,4161.03,4084.62,4283.08,4046.67,0
15_19_18,5,4080.51,4356.41,4101.54,4087.69,4226.15,3939.49,4091.79,4020,4053.33,3942.56,4153.33,4086.15,4280,4044.1,0
15_19_18,6,4073.85,4340.51,4100.51,4088.21,4221.03,3933.85,4091.28,4018.46,4049.74,3932.82,4149.23,4090.77,4278.97,4033.85,0
15_19_18,7,4075.9,4334.87,4096.92,4090.26,4213.85,3927.18,4089.23,4019.49,4049.74,3923.08,4156.41,4089.74,4282.56,4042.56,0
15_19_18,8,4075.9,4338.46,4100,4090.26,4202.05,3928.72,4090.26,4021.03,4055.9,3923.08,4166.15,4085.13,4286.15,4060,0
15_19_18,9,4063.59,4332.31,4104.62,4089.23,4203.59,3929.23,4088.21,4020.51,4057.95,3926.15,4160,4084.1,4283.08,4056.92,0
15_19_18,10,4051.28,4325.64,4102.56,4089.74,4217.44,3936.41,4089.74,4020.51,4056.92,3933.33,4151.79,4085.13,4281.03,4051.79,0
15_19_18,11,4049.74,4324.1,4102.56,4089.74,4209.74,3940.51,4093.85,4020.51,4050.77,3924.62,4154.87,4085.13,4281.54,4060.51,0
15_19_18,12,4056.41,4322.05,4104.1,4089.74,4191.28,3933.33,4093.33,4020.51,4044.1,3907.18,4156.41,4086.15,4280,4067.18,0
15_19_18,13,4062.05,4324.62,4098.46,4088.72,4209.74,3936.92,4091.79,4020.51,4050.77,3910.26,4150.77,4088.21,4274.36,4066.15,0
15_19_18,14,4058.46,4329.23,4096.41,4088.21,4232.82,3955.9,4091.28,4020,4059.49,3918.97,4148.72,4089.74,4270.26,4066.15,0
15_19_18,15,4044.62,4322.05,4101.03,4088.72,4222.56,3960.51,4092.31,4020.51,4056.41,3914.36,4140.51,4090.26,4266.67,4063.59,0
15_19_18,16,4037.44,4307.69,4101.03,4088.72,4203.08,3948.21,4091.79,4020.51,4048.72,3903.59,4123.59,4086.67,4256.41,4059.49,0
15_19_18,17,4041.03,4302.05,4097.95,4088.72,4192.82,3944.1,4089.23,4019.49,4048.72,3896.41,4119.49,4085.64,4243.59,4062.56,0
15_19_18,18,4050.26,4314.87,4100,4090.26,4201.03,3956.41,4094.87,4022.56,4056.92,3902.05,4136.41,4089.23,4250.26,4075.9,0
15_19_18,19,4060,4327.69,4102.05,4091.28,4218.46,3965.13,4108.72,4023.59,4064.1,3914.87,4153.85,4087.69,4268.21,4090.77,0
15_19_18,20,4057.95,4318.97,4101.03,4089.74,4226.67,3958.97,4107.18,4025.13,4062.05,3915.9,4160.51,4085.64,4265.13,4093.85,0
15_19_18,21,4047.69,4308.72,4100,4087.69,4214.36,3959.49,4090.26,4028.72,4057.95,3907.18,4163.08,4088.21,4249.74,4092.31,0
15_19_18,22,4040.51,4313.85,4100.51,4088.72,4202.56,3970.26,4089.23,4027.18,4059.49,3897.95,4162.05,4088.72,4246.15,4096.92,0
15_19_18,23,4037.95,4312.82,4098.97,4090.26,4206.67,3977.44,4097.44,4025.13,4060,3895.9,4155.38,4085.64,4249.23,4104.62,0
15_19_18,24,4034.36,4307.18,4097.95,4089.74,4205.13,3984.1,4094.87,4030.26,4059.49,3909.74,4155.9,4086.15,4252.82,4108.21,0
15_19_18,25,4031.28,4309.74,4098.46,4089.74,4200,3988.72,4090.26,4031.79,4060.51,3916.92,4158.46,4088.72,4248.72,4103.59,0
15_19_18,26,4028.72,4303.08,4098.46,4089.74,4197.44,3984.1,4091.28,4025.13,4057.44,3898.46,4151.28,4087.18,4232.31,4093.85,0
15_19_18,27,4027.18,4282.05,4099.49,4090.77,4176.41,3974.36,4090.77,4021.03,4053.33,3873.85,4139.49,4085.64,4215.9,4089.74,0
15_19_18,28,4019.49,4264.1,4097.44,4091.79,4149.74,3972.82,4088.21,4020,4048.21,3861.03,4130.77,4087.69,4203.08,4089.23,0
15_19_18,29,4010.26,4260.51,4092.31,4090.26,4161.03,3982.56,4089.23,4022.05,4047.18,3869.74,4132.82,4088.21,4196.41,4089.23,0
15_19_18,30,4016.92,4266.15,4095.38,4089.23,4179.49,3991.28,4091.79,4028.72,4055.38,3882.05,4138.46,4085.13,4199.49,4096.41,0
15_19_18,31,4030.26,4265.64,4102.05,4093.85,4166.67,3989.74,4091.79,4031.28,4060.51,3881.54,4135.38,4084.62,4200,4107.69,0
15_19_18,32,4027.18,4259.49,4098.97,4096.41,4164.1,3986.67,4088.72,4027.69,4053.33,3874.87,4129.23,4083.08,4190.26,4107.69,0
15_19_18,33,4014.36,4260.51,4095.38,4093.33,4168.21,3989.23,4085.13,4024.1,4050.26,3866.15,4124.1,4082.56,4181.54,4106.15,0
15_19_18,34,4006.67,4257.95,4096.41,4090.77,4147.69,3988.72,4080.51,4022.56,4052.31,3855.9,4114.36,4084.62,4171.79,4106.15,0
15_19_18,35,3998.46,4238.46,4095.38,4088.72,4129.74,3984.62,4074.87,4019.49,4046.15,3850.26,4112.31,4085.13,4161.03,4095.38,0
15_19_19,36,3991.28,4229.23,4096.92,4086.15,4141.54,3990.77,4074.87,4018.97,4044.1,3846.67,4124.62,4084.1,4165.64,4090.26,0
15_19_19,37,3991.79,4233.33,4103.08,4088.72,4145.64,3998.97,4078.46,4028.21,4051.79,3846.67,4130.77,4085.13,4176.92,4101.03,0
15_19_19,38,3990.26,4220,4104.62,4090.77,4125.13,3997.95,4076.41,4029.23,4053.85,3849.23,4123.08,4083.08,4172.31,4110.26,0
15_19_19,39,3988.21,4197.44,4104.1,4089.74,4114.87,3993.85,4072.82,4019.49,4049.74,3846.67,4114.87,4081.54,4156.41,4105.64,0
15_19_19,40,3988.21,4195.9,4104.1,4090.26,4124.62,4000.51,4074.87,4020,4050.77,3847.18,4118.46,4082.56,4149.74,4098.97,0
15_19_19,41,3982.05,4201.54,4104.62,4091.28,4134.87,4007.69,4076.41,4026.15,4051.79,3844.62,4122.05,4082.05,4150.26,4100.51,0
15_19_19,42,3969.23,4192.31,4105.64,4090.77,4128.21,3997.44,4072.82,4021.03,4044.1,3834.87,4113.33,4081.03,4145.64,4106.67,0
15_19_19,43,3971.28,4183.08,4106.67,4090.77,4108.21,3989.23,4070.77,4020.51,4043.59,3846.15,4107.18,4082.56,4140.51,4107.69,0
15_19_19,44,3986.67,4190.77,4106.15,4089.74,4110.26,4000,4072.82,4030.26,4054.36,3861.54,4116.41,4083.08,4141.03,4105.64,0
15_19_19,45,3994.36,4203.59,4105.13,4087.69,4135.9,4014.87,4074.87,4033.33,4061.54,3864.1,4133.85,4082.05,4152.31,4109.74,0
15_19_19,46,3992.31,4201.54,4105.13,4087.18,4131.79,4025.64,4076.41,4030.77,4060,3877.44,4140,4081.54,4163.59,4112.82,0
15_19_19,47,3986.67,4190.77,4105.64,4092.31,4112.82,4030.77,4077.95,4028.72,4058.46,3896.92,4135.38,4083.08,4161.03,4108.72,0
15_19_19,48,3979.49,4189.74,4105.64,4096.41,4118.97,4021.54,4072.82,4023.08,4053.85,3877.44,4132.31,4085.13,4153.85,4105.13,0
15_19_19,49,3974.87,4189.23,4105.13,4093.33,4116.41,4010.77,4066.15,4021.54,4043.59,3842.56,4133.85,4083.08,4151.79,4105.13,0
15_19_19,50,3972.82,4176.92,4104.1,4090.26,4098.97,4021.03,4067.69,4027.18,4044.62,3840.51,4127.18,4081.03,4144.62,4105.64,0
15_19_19,51,3979.49,4168.21,4104.1,4091.28,4103.59,4031.28,4069.74,4028.72,4056.92,3856.41,4117.95,4081.54,4141.03,4106.15,0
15_19_19,52,3993.33,4173.85,4106.67,4091.28,4119.49,4026.15,4067.69,4026.67,4062.05,3860.51,4120.51,4083.08,4155.38,4103.08,0
15_19_19,53,3999.49,4176.92,4107.18,4091.28,4127.69,4018.46,4067.18,4032.31,4061.03,3866.15,4133.85,4083.08,4168.21,4095.9,0
15_19_19,54,3998.97,4173.85,4104.1,4092.31,4124.62,4016.92,4068.21,4034.87,4064.1,3888.72,4150.26,4083.08,4170.77,4090.77,0
15_19_19,55,4005.64,4169.23,4104.62,4091.79,4103.08,4021.03,4067.18,4029.23,4063.59,3886.15,4150.77,4083.08,4168.72,4092.82,0
15_19_19,56,4005.13,4161.03,4107.18,4091.28,4100,4025.64,4066.67,4031.28,4058.46,3854.87,4133.33,4083.08,4151.79,4093.33,0
15_19_19,57,3991.28,4152.82,4104.1,4091.28,4123.08,4032.31,4068.21,4037.44,4060,3850.26,4122.56,4082.05,4135.38,4088.72,0
15_19_19,58,3990.26,4142.05,4103.59,4090.77,4117.44,4042.56,4068.72,4036.41,4063.08,3858.46,4116.92,4082.05,4139.49,4087.18,0
15_19_19,59,3997.95,4127.18,4105.13,4090.26,4094.36,4051.28,4066.67,4033.33,4059.49,3842.05,4107.18,4082.56,4142.05,4089.74,0
15_19_19,60,3995.38,4122.05,4102.05,4089.74,4093.85,4049.23,4063.08,4034.36,4056.92,3843.59,4106.67,4081.54,4135.9,4090.77,0
15_19_19,61,4000,4125.64,4103.08,4089.23,4096.92,4044.1,4061.54,4036.41,4063.08,3876.41,4123.59,4082.05,4147.69,4095.38,0
15_19_19,62,4009.74,4123.59,4105.64,4091.28,4088.21,4046.67,4059.49,4035.9,4063.08,3879.49,4137.44,4084.1,4164.62,4103.08,0
15_19_19,63,4007.18,4118.97,4100.51,4090.77,4098.97,4052.31,4058.46,4034.36,4060,3857.44,4130.77,4083.59,4158.46,4107.18,0
15_19_19,64,4004.62,4116.92,4098.97,4089.74,4121.03,4061.03,4060.51,4036.41,4068.72,3857.44,4118.97,4080.51,4150.26,4106.15,0
15_19_19,65,4004.62,4106.67,4106.15,4092.82,4106.15,4061.54,4062.56,4039.49,4073.85,3868.72,4122.05,4080.51,4153.33,4101.54,0
15_19_19,66,3992.82,4088.21,4105.64,4091.79,4069.74,4052.82,4059.49,4035.38,4061.54,3858.46,4118.46,4081.54,4143.08,4091.28,0
15_19_19,67,3985.13,4080.51,4097.44,4088.21,4073.33,4055.38,4058.46,4031.79,4060,3842.05,4105.64,4081.54,4126.67,4086.67,0
15_19_19,68,3993.85,4091.79,4098.97,4090.77,4100.51,4061.03,4065.13,4037.95,4074.36,3854.87,4111.28,4082.56,4132.31,4094.36,0
15_19_19,69,4000,4097.44,4102.56,4093.33,4092.82,4058.97,4069.23,4044.62,4078.97,3880.51,4128.21,4083.59,4142.05,4094.36,0
15_19_19,70,4002.05,4090.26,4099.49,4088.72,4082.05,4064.62,4065.64,4043.59,4075.38,3884.1,4130.77,4083.08,4136.92,4088.21,0
15_19_19,71,4014.87,4092.82,4094.87,4087.18,4101.54,4077.44,4064.62,4044.62,4076.41,3874.36,4137.95,4083.08,4145.64,4095.38,0
15_19_19,72,4027.18,4097.44,4098.97,4091.79,4110.77,4075.9,4066.15,4047.18,4074.87,3883.59,4151.28,4083.59,4168.21,4107.18,0
15_19_19,73,4022.05,4086.67,4104.62,4092.31,4094.87,4075.38,4067.69,4045.13,4074.36,3900.51,4149.23,4083.08,4166.15,4108.21,0
15_19_19,74,4012.31,4084.1,4101.54,4088.72,4089.74,4088.72,4072.31,4047.69,4081.03,3911.79,4148.72,4081.54,4154.87,4107.18,0
15_19_19,75,4014.36,4098.97,4097.95,4088.21,4106.67,4098.46,4075.38,4051.79,4082.05,3916.92,4154.36,4081.54,4158.46,4107.69,0
15_19_19,76,4016.41,4100.51,4100,4090.26,4122.05,4102.05,4075.38,4049.23,4075.38,3902.56,4148.21,4082.56,4152.82,4110.77,0
15_19_19,77,4013.33,4092.31,4104.1,4090.26,4115.38,4109.23,4078.46,4048.21,4082.56,3899.49,4145.64,4080.51,4146.67,4122.56,0
15_19_19,78,4013.33,4090.77,4105.13,4088.72,4107.18,4111.79,4075.9,4049.74,4091.79,3916.41,4147.69,4080.51,4165.64,4128.72,0
15_19_19,79,4007.18,4079.49,4102.56,4089.74,4108.21,4106.15,4070.77,4051.79,4086.67,3918.97,4143.08,4083.08,4176.92,4121.54,0
15_19_19,80,3996.41,4057.95,4098.46,4090.26,4095.9,4103.08,4071.79,4050.26,4084.1,3911.79,4144.62,4083.08,4173.33,4121.03,0
15_19_19,81,4001.54,4057.95,4097.95,4089.74,4090.77,4106.15,4076.41,4044.62,4091.79,3933.33,4170.77,4082.05,4195.9,4133.85,0
15_19_19,82,4007.69,4069.74,4100,4092.31,4106.67,4107.69,4076.41,4046.15,4098.46,3960,4194.87,4082.56,4231.79,4140.51,0
15_19_19,83,3993.33,4051.79,4098.97,4092.82,4103.08,4106.67,4071.79,4053.33,4093.33,3950.77,4187.18,4081.54,4237.95,4134.87,0
15_19_19,84,3981.54,4018.97,4098.46,4089.23,4085.13,4105.64,4064.1,4051.79,4082.56,3935.38,4166.15,4082.05,4228.21,4127.18,0
15_19_19,85,3990.26,4014.36,4098.46,4089.23,4092.82,4107.18,4065.64,4047.69,4083.59,3939.49,4166.67,4084.1,4229.74,4124.62,0
15_19_19,86,3995.9,4023.08,4098.97,4089.74,4095.38,4112.31,4075.38,4053.85,4095.38,3945.64,4179.49,4082.56,4237.44,4130.77,0
15_19_19,87,3982.56,4012.82,4101.03,4088.72,4080,4113.85,4073.33,4054.36,4098.46,3941.03,4173.33,4081.03,4233.33,4136.92,0
15_19_19,88,3975.38,4004.1,4100.51,4093.85,4090.77,4114.87,4067.18,4051.28,4095.9,3944.1,4163.59,4082.56,4218.97,4132.31,0
15_19_19,89,3982.05,4010.26,4097.44,4096.41,4112.82,4125.64,4073.33,4055.9,4101.03,3967.18,4168.21,4081.54,4215.38,4122.56,0
15_19_19,90,3982.56,4009.74,4097.95,4091.28,4103.59,4131.79,4076.41,4058.97,4099.49,3980.51,4166.67,4080.51,4214.87,4121.54,0
15_19_19,91,3968.72,4000,4100.51,4091.79,4077.95,4125.13,4070.77,4057.44,4092.31,3964.62,4157.95,4081.03,4198.46,4126.15,0
15_19_19,92,3958.46,3983.59,4097.44,4095.38,4073.85,4123.59,4069.23,4053.85,4090.26,3947.18,4151.79,4081.54,4186.15,4124.1,0
15_19_19,93,3958.97,3962.05,4093.33,4091.28,4078.97,4126.15,4069.23,4051.28,4087.69,3940,4140,4082.05,4182.56,4115.38,0
15_19_19,94,3958.97,3952.31,4091.28,4087.69,4061.54,4123.59,4064.62,4053.33,4083.08,3931.28,4124.1,4082.05,4162.05,4109.74,0
15_19_19,95,3958.97,3962.56,4092.82,4091.28,4046.67,4127.69,4068.21,4059.49,4085.13,3927.69,4119.49,4080.51,4147.69,4111.79,0
15_19_19,96,3960,3974.87,4096.41,4093.85,4063.59,4138.97,4076.41,4065.13,4095.9,3937.95,4136.41,4080.51,4164.62,4112.82,0
15_19_19,97,3962.05,3970.77,4097.95,4090.26,4087.18,4142.56,4073.33,4066.67,4099.49,3948.21,4151.79,4082.56,4176.92,4110.26,0
15_19_19,98,3961.03,3958.97,4096.41,4090.26,4078.97,4135.9,4067.69,4066.15,4094.36,3947.69,4146.15,4082.05,4166.15,4109.23,0
15_19_19,99,3956.92,3960,4094.36,4095.38,4051.28,4133.33,4069.74,4066.15,4097.44,3950.26,4127.69,4080,4148.21,4112.31,0
15_19_19,100,3951.79,3961.54,4092.82,4093.33,4038.97,4136.41,4070.26,4066.15,4103.08,3950.77,4123.59,4081.03,4138.46,4118.97,0
15_19_19,101,3945.64,3946.15,4092.31,4088.72,4038.97,4133.85,4062.05,4061.54,4096.41,3945.13,4123.59,4082.05,4138.46,4121.03,0
15_19_19,102,3940,3933.85,4092.82,4089.23,4044.62,4126.67,4056.41,4060.51,4085.64,3937.95,4111.28,4081.54,4133.85,4113.85,0
