TIME, ED_COUNTER, AF3, F7, F3, FC5, T7, P7, O1, O2, P8, T8, FC6, F4, F8, AF4, LABEL
12_2_4,54,4133.85,4075.9,4113.85,4094.36,4098.46,4100.51,4106.15,4126.67,4108.21,4126.15,4164.62,4124.62,4170.26,4162.05,0
12_2_4,55,4134.36,4077.95,4115.38,4093.85,4100,4102.05,4107.18,4129.74,4105.13,4141.03,4157.95,4125.13,4162.05,4156.41,0
12_2_4,56,4134.36,4079.49,4115.38,4096.41,4104.62,4107.69,4106.67,4122.05,4107.69,4152.31,4156.41,4128.72,4155.38,4157.44,0
12_2_4,57,4126.15,4069.74,4114.36,4093.33,4108.21,4110.26,4106.67,4117.95,4110.26,4129.23,4154.36,4126.67,4144.1,4150.77,0
12_2_4,58,4115.9,4060.51,4112.31,4084.1,4107.18,4105.64,4106.15,4123.59,4096.41,4109.23,4127.69,4117.44,4129.74,4137.95,0
12_2_4,59,4114.36,4064.1,4111.79,4083.08,4107.18,4099.49,4103.08,4123.59,4094.36,4133.85,4096.92,4110.26,4121.54,4130.26,0
12_2_4,60,4127.69,4075.9,4114.87,4090.26,4116.92,4100,4108.72,4131.79,4118.46,4164.62,4104.1,4117.95,4128.72,4139.49,0
12_2_4,61,4140,4086.67,4120,4100.51,4119.49,4110.26,4123.59,4149.23,4123.08,4161.54,4116.41,4130.77,4136.41,4150.77,0
12_2_4,62,4137.44,4086.15,4117.95,4103.08,4106.67,4113.85,4124.62,4149.23,4105.64,4149.74,4093.33,4123.59,4132.31,4145.13,0
12_2_4,63,4129.23,4081.03,4112.82,4094.87,4103.59,4109.23,4115.38,4141.03,4103.08,4149.74,4069.23,4111.28,4121.03,4135.9,0
12_2_4,64,4127.18,4080.51,4112.82,4089.23,4107.69,4111.79,4117.95,4137.44,4110.26,4154.36,4065.64,4108.72,4120,4137.44,0
12_2_4,65,4125.13,4078.46,4113.85,4087.69,4103.08,4114.87,4122.56,4129.23,4110.77,4162.05,4065.64,4110.26,4126.67,4136.92,0
12_2_4,66,4117.95,4070.77,4111.28,4080.51,4100,4110.77,4115.9,4127.18,4109.23,4167.18,4056.92,4109.23,4116.92,4124.1,0
12_2_4,67,4111.28,4069.74,4108.72,4079.49,4104.1,4105.13,4107.18,4135.38,4106.15,4168.21,4036.92,4101.03,4103.59,4113.85,0
12_2_4,68,4115.38,4082.56,4107.18,4088.72,4112.31,4107.69,4105.64,4130.26,4107.69,4171.79,4024.1,4095.9,4104.62,4114.87,0
12_2_4,69,4125.64,4091.79,4109.74,4093.85,4124.62,4109.74,4104.62,4121.54,4109.23,4174.36,4030.26,4102.56,4107.69,4119.49,0
12_2_4,70,4133.33,4095.9,4116.92,4097.44,4128.72,4109.74,4106.15,4130.26,4105.64,4175.9,4041.03,4109.23,4108.72,4127.69,0
12_2_4,71,4136.92,4098.46,4117.95,4098.97,4117.95,4117.95,4114.36,4141.54,4115.38,4188.21,4045.64,4108.21,4118.46,4136.92,0
12_2_4,72,4139.49,4097.95,4116.41,4100,4112.31,4121.54,4123.08,4143.59,4122.56,4197.95,4040.51,4108.72,4125.64,4138.46,0
12_2_4,73,4135.38,4095.38,4116.92,4101.54,4112.82,4112.31,4118.46,4130.77,4103.08,4190.77,4028.72,4105.13,4119.49,4128.21,0
12_2_4,74,4122.05,4090.26,4112.82,4089.74,4107.18,4103.59,4097.44,4101.54,4083.59,4173.85,4017.95,4088.72,4117.95,4114.36,0
12_2_4,75,4109.23,4082.56,4106.67,4077.44,4103.08,4103.08,4088.72,4091.28,4085.13,4164.62,4012.82,4076.41,4130.26,4106.15,0
12_2_4,76,4109.74,4081.03,4105.64,4078.97,4109.23,4104.1,4100.51,4105.13,4092.82,4175.9,4013.33,4080,4145.64,4103.59,0
12_2_4,77,4119.49,4090.77,4108.21,4084.62,4113.85,4107.69,4105.64,4109.23,4096.92,4192.31,4018.46,4086.67,4159.49,4106.67,0
12_2_4,78,4121.03,4093.33,4109.23,4085.13,4112.31,4110.26,4100.51,4105.13,4094.36,4192.82,4024.1,4083.08,4172.31,4107.18,0
12_2_4,79,4118.46,4090.26,4107.69,4089.74,4119.49,4105.64,4104.62,4114.87,4091.28,4183.59,4028.21,4083.08,4180,4105.64,0
12_2_4,80,4121.54,4096.92,4107.69,4093.85,4123.59,4102.56,4107.69,4118.97,4091.28,4175.9,4033.33,4090.26,4177.44,4105.13,0
12_2_4,81,4122.56,4094.36,4106.15,4089.23,4116.92,4106.15,4097.44,4098.46,4084.1,4171.28,4039.49,4089.74,4176.92,4103.08,0
12_2_4,82,4122.56,4088.72,4109.23,4093.33,4112.82,4110.26,4095.9,4090.26,4081.54,4168.72,4047.69,4089.74,4187.18,4105.64,0
12_2_4,83,4124.62,4097.95,4112.31,4097.95,4106.67,4109.23,4100.51,4108.72,4095.38,4170.77,4049.23,4090.77,4188.72,4107.69,0
12_2_4,84,4121.03,4103.59,4106.15,4090.26,4104.1,4106.67,4095.38,4111.79,4100.51,4173.85,4042.05,4080,4176.41,4099.49,0
12_2_4,85,4111.79,4090.26,4098.46,4079.49,4114.36,4103.59,4090.26,4088.21,4087.18,4167.69,4042.56,4073.33,4165.64,4087.69,0
12_2_4,86,4100.51,4071.28,4092.82,4071.79,4107.69,4096.41,4091.79,4086.67,4091.79,4158.46,4047.18,4074.36,4158.97,4081.03,0
12_2_4,87,4091.28,4065.13,4089.74,4069.23,4089.74,4091.79,4093.85,4111.28,4104.62,4153.33,4044.1,4068.21,4152.82,4075.38,0
12_2_4,88,4096.92,4077.44,4093.85,4074.87,4097.44,4092.82,4089.23,4104.62,4090.26,4143.08,4042.05,4061.54,4152.31,4075.38,0
12_2_4,89,4105.13,4086.67,4097.95,4082.05,4106.15,4095.38,4086.15,4081.54,4076.41,4125.13,4046.15,4061.03,4153.33,4078.46,0
12_2_4,90,4098.97,4078.97,4095.38,4080.51,4101.54,4101.54,4092.31,4096.41,4090.26,4118.97,4051.28,4064.62,4151.79,4076.41,0
12_2_4,91,4095.38,4073.85,4095.9,4076.92,4105.64,4101.54,4095.9,4110.26,4095.38,4122.56,4057.44,4068.72,4150.26,4077.95,0
12_2_4,92,4104.1,4079.49,4097.95,4076.92,4104.62,4092.82,4088.21,4091.28,4085.64,4126.15,4060.51,4067.69,4149.23,4083.08,0
12_2_4,93,4108.21,4077.95,4096.92,4076.92,4095.9,4091.28,4086.15,4082.56,4093.33,4136.92,4057.95,4069.23,4152.82,4082.56,0
12_2_4,94,4102.56,4074.36,4099.49,4077.44,4099.49,4092.82,4090.26,4097.95,4099.49,4133.33,4057.44,4074.87,4155.38,4078.97,0
12_2_4,95,4096.41,4074.87,4098.46,4075.9,4107.18,4093.33,4090.26,4106.67,4089.23,4109.74,4058.97,4071.28,4148.21,4075.9,0
12_2_4,96,4092.82,4072.82,4091.79,4075.38,4105.13,4102.05,4097.44,4106.15,4088.72,4104.1,4058.97,4064.62,4145.13,4073.85,0
12_2_4,97,4096.92,4071.79,4092.82,4074.36,4104.1,4109.74,4102.05,4109.74,4097.95,4114.36,4056.41,4069.23,4152.82,4074.87,0
12_2_4,98,4102.56,4078.46,4098.97,4076.92,4107.69,4107.18,4098.97,4111.79,4100,4105.13,4057.95,4075.38,4152.31,4077.44,0
12_2_4,99,4105.13,4083.59,4103.59,4086.67,4109.23,4107.69,4097.95,4109.74,4095.9,4090.26,4063.08,4076.41,4142.05,4075.9,0
12_2_4,100,4108.21,4083.08,4104.62,4092.31,4108.21,4106.67,4094.36,4107.18,4093.33,4090.77,4068.21,4076.41,4137.95,4075.9,0
12_2_4,101,4111.28,4085.13,4103.08,4091.28,4108.21,4096.92,4088.72,4102.05,4090.26,4085.13,4072.82,4076.41,4141.54,4082.05,0
12_2_4,102,4111.79,4091.28,4101.03,4092.82,4109.74,4093.33,4086.67,4093.33,4091.79,4082.56,4076.41,4075.9,4140,4083.59,0
12_2_4,103,4112.82,4090.26,4102.05,4092.31,4107.69,4092.31,4089.74,4089.74,4095.38,4090.77,4077.44,4074.87,4127.69,4077.95,0
12_2_4,104,4118.97,4089.23,4104.1,4090.77,4107.18,4091.28,4091.79,4094.87,4089.74,4086.67,4079.49,4075.38,4118.97,4074.36,0
12_2_4,105,4125.13,4094.36,4104.1,4090.77,4107.69,4099.49,4090.26,4092.82,4080.51,4076.92,4079.49,4075.9,4121.03,4076.41,0
12_2_4,106,4123.59,4093.33,4104.62,4088.21,4103.59,4105.64,4090.26,4090.26,4085.13,4072.82,4078.97,4074.87,4125.13,4076.92,0
12_2_4,107,4124.1,4091.79,4106.67,4088.72,4106.15,4100.51,4095.9,4092.31,4092.82,4064.62,4086.67,4075.38,4123.59,4080.51,0
12_2_4,108,4131.79,4095.9,4107.69,4095.9,4110.77,4095.9,4098.97,4091.28,4087.18,4064.1,4093.85,4076.92,4121.54,4089.74,0
12_2_4,109,4135.38,4094.36,4105.13,4091.28,4103.59,4093.85,4090.77,4094.36,4089.74,4080.51,4091.79,4075.38,4121.03,4090.26,0
12_2_4,110,4133.33,4089.74,4103.59,4083.59,4096.92,4088.72,4087.69,4090.77,4093.33,4079.49,4090.26,4073.85,4120,4084.62,0
12_2_4,111,4130.26,4091.28,4106.67,4087.69,4100.51,4088.72,4089.74,4071.79,4076.41,4063.08,4094.87,4075.38,4120,4087.69,0
12_2_4,112,4130.26,4091.79,4107.18,4092.82,4106.67,4093.85,4089.23,4068.21,4066.67,4057.44,4100.51,4074.36,4123.08,4092.31,0
12_2_4,113,4134.87,4090.77,4106.67,4092.82,4112.31,4096.92,4089.74,4087.69,4076.41,4063.08,4106.67,4078.46,4134.36,4091.79,0
12_2_4,114,4138.97,4092.82,4110.26,4094.87,4122.56,4101.03,4092.82,4096.41,4082.05,4069.74,4115.9,4089.74,4142.56,4095.38,0
12_2_4,115,4138.97,4096.41,4112.82,4096.92,4124.62,4106.67,4094.87,4090.26,4080,4072.82,4123.59,4095.38,4141.54,4104.62,0
12_2_4,116,4138.97,4095.38,4111.28,4094.87,4109.23,4107.18,4097.44,4093.33,4086.15,4082.05,4121.54,4093.33,4141.03,4107.18,0
12_2_4,117,4140,4090.77,4111.79,4096.92,4103.08,4105.64,4101.03,4115.38,4097.44,4092.82,4109.23,4092.82,4141.03,4103.59,0
12_2_4,118,4137.44,4090.26,4110.77,4098.97,4111.79,4103.59,4095.9,4122.56,4092.31,4077.44,4101.03,4091.28,4138.97,4099.49,0
12_2_4,119,4129.74,4084.62,4102.05,4089.74,4107.18,4095.9,4085.13,4093.85,4073.85,4052.82,4095.38,4080.51,4130.77,4092.82,0
12_2_4,120,4123.08,4074.87,4101.03,4080.51,4099.49,4090.26,4088.21,4076.92,4069.74,4056.92,4093.33,4075.9,4123.59,4090.26,0
12_2_4,121,4126.15,4077.44,4106.67,4086.15,4097.95,4090.26,4094.87,4095.9,4086.15,4075.9,4106.15,4087.69,4126.15,4095.38,0
12_2_4,122,4128.21,4088.72,4107.18,4093.33,4096.41,4089.23,4086.67,4100,4088.72,4077.44,4122.05,4093.85,4129.74,4095.9,0
12_2_4,123,4121.03,4089.23,4104.62,4088.21,4102.56,4090.77,4082.56,4083.59,4084.1,4075.38,4122.05,4082.56,4130.77,4088.72,0
12_2_4,124,4125.13,4088.21,4103.59,4089.23,4116.41,4095.9,4090.26,4094.87,4094.87,4085.64,4121.03,4078.46,4138.46,4091.28,0
12_2_4,125,4137.44,4094.87,4103.59,4101.54,4114.87,4096.92,4092.31,4110.77,4093.33,4089.74,4124.62,4082.05,4140.51,4101.03,0
12_2_4,126,4137.95,4098.97,4105.64,4102.05,4107.18,4101.03,4091.28,4101.54,4078.46,4077.95,4119.49,4077.44,4125.13,4099.49,0
12_2_4,127,4135.9,4098.46,4109.23,4095.38,4106.15,4106.67,4092.31,4090.77,4073.85,4070.77,4115.38,4074.36,4118.97,4095.9,0
12_2_4,128,4135.9,4096.92,4105.13,4093.33,4106.15,4101.03,4089.23,4090.77,4078.46,4070.77,4118.46,4074.87,4124.1,4096.41,0
12_2_4,0,4130.26,4092.31,4101.03,4093.85,4113.85,4098.97,4088.21,4093.33,4078.46,4059.49,4111.79,4071.79,4114.87,4092.31,0
12_2_4,1,4125.13,4090.26,4101.54,4088.72,4120.51,4107.69,4095.38,4097.44,4081.54,4060.51,4106.15,4072.31,4104.62,4089.74,0
12_2_4,2,4124.62,4091.79,4100.51,4083.08,4113.33,4108.72,4097.95,4097.44,4091.28,4085.13,4112.82,4069.74,4109.23,4088.21,0
12_2_4,3,4123.59,4088.72,4100,4085.64,4105.13,4104.1,4094.87,4096.41,4093.33,4094.87,4117.95,4063.08,4110.77,4086.15,0
12_2_4,4,4129.74,4086.15,4103.59,4088.21,4104.1,4106.15,4096.92,4113.85,4091.28,4088.21,4120,4072.31,4111.28,4095.38,0
12_2_4,5,4138.97,4098.97,4107.18,4091.79,4107.18,4110.77,4100.51,4123.08,4095.38,4091.79,4125.13,4088.21,4126.15,4110.26,0
12_2_4,6,4138.97,4109.74,4107.69,4093.85,4109.23,4110.77,4099.49,4103.08,4087.69,4083.08,4122.05,4083.59,4130.26,4110.26,0
12_2_4,7,4134.36,4099.49,4105.13,4087.18,4106.67,4108.72,4096.92,4096.92,4077.95,4058.97,4117.44,4071.79,4112.82,4101.03,0
12_2_4,8,4134.36,4091.28,4102.05,4081.54,4108.21,4107.69,4095.38,4108.72,4085.13,4061.54,4125.64,4075.9,4105.13,4100,0
12_2_4,9,4135.9,4098.97,4101.54,4086.67,4113.85,4105.64,4092.82,4105.64,4089.23,4075.9,4127.69,4077.95,4107.69,4099.49,0
12_2_4,10,4136.92,4103.08,4104.62,4092.82,4109.23,4101.54,4093.85,4099.49,4077.95,4070.77,4109.74,4069.23,4094.87,4092.82,0
12_2_4,11,4138.46,4101.54,4104.62,4090.77,4106.15,4096.41,4095.9,4104.62,4077.44,4067.18,4103.59,4070.77,4084.62,4089.23,0
12_2_4,12,4137.44,4099.49,4101.03,4089.74,4107.69,4094.87,4092.82,4097.44,4082.56,4071.79,4108.72,4075.9,4089.74,4090.77,0
12_2_4,13,4134.36,4094.87,4102.05,4088.72,4105.64,4094.87,4090.77,4087.18,4079.49,4067.69,4106.67,4068.21,4088.72,4091.79,0
12_2_4,14,4134.87,4100.51,4106.67,4085.13,4105.13,4092.31,4091.79,4095.38,4087.69,4068.21,4106.15,4067.18,4081.03,4091.28,0
12_2_4,15,4135.38,4107.18,4108.21,4082.05,4098.97,4094.36,4092.31,4097.95,4089.74,4078.46,4114.36,4075.9,4083.08,4094.36,0
12_2_4,16,4125.64,4094.87,4102.56,4077.95,4092.31,4097.95,4092.31,4086.15,4064.62,4061.03,4110.26,4067.18,4080,4092.82,0
12_2_4,17,4118.46,4087.18,4098.97,4081.03,4103.08,4095.9,4093.85,4078.97,4047.69,4028.21,4098.46,4053.33,4066.15,4085.13,0
12_2_4,18,4129.23,4101.54,4103.08,4090.26,4115.9,4097.95,4094.36,4090.26,4066.67,4040.51,4110.26,4064.62,4068.21,4091.79,0
12_2_4,19,4141.03,4110.26,4106.67,4092.82,4108.21,4106.67,4093.33,4101.03,4084.62,4070.77,4123.08,4080.51,4078.97,4102.05,0
12_2_4,20,4138.46,4108.21,4105.13,4089.23,4093.85,4105.13,4091.79,4092.82,4077.44,4064.1,4112.82,4076.92,4070.77,4097.44,0
12_2_4,21,4134.36,4105.13,4103.08,4083.08,4095.38,4094.36,4090.26,4083.59,4073.85,4052.31,4103.59,4071.79,4055.38,4087.69,0
12_2_4,22,4135.38,4103.59,4104.62,4078.46,4108.72,4096.41,4092.31,4090.26,4080,4065.64,4109.23,4074.87,4061.03,4089.23,0
12_2_4,23,4136.41,4106.15,4108.72,4086.15,4115.38,4106.15,4098.97,4103.59,4077.44,4067.18,4115.9,4075.9,4076.41,4096.92,0
12_2_4,24,4137.44,4109.74,4110.26,4093.33,4111.28,4105.64,4100,4103.59,4073.33,4055.9,4117.44,4075.38,4077.95,4096.92,0
12_2_4,25,4136.41,4106.15,4107.69,4080,4102.05,4096.92,4092.31,4091.28,4076.92,4065.64,4122.56,4076.92,4075.38,4094.87,0
12_2_4,26,4135.38,4104.62,4104.1,4073.85,4095.9,4090.26,4091.28,4088.72,4077.95,4081.54,4127.69,4075.38,4084.62,4100.51,0
12_2_4,27,4139.49,4116.92,4106.67,4090.77,4100.51,4089.74,4095.38,4096.41,4075.38,4082.05,4137.95,4079.49,4095.38,4109.74,0
12_2_4,28,4139.49,4124.1,4107.69,4095.38,4107.69,4093.85,4091.79,4089.23,4073.33,4074.87,4139.49,4084.1,4092.31,4108.72,0
12_2_4,29,4135.9,4115.38,4103.59,4080.51,4102.05,4095.9,4091.28,4081.54,4073.33,4069.23,4127.69,4078.97,4080.51,4103.59,0
12_2_4,30,4137.44,4106.67,4101.03,4074.87,4089.23,4093.33,4091.79,4089.74,4074.36,4067.18,4123.08,4075.38,4071.79,4106.15,0
12_2_4,31,4136.92,4109.23,4101.03,4078.97,4087.18,4088.21,4085.13,4086.15,4071.79,4060,4121.03,4074.87,4068.72,4104.62,0
12_2_4,32,4135.38,4116.92,4104.62,4080.51,4097.95,4089.74,4085.13,4076.92,4072.82,4060.51,4118.97,4073.33,4073.33,4103.59,0
12_2_5,33,4138.46,4122.56,4106.67,4081.54,4113.33,4096.41,4093.85,4085.13,4075.9,4073.33,4123.59,4076.41,4079.49,4110.77,0
12_2_5,34,4135.38,4118.97,4104.62,4081.03,4110.77,4098.46,4091.79,4092.31,4073.85,4073.33,4118.46,4075.9,4076.92,4105.64,0
12_2_5,35,4123.59,4110.77,4100.51,4078.97,4092.82,4096.41,4091.28,4091.28,4074.36,4064.62,4106.67,4066.15,4070.26,4092.82,0
12_2_5,36,4121.03,4106.15,4098.97,4076.92,4091.28,4093.85,4094.36,4090.26,4076.92,4070.26,4112.82,4065.64,4071.28,4095.38,0
12_2_5,37,4129.23,4106.67,4102.05,4075.9,4101.03,4084.1,4085.13,4085.13,4072.31,4080.51,4124.1,4074.36,4081.03,4106.15,0
12_2_5,38,4135.9,4113.33,4105.13,4078.97,4105.64,4072.82,4081.03,4084.62,4069.74,4080.51,4123.08,4082.05,4088.21,4112.82,0
12_2_5,39,4145.13,4121.03,4107.69,4090.77,4102.05,4075.9,4090.77,4094.36,4077.95,4081.54,4128.21,4089.74,4092.82,4122.05,0
12_2_5,40,4153.85,4123.59,4108.21,4097.95,4098.46,4089.74,4095.9,4092.82,4075.9,4078.97,4141.03,4094.36,4095.38,4129.74,0
12_2_5,41,4153.85,4122.56,4107.18,4093.33,4100.51,4096.92,4093.33,4086.15,4064.62,4069.23,4138.97,4088.21,4092.31,4125.64,0
12_2_5,42,4153.85,4123.59,4109.74,4089.74,4107.69,4088.21,4087.18,4088.72,4076.41,4078.97,4129.23,4085.13,4094.87,4124.62,0
12_2_5,43,4156.41,4123.08,4111.28,4093.33,4109.23,4079.49,4083.59,4093.33,4092.82,4096.92,4128.72,4091.79,4098.46,4130.77,0
12_2_5,44,4155.9,4122.56,4110.26,4100.51,4105.64,4084.62,4087.69,4095.9,4077.44,4082.05,4135.38,4093.85,4094.36,4129.74,0
12_2_5,45,4154.36,4122.56,4111.79,4101.54,4100.51,4089.74,4087.69,4090.26,4057.44,4058.97,4130.77,4089.23,4090.26,4124.62,0
12_2_5,46,4156.92,4122.56,4115.9,4100.51,4096.92,4084.1,4080.51,4083.08,4069.23,4075.9,4125.13,4089.23,4091.79,4125.13,0
12_2_5,47,4157.44,4122.05,4114.36,4104.62,4102.56,4078.46,4083.59,4086.15,4078.46,4097.44,4133.33,4093.85,4091.79,4128.72,0
12_2_5,48,4154.87,4120,4110.77,4105.13,4111.28,4084.1,4093.85,4091.28,4065.64,4083.08,4128.72,4092.31,4088.72,4127.18,0
12_2_5,49,4153.85,4120,4114.87,4100,4110.26,4091.28,4091.28,4081.54,4058.46,4067.69,4106.15,4090.26,4085.64,4123.08,0
12_2_5,50,4154.87,4119.49,4116.92,4102.05,4107.69,4089.23,4081.03,4067.69,4059.49,4069.23,4101.54,4091.28,4083.08,4116.41,0
12_2_5,51,4151.28,4110.77,4111.79,4105.13,4103.59,4081.03,4083.59,4071.28,4063.08,4069.74,4108.21,4086.67,4082.56,4110.77,0
12_2_5,52,4141.54,4106.15,4109.74,4100.51,4098.97,4081.03,4090.26,4076.92,4061.03,4062.56,4103.08,4080.51,4086.67,4108.72,0
12_2_5,53,4137.44,4108.72,4113.85,4097.95,4106.67,4089.23,4084.1,4070.26,4058.97,4065.13,4109.74,4082.56,4112.31,4107.18,0
12_2_5,54,4137.95,4102.56,4112.31,4096.92,4108.72,4093.33,4082.05,4075.38,4072.31,4086.15,4126.67,4084.62,4151.79,4107.18,0
12_2_5,55,4130.77,4085.13,4103.59,4089.74,4099.49,4090.77,4090.77,4089.74,4080,4095.9,4122.56,4077.95,4169.74,4107.69,0
12_2_5,56,4121.03,4080.51,4103.59,4083.08,4101.54,4089.23,4085.64,4081.03,4062.56,4073.33,4117.44,4073.33,4169.74,4106.15,0
12_2_5,57,4122.05,4086.67,4107.18,4085.64,4101.03,4090.77,4078.97,4069.74,4055.38,4054.87,4124.1,4078.97,4180,4103.08,0
12_2_5,58,4125.13,4085.13,4106.67,4091.79,4093.85,4091.28,4085.13,4084.1,4075.9,4075.38,4119.49,4083.59,4188.21,4097.95,0
12_2_5,59,4122.05,4083.08,4107.69,4093.33,4103.59,4090.77,4085.13,4087.69,4078.46,4095.38,4113.85,4082.56,4185.64,4095.38,0
12_2_5,60,4122.56,4091.28,4109.23,4092.82,4116.92,4092.31,4085.13,4077.44,4067.18,4086.67,4119.49,4083.08,4187.18,4097.44,0
12_2_5,61,4123.59,4093.85,4107.18,4092.31,4108.72,4092.31,4090.77,4073.85,4069.74,4075.38,4112.82,4083.08,4182.56,4094.87,0
12_2_5,62,4121.54,4089.23,4106.15,4091.79,4102.05,4094.36,4088.72,4071.28,4067.69,4075.38,4103.08,4083.08,4171.28,4089.74,0
12_2_5,63,4122.05,4089.74,4106.15,4091.79,4108.21,4094.87,4080,4068.72,4057.95,4073.85,4111.28,4088.21,4167.69,4091.79,0
12_2_5,64,4124.62,4092.31,4101.03,4091.79,4103.59,4089.74,4075.9,4073.85,4055.38,4061.54,4113.85,4090.77,4166.15,4093.33,0
12_2_5,65,4123.08,4090.77,4099.49,4090.26,4100,4088.21,4079.49,4076.41,4060.51,4053.33,4103.08,4086.67,4156.41,4089.74,0
12_2_5,66,4122.56,4091.79,4102.56,4092.31,4107.69,4095.38,4086.67,4074.36,4069.74,4067.18,4104.1,4087.18,4153.33,4090.26,0
12_2_5,67,4124.1,4092.82,4101.54,4092.82,4106.15,4098.46,4089.23,4081.03,4071.79,4072.82,4109.23,4091.28,4155.9,4090.77,0
12_2_5,68,4121.54,4090.26,4102.56,4088.72,4096.41,4095.38,4087.18,4088.21,4061.03,4051.79,4102.05,4090.26,4146.15,4087.69,0
12_2_5,69,4122.56,4094.87,4108.72,4090.26,4103.08,4092.31,4089.74,4090.26,4061.54,4051.79,4104.1,4090.77,4138.97,4089.74,0
12_2_5,70,4126.67,4104.1,4111.28,4094.36,4112.82,4095.38,4094.36,4088.21,4073.85,4079.49,4114.87,4095.38,4143.59,4092.82,0
12_2_5,71,4128.21,4107.18,4109.74,4097.95,4102.56,4102.05,4092.31,4082.56,4071.79,4082.05,4113.33,4095.38,4145.64,4095.38,0
12_2_5,72,4126.67,4108.21,4110.77,4100,4099.49,4101.54,4089.74,4085.64,4069.23,4066.15,4107.69,4091.28,4141.54,4096.41,0
12_2_5,73,4126.15,4110.26,4110.77,4095.9,4108.72,4095.9,4090.77,4090.77,4072.82,4067.69,4108.72,4095.9,4141.03,4095.9,0
12_2_5,74,4130.77,4108.21,4107.18,4093.33,4103.59,4093.33,4086.15,4081.03,4076.41,4077.44,4115.38,4104.62,4147.18,4100.51,0
12_2_5,75,4132.31,4107.18,4105.13,4095.38,4097.95,4093.33,4080,4071.28,4078.46,4083.08,4120.51,4098.97,4152.31,4107.18,0
12_2_5,76,4132.31,4107.69,4106.15,4096.41,4109.23,4092.31,4085.13,4078.46,4071.79,4075.38,4123.08,4095.38,4153.33,4107.18,0
12_2_5,77,4134.36,4110.26,4106.67,4096.41,4111.28,4095.38,4092.31,4084.62,4068.72,4068.21,4125.64,4104.1,4150.26,4104.62,0
12_2_5,78,4131.28,4108.21,4107.69,4098.46,4093.33,4094.87,4087.69,4080,4075.9,4074.87,4121.03,4103.08,4140.51,4103.08,0
12_2_5,79,4119.49,4096.41,4106.15,4094.36,4086.15,4088.21,4084.62,4074.87,4071.79,4069.74,4107.18,4087.69,4125.64,4092.82,0
12_2_5,80,4115.9,4094.87,4106.67,4083.59,4096.92,4087.18,4090.26,4067.69,4059.49,4061.54,4101.54,4084.62,4112.31,4086.67,0
12_2_5,81,4119.49,4105.64,4105.64,4081.54,4099.49,4091.28,4086.67,4073.33,4064.62,4063.08,4107.69,4090.77,4107.18,4090.77,0
12_2_5,82,4117.95,4101.03,4102.56,4086.15,4094.36,4090.77,4080,4094.36,4081.03,4066.67,4107.18,4087.69,4105.64,4092.31,0
12_2_5,83,4118.97,4094.87,4101.54,4086.67,4089.74,4091.79,4087.18,4095.38,4078.46,4069.74,4106.67,4082.05,4107.69,4091.79,0
12_2_5,83,4118.97,4094.87,4101.54,4086.67,4089.74,4091.79,4087.18,4095.38,4078.46,4069.74,4106.67,4082.05,4107.69,4091.79,0
12_2_5,84,4123.08,4104.1,4104.62,4083.59,4084.1,4096.92,4092.82,4074.36,4063.08,4067.18,4107.18,4082.56,4107.18,4093.85,0
12_2_5,85,4121.54,4103.59,4105.64,4082.05,4087.69,4094.36,4083.59,4077.44,4058.97,4057.44,4099.49,4081.03,4099.49,4092.82,0
12_2_5,86,4118.46,4094.87,4102.05,4085.64,4104.62,4088.72,4080.51,4095.38,4067.18,4058.97,4092.31,4076.41,4094.36,4089.74,0
12_2_5,87,4121.54,4100.51,4101.54,4092.82,4109.23,4093.85,4092.82,4094.36,4074.87,4062.56,4091.28,4076.41,4097.95,4091.79,0
12_2_5,88,4123.08,4103.08,4104.1,4092.31,4098.46,4100.51,4096.92,4084.62,4073.33,4052.82,4091.79,4078.46,4098.46,4093.85,0
12_2_5,89,4115.9,4092.31,4102.56,4084.1,4094.87,4097.44,4091.79,4087.69,4068.21,4053.85,4091.28,4076.92,4092.31,4090.77,0
12_2_5,90,4109.23,4088.72,4097.95,4083.59,4097.44,4092.82,4089.74,4094.87,4069.74,4061.03,4085.64,4076.92,4092.82,4087.69,0
12_2_5,91,4107.18,4092.31,4096.41,4084.1,4097.95,4092.82,4087.69,4088.72,4072.31,4054.87,4074.36,4074.36,4089.74,4081.03,0
12_2_5,92,4105.64,4088.21,4093.85,4080,4093.85,4094.36,4086.67,4084.62,4073.85,4050.26,4069.74,4067.18,4076.41,4073.33,0
12_2_5,93,4104.62,4089.74,4094.87,4082.56,4086.67,4098.97,4090.26,4098.97,4073.85,4048.72,4072.31,4063.59,4075.38,4076.92,0
12_2_5,94,4112.82,4103.08,4098.97,4089.23,4093.85,4105.64,4093.85,4106.15,4074.87,4041.03,4073.85,4067.69,4089.74,4089.23,0
12_2_5,95,4123.59,4110.26,4101.54,4096.41,4110.26,4106.67,4092.31,4097.95,4083.59,4053.33,4081.54,4075.9,4095.38,4095.9,0
12_2_5,96,4121.03,4107.18,4099.49,4098.97,4110.26,4104.1,4095.9,4104.1,4090.26,4077.44,4086.67,4078.97,4089.74,4094.36,0
12_2_5,97,4109.74,4104.62,4098.46,4091.79,4103.59,4107.18,4101.54,4110.26,4073.85,4071.28,4074.36,4070.26,4078.97,4090.26,0
12_2_5,98,4109.23,4105.64,4097.95,4088.21,4103.08,4109.23,4097.44,4098.46,4061.54,4048.21,4060.51,4062.56,4069.23,4087.69,0
12_2_5,99,4113.33,4105.64,4097.95,4092.82,4097.44,4100,4090.77,4099.49,4074.36,4039.49,4060.51,4063.08,4067.69,4086.15,0
12_2_5,100,4105.13,4094.87,4094.87,4083.59,4087.18,4092.82,4087.69,4098.97,4073.33,4032.82,4060.51,4055.9,4057.95,4077.95,0
12_2_5,101,4097.44,4082.56,4090.77,4072.82,4088.72,4092.31,4087.69,4076.92,4061.54,4027.69,4055.9,4047.18,4046.15,4070.77,0
12_2_5,102,4105.13,4093.33,4095.38,4084.1,4100,4089.23,4086.67,4075.9,4069.74,4038.97,4057.95,4054.36,4052.31,4080,0
12_2_5,103,4112.31,4109.74,4101.03,4095.9,4093.85,4094.36,4090.26,4101.54,4081.54,4050.26,4063.59,4064.1,4059.49,4089.74,0
12_2_5,104,4109.74,4102.56,4098.46,4092.82,4077.95,4108.21,4096.92,4107.69,4074.87,4043.59,4067.18,4061.03,4054.36,4091.79,0
12_2_5,105,4111.79,4093.85,4094.87,4088.72,4088.72,4105.13,4095.38,4090.77,4066.15,4034.87,4063.59,4056.41,4052.82,4092.31,0
12_2_5,106,4120.51,4100.51,4096.41,4091.28,4111.79,4090.26,4090.26,4084.62,4073.85,4036.41,4061.03,4061.03,4050.77,4092.82,0
12_2_5,107,4123.59,4101.54,4098.46,4094.87,4108.21,4091.28,4089.23,4093.85,4075.9,4028.72,4059.49,4063.08,4042.56,4093.85,0
12_2_5,108,4115.38,4091.79,4094.36,4092.31,4089.23,4095.38,4090.77,4092.82,4057.95,4009.74,4047.69,4054.87,4032.82,4087.18,0
12_2_5,109,4105.13,4087.69,4088.72,4082.05,4082.05,4088.72,4088.72,4081.54,4047.69,3996.92,4034.87,4042.56,4018.46,4073.85,0
12_2_5,110,4103.59,4090.26,4089.23,4080,4085.13,4087.18,4090.26,4092.31,4064.1,3998.46,4039.49,4045.64,4014.87,4077.95,0
12_2_5,111,4111.79,4093.33,4094.87,4090.77,4094.36,4091.79,4095.38,4107.18,4080,4012.82,4050.26,4060.51,4020,4091.28,0
12_2_5,112,4115.9,4094.36,4097.44,4094.36,4097.95,4094.87,4094.36,4088.21,4068.21,4016.41,4041.03,4058.46,4009.74,4087.18,0
12_2_5,113,4109.23,4087.18,4090.77,4083.08,4088.72,4092.82,4090.26,4075.38,4053.85,3998.46,4031.28,4050.26,4000.51,4080,0
12_2_5,114,4104.62,4078.46,4086.67,4073.85,4089.23,4091.28,4090.26,4091.28,4068.72,3996.41,4044.62,4052.82,4013.33,4088.21,0
12_2_5,115,4113.85,4083.08,4091.28,4078.97,4094.87,4100.51,4099.49,4097.44,4083.08,4019.49,4055.9,4054.87,4026.67,4096.92,0
12_2_5,116,4124.62,4094.36,4095.9,4089.23,4089.23,4107.69,4101.54,4091.79,4068.72,4015.38,4049.74,4053.85,4023.59,4097.44,0
12_2_5,117,4122.56,4093.85,4091.28,4091.28,4084.62,4100.51,4096.41,4104.1,4063.59,3997.95,4045.64,4059.49,4019.49,4096.92,0
12_2_5,118,4119.49,4088.21,4089.74,4088.21,4093.85,4094.87,4098.97,4112.82,4076.41,4005.13,4051.28,4062.56,4017.95,4100.51,0
12_2_5,119,4123.59,4089.23,4092.31,4088.72,4098.46,4099.49,4107.69,4105.64,4071.28,4007.18,4051.79,4060,4017.44,4105.64,0
12_2_5,120,4125.13,4091.28,4089.74,4088.21,4090.26,4098.97,4107.69,4105.13,4065.64,4004.62,4049.23,4058.46,4016.92,4106.15,0
12_2_5,121,4121.54,4088.72,4089.74,4086.15,4089.74,4094.36,4099.49,4110.26,4072.82,4009.23,4050.77,4057.44,4012.82,4103.08,0
12_2_5,122,4125.13,4090.77,4094.87,4090.26,4090.77,4098.97,4097.95,4109.23,4078.46,4009.74,4048.21,4059.49,4008.21,4107.69,0
12_2_5,123,4128.21,4091.79,4093.33,4090.77,4082.05,4100,4103.08,4101.54,4075.38,4006.67,4037.44,4058.46,4004.1,4108.21,0
12_2_5,124,4122.56,4084.62,4086.67,4084.1,4085.64,4093.33,4098.46,4088.21,4062.05,4005.13,4027.18,4053.33,3998.46,4098.46,0
12_2_5,125,4119.49,4083.59,4088.72,4084.62,4099.49,4091.79,4090.26,4086.15,4053.85,4003.08,4037.44,4054.36,4002.05,4098.97,0
12_2_5,126,4124.62,4092.31,4092.31,4093.33,4095.9,4099.49,4100.51,4100.51,4061.03,4000.51,4047.69,4056.41,4005.13,4109.23,0
12_2_5,127,4125.13,4091.79,4088.72,4094.36,4085.64,4098.97,4106.15,4106.67,4067.18,4001.54,4030.77,4048.21,3995.9,4101.54,0
12_2_5,128,4121.54,4086.67,4084.62,4090.26,4096.92,4091.79,4091.28,4099.49,4062.05,3997.95,4015.9,4041.03,3985.64,4088.21,0
12_2_5,0,4121.03,4089.23,4088.21,4088.72,4105.64,4097.95,4090.77,4102.56,4065.64,3995.9,4024.62,4044.1,3980,4093.85,0
12_2_5,1,4117.95,4090.26,4088.72,4085.13,4098.97,4109.23,4106.67,4111.79,4069.23,4001.54,4025.13,4043.59,3972.31,4098.46,0
12_2_5,2,4122.56,4089.23,4088.21,4086.15,4096.92,4111.28,4109.23,4111.79,4065.64,4004.62,4017.95,4043.08,3975.38,4095.9,0
12_2_5,3,4133.85,4094.36,4093.33,4094.36,4098.97,4103.08,4099.49,4112.31,4072.82,3999.49,4026.67,4046.67,3985.13,4104.1,0
12_2_5,4,4133.33,4093.33,4095.38,4094.87,4098.97,4096.41,4092.31,4106.15,4074.36,3990.26,4028.21,4044.1,3978.46,4107.69,0
12_2_5,13,4131.79,4078.46,4091.79,4093.85,4096.41,4088.72,4090.77,4088.21,4052.82,3981.03,4010.77,4029.23,3957.44,4109.74,0
12_2_5,14,4134.36,4077.95,4094.36,4091.28,4090.26,4091.79,4091.79,4085.13,4047.69,3975.38,4002.56,4031.79,3954.87,4110.77,0
12_2_5,15,4124.62,4072.31,4091.79,4081.54,4077.95,4087.69,4092.31,4078.97,4045.64,3968.72,3988.72,4027.69,3942.05,4100.51,0
12_2_5,16,4113.33,4068.21,4084.1,4079.49,4080,4086.15,4090.77,4075.38,4047.18,3965.64,3989.74,4020.51,3934.87,4090.26,0
12_2_5,17,4116.41,4074.36,4083.59,4087.69,4093.33,4092.82,4090.77,4077.44,4049.23,3974.87,3998.46,4019.49,3946.15,4092.82,0
12_2_5,18,4121.54,4080.51,4087.69,4092.82,4094.87,4091.28,4090.77,4078.97,4041.54,3970.26,3993.33,4018.46,3958.46,4094.87,0
12_2_5,19,4115.9,4074.36,4087.18,4085.13,4081.03,4083.59,4089.74,4073.33,4029.74,3941.03,3981.03,4013.33,3960,4087.69,0
12_2_5,20,4117.95,4071.79,4086.15,4075.38,4075.9,4088.72,4090.26,4076.41,4037.95,3943.59,3986.15,4013.33,3971.79,4087.18,0
12_2_5,21,4128.21,4077.95,4089.74,4081.54,4088.72,4095.38,4092.82,4088.21,4055.9,3972.31,3995.9,4020,3999.49,4096.41,0
12_2_5,22,4124.62,4073.85,4088.21,4090.26,4095.9,4090.26,4092.82,4092.31,4057.95,3971.28,3993.33,4022.05,4008.72,4098.46,0
12_2_5,23,4107.69,4060.51,4084.1,4080.51,4082.05,4086.15,4088.72,4081.54,4042.05,3961.03,3986.15,4010.77,3995.9,4088.21,0
12_2_5,24,4100.51,4055.9,4082.56,4070.26,4071.79,4091.79,4088.21,4068.21,4031.79,3967.18,3983.08,4001.03,3992.82,4080,0
12_2_5,25,4111.79,4067.18,4084.62,4079.49,4082.56,4094.87,4094.36,4071.79,4051.28,3972.82,3988.21,4010.26,4003.08,4086.67,0
12_2_5,26,4120.51,4075.9,4085.64,4083.59,4087.18,4089.23,4091.79,4076.92,4061.03,3968.21,3990.26,4017.44,4003.08,4092.31,0
12_2_5,27,4121.03,4076.41,4085.64,4079.49,4082.56,4091.79,4089.23,4080,4049.74,3967.69,3987.69,4013.33,4000,4090.77,0
12_2_5,28,4120,4075.38,4084.1,4082.56,4091.28,4103.08,4100,4093.85,4050.26,3971.28,3989.23,4015.9,3998.46,4092.82,0
12_2_5,29,4111.79,4067.69,4082.56,4080,4086.15,4095.38,4098.97,4098.46,4054.36,3965.13,3983.08,4014.36,3985.13,4087.18,0
12_2_5,30,4103.08,4055.38,4081.03,4072.31,4061.54,4074.87,4081.03,4082.05,4050.77,3951.28,3970.26,4000.51,3968.21,4074.36,0
12_2_5,31,4104.1,4061.03,4082.05,4076.92,4070.26,4076.92,4076.92,4066.67,4048.72,3950.26,3970.26,3999.49,3968.72,4072.31,0
12_2_5,32,4107.18,4074.36,4082.05,4081.54,4096.92,4089.23,4088.21,4062.56,4047.18,3959.49,3975.38,4004.62,3973.33,4076.92,0
12_2_5,33,4105.13,4070.26,4080,4075.38,4089.74,4090.26,4091.28,4069.23,4045.13,3956.92,3971.28,3999.49,3963.59,4073.85,0
12_2_5,34,4106.67,4068.21,4084.1,4076.41,4079.49,4088.72,4089.23,4086.15,4057.95,3955.38,3972.31,4003.08,3961.03,4073.85,0
12_2_6,35,4109.74,4074.87,4087.69,4083.08,4082.56,4087.69,4089.74,4085.64,4062.56,3960.51,3976.92,4009.74,3967.69,4078.46,0
12_2_6,36,4106.67,4070.77,4084.62,4081.54,4077.95,4081.03,4087.69,4071.79,4044.62,3955.9,3975.38,4010.26,3961.03,4077.95,0
12_2_6,37,4106.15,4066.15,4082.05,4080,4075.9,4078.46,4087.18,4075.38,4041.03,3953.85,3974.87,4012.31,3955.38,4081.03,0
12_2_6,38,4108.72,4067.18,4083.59,4081.03,4079.49,4081.54,4087.69,4087.69,4058.97,3970.77,3973.85,4012.82,3967.69,4083.59,0
12_2_6,39,4109.23,4064.1,4082.05,4079.49,4076.41,4084.1,4089.74,4089.74,4067.69,3986.15,3972.82,4009.74,3971.28,4085.64,0
12_2_6,40,4107.69,4062.05,4082.56,4076.92,4071.79,4083.08,4092.82,4085.64,4057.44,3975.9,3973.33,4010.77,3961.03,4085.64,0
12_2_6,41,4103.59,4065.13,4087.18,4075.38,4070.26,4078.97,4090.26,4081.03,4047.69,3957.44,3968.21,4009.74,3955.38,4075.9,0
12_2_6,41,4103.59,4065.13,4087.18,4075.38,4070.26,4078.97,4090.26,4081.03,4047.69,3957.44,3968.21,4009.74,3955.38,4075.9,0
12_2_6,42,4099.49,4064.62,4084.62,4076.41,4070.77,4072.82,4080.51,4069.74,4041.03,3946.67,3956.92,4002.05,3949.23,4068.21,0
12_2_6,43,4101.03,4065.13,4083.08,4083.08,4073.33,4078.46,4081.03,4057.95,4034.87,3936.92,3955.9,3998.46,3942.05,4070.26,0
12_2_6,44,4105.13,4071.79,4086.15,4085.64,4078.97,4088.21,4092.31,4061.03,4037.44,3937.44,3966.67,4001.54,3945.64,4073.85,0
12_2_6,45,4108.72,4076.92,4087.69,4086.67,4082.05,4087.69,4093.85,4072.82,4046.15,3958.97,3972.31,4009.23,3951.79,4074.87,0
12_2_6,46,4110.77,4078.46,4086.67,4088.72,4078.46,4085.13,4087.69,4077.95,4052.31,3977.95,3973.85,4016.41,3953.33,4081.03,0
12_2_6,47,4108.21,4075.38,4085.64,4086.67,4071.79,4087.69,4090.26,4073.33,4053.33,3969.23,3974.87,4012.82,3949.74,4083.59,0
12_2_6,48,4108.72,4070.77,4085.13,4084.1,4076.92,4084.1,4089.74,4064.62,4044.62,3949.23,3968.21,4006.15,3938.97,4078.97,0
12_2_6,49,4104.62,4066.15,4083.59,4078.46,4083.59,4076.41,4080.51,4057.95,4032.31,3940,3952.82,4000.51,3926.15,4071.28,0
12_2_6,50,4095.9,4060.51,4083.08,4072.31,4070.77,4076.41,4077.44,4062.56,4030.26,3938.46,3947.69,3998.46,3926.15,4068.72,0
12_2_6,51,4098.46,4059.49,4083.59,4077.95,4061.54,4077.95,4082.05,4072.31,4033.85,3937.95,3954.87,4001.03,3933.85,4073.85,0
12_2_6,52,4103.08,4064.62,4085.13,4089.23,4071.79,4074.87,4082.56,4071.79,4033.33,3937.44,3957.44,3997.44,3935.9,4071.79,0
12_2_6,53,4101.54,4070.77,4085.64,4091.28,4078.46,4076.41,4078.46,4061.54,4036.92,3944.62,3955.38,3991.79,3938.97,4068.21,0
12_2_6,54,4103.08,4069.74,4084.1,4089.23,4077.95,4077.95,4078.97,4050.77,4037.44,3940.51,3956.41,3990.77,3941.03,4070.77,0
12_2_6,55,4101.54,4066.15,4083.08,4083.08,4075.38,4074.87,4080,4045.64,4030.77,3926.15,3958.97,3990.77,3933.85,4068.21,0
12_2_6,56,4093.85,4064.1,4080.51,4073.85,4062.05,4072.82,4076.92,4052.82,4031.28,3937.44,3957.95,3988.72,3930.26,4059.49,0
12_2_6,57,4090.77,4062.56,4081.54,4078.97,4059.49,4075.38,4080.51,4066.67,4034.36,3950.77,3955.38,3988.21,3930.26,4056.41,0
12_2_6,58,4092.31,4064.62,4084.1,4086.67,4071.28,4072.82,4088.21,4066.15,4032.31,3932.31,3955.9,3987.69,3927.69,4060,0
12_2_6,59,4091.79,4066.67,4082.05,4079.49,4070.26,4065.64,4083.59,4053.85,4025.64,3914.36,3953.33,3989.23,3924.1,4057.95,0
12_2_6,60,4096.92,4066.67,4081.54,4074.87,4070.26,4066.67,4077.44,4052.82,4022.56,3926.67,3953.85,3995.9,3925.64,4056.92,0
12_2_6,61,4104.1,4070.26,4087.18,4086.67,4077.95,4074.36,4085.64,4069.23,4040.51,3953.85,3972.31,4003.59,3932.82,4065.64,0
12_2_6,62,4107.69,4076.92,4088.21,4093.85,4073.33,4077.95,4088.21,4073.33,4055.38,3972.31,3984.1,4005.13,3941.54,4076.41,0
12_2_6,63,4107.69,4074.87,4084.62,4084.1,4070.77,4075.38,4075.38,4058.46,4040.51,3969.74,3974.36,4003.59,3941.54,4074.87,0
12_2_6,64,4105.64,4071.28,4085.13,4082.56,4078.97,4076.41,4075.9,4062.56,4031.28,3958.97,3972.31,4006.15,3937.95,4071.28,0
12_2_6,65,4108.72,4082.05,4089.74,4091.79,4082.05,4082.05,4092.31,4077.44,4043.59,3960.51,3985.13,4012.82,3941.03,4080,0
12_2_6,66,4119.49,4092.82,4094.36,4092.82,4081.54,4082.05,4093.85,4072.31,4049.23,3957.95,3987.69,4018.46,3945.13,4088.21,0
12_2_6,67,4121.54,4087.69,4096.41,4090.77,4081.54,4075.38,4079.49,4057.95,4040.51,3950.77,3979.49,4015.38,3941.03,4081.54,0
12_2_6,68,4109.23,4075.9,4090.77,4088.72,4075.38,4075.38,4075.38,4051.79,4026.67,3940,3970.77,4007.18,3927.69,4071.28,0
12_2_6,69,4105.64,4074.36,4086.67,4084.1,4068.72,4079.49,4085.64,4055.9,4023.59,3926.67,3971.28,4003.08,3918.97,4072.31,0
12_2_6,70,4112.31,4078.46,4089.23,4085.13,4072.31,4072.82,4085.13,4062.05,4034.87,3944.1,3984.62,4006.67,3926.15,4077.95,0
12_2_6,71,4112.31,4082.05,4091.79,4092.31,4076.41,4069.23,4076.92,4054.87,4036.41,3973.85,3994.36,4009.74,3938.46,4076.92,0
12_2_6,72,4110.77,4083.59,4091.28,4092.31,4069.23,4075.9,4078.46,4043.59,4026.15,3967.18,3987.69,4006.67,3938.46,4074.87,0
12_2_6,73,4111.28,4079.49,4091.79,4084.1,4063.08,4069.23,4081.54,4056.41,4030.26,3956.41,3982.05,4005.64,3930.26,4073.85,0
12_2_6,74,4106.15,4076.41,4093.85,4079.49,4071.28,4062.05,4079.49,4065.64,4044.62,3976.41,3982.05,4007.69,3927.69,4072.82,0
12_2_6,75,4106.67,4081.54,4093.33,4083.08,4074.87,4072.82,4081.03,4052.82,4046.67,3983.08,3982.05,4012.31,3932.31,4074.36,0
12_2_6,76,4116.92,4090.26,4091.28,4091.28,4073.33,4078.97,4081.03,4049.23,4032.82,3963.08,3983.59,4014.87,3931.28,4076.41,0
12_2_6,77,4118.97,4091.79,4088.21,4091.28,4079.49,4068.21,4075.38,4054.36,4020.51,3952.82,3981.03,4011.79,3925.64,4075.9,0
12_2_6,78,4108.72,4085.13,4088.21,4083.08,4072.82,4064.62,4075.38,4045.64,4028.72,3953.85,3971.79,4006.15,3921.54,4069.74,0
12_2_6,79,4104.1,4080,4089.74,4080,4063.59,4067.69,4077.95,4041.03,4041.03,3955.38,3969.23,4000.51,3918.97,4061.54,0
12_2_6,80,4112.31,4084.1,4092.31,4086.67,4071.79,4065.64,4076.92,4055.9,4035.9,3954.36,3975.9,4000.51,3920,4062.56,0
12_2_6,81,4118.97,4089.23,4092.82,4093.85,4071.79,4065.64,4076.41,4063.59,4032.31,3960,3982.05,4006.67,3925.13,4072.82,0
12_2_6,82,4116.92,4085.64,4090.77,4090.26,4056.92,4064.62,4076.92,4060,4041.54,3974.87,3985.64,4018.46,3933.85,4077.44,0
12_2_6,83,4111.28,4078.46,4091.28,4081.54,4053.85,4060.51,4076.92,4059.49,4042.05,3981.03,3991.28,4023.08,3941.54,4075.9,0
12_2_6,84,4108.21,4081.03,4094.87,4083.08,4066.67,4066.15,4075.9,4059.49,4037.44,3976.92,4001.54,4019.49,3943.08,4076.92,0
12_2_6,85,4115.38,4091.79,4098.97,4091.79,4077.44,4076.92,4076.92,4061.03,4044.1,3981.03,4006.15,4018.97,3943.59,4078.46,0
12_2_6,86,4118.46,4094.87,4097.95,4091.79,4080,4073.85,4076.92,4063.08,4051.28,3989.23,3996.92,4015.38,3943.59,4076.41,0
12_2_6,87,4111.28,4088.21,4093.85,4088.21,4074.87,4064.1,4074.87,4057.95,4044.1,3989.74,3992.31,4005.64,3940.51,4073.33,0
12_2_6,88,4112.31,4086.15,4094.36,4092.31,4066.15,4069.23,4080.51,4060.51,4043.59,3989.74,3997.44,4005.13,3939.49,4074.87,0
12_2_6,89,4121.54,4090.77,4097.95,4094.36,4063.59,4077.95,4091.28,4071.28,4052.31,3991.28,3998.97,4011.79,3942.56,4076.41,0
12_2_6,90,4123.08,4094.36,4099.49,4092.82,4071.79,4074.87,4092.82,4073.33,4047.18,3988.21,4006.67,4020.51,3950.26,4079.49,0
12_2_6,91,4122.05,4094.87,4099.49,4095.9,4087.69,4077.95,4089.23,4073.33,4034.36,3986.15,4017.95,4029.74,3959.49,4087.18,0
12_2_6,92,4123.08,4091.28,4096.92,4095.9,4086.67,4092.31,4091.28,4074.87,4042.56,3996.41,4016.41,4029.74,3959.49,4090.26,0
12_2_6,93,4124.1,4091.79,4095.38,4094.87,4070.77,4093.33,4092.31,4071.79,4059.49,4014.87,4019.49,4027.18,3964.62,4089.74,0
12_2_6,94,4125.13,4097.44,4098.97,4098.46,4076.92,4082.05,4092.82,4076.41,4057.95,4015.38,4029.23,4032.31,3976.41,4092.31,0
12_2_6,95,4115.38,4092.31,4093.85,4091.79,4090.26,4075.9,4090.77,4082.56,4048.72,4008.21,4016.41,4024.62,3966.67,4085.13,0
12_2_6,96,4102.56,4081.54,4082.05,4084.1,4081.03,4076.41,4083.59,4069.23,4045.64,4008.21,4002.05,4005.13,3953.33,4071.28,0
12_2_6,97,4110.26,4084.1,4087.18,4091.28,4071.79,4078.46,4084.62,4062.05,4046.67,3998.46,4015.38,4011.28,3965.13,4074.36,0
12_2_6,98,4131.79,4100,4101.03,4101.54,4075.38,4078.97,4090.77,4083.08,4063.59,4006.67,4044.62,4038.46,3983.59,4095.9,0
12_2_6,99,4143.59,4110.26,4102.56,4104.62,4081.54,4078.97,4088.72,4094.36,4074.87,4044.1,4058.46,4050.77,3993.33,4110.77,0
12_2_6,100,4137.95,4106.15,4095.38,4102.05,4087.18,4085.64,4089.23,4081.03,4057.95,4048.72,4051.79,4043.59,3993.85,4103.08,0
12_2_6,101,4120.51,4091.79,4092.31,4096.41,4089.23,4087.69,4091.28,4067.18,4036.92,4013.85,4035.9,4028.21,3976.92,4083.59,0
12_2_6,102,4107.69,4081.03,4088.72,4093.85,4082.56,4080,4084.62,4054.87,4032.82,3991.28,4022.05,4011.28,3956.92,4068.72,0
12_2_6,103,4106.15,4078.46,4083.59,4089.23,4073.85,4076.92,4083.08,4049.74,4037.44,3990.26,4012.31,4002.05,3951.28,4060.51,0
12_2_6,104,4103.08,4076.41,4081.03,4081.03,4071.28,4081.54,4091.28,4058.46,4042.56,4000,4012.31,4009.74,3953.85,4061.03,0
12_2_6,105,4107.18,4084.62,4085.64,4088.72,4078.97,4081.03,4092.82,4062.05,4040.51,4016.92,4026.15,4024.1,3964.1,4072.82,0
12_2_6,106,4116.92,4092.82,4089.23,4098.46,4081.54,4075.9,4090.77,4064.62,4040.51,4025.64,4039.49,4031.79,3981.54,4084.1,0
12_2_6,107,4115.38,4086.67,4084.62,4087.69,4068.21,4073.85,4090.77,4078.46,4057.44,4028.72,4049.23,4037.44,3996.92,4088.72,0
12_2_6,108,4109.74,4084.1,4083.08,4081.54,4064.62,4074.87,4082.56,4079.49,4066.15,4030.26,4053.85,4038.97,4011.79,4090.26,0
12_2_6,109,4110.26,4091.28,4084.62,4089.74,4080,4074.87,4073.85,4066.15,4050.26,4021.03,4046.67,4033.33,4029.23,4085.13,0
12_2_6,110,4110.26,4092.82,4082.56,4089.74,4086.67,4075.9,4076.41,4065.64,4043.59,4013.85,4040.51,4028.21,4041.54,4078.97,0
12_2_6,111,4105.13,4090.26,4076.41,4080,4082.05,4080.51,4079.49,4064.62,4049.74,4018.97,4042.56,4024.62,4047.18,4075.38,0
12_2_6,112,4103.59,4090.26,4077.95,4078.46,4081.54,4078.97,4078.97,4056.92,4047.69,4029.74,4044.62,4020.51,4054.36,4071.79,0
12_2_6,113,4110.26,4093.85,4084.1,4085.64,4080.51,4073.85,4086.67,4074.87,4062.56,4048.21,4055.9,4031.28,4070.26,4081.03,0
12_2_6,114,4123.59,4105.13,4086.15,4093.85,4075.38,4074.87,4094.87,4101.03,4084.62,4067.18,4076.41,4054.36,4084.62,4097.44,0
12_2_6,115,4126.67,4107.69,4082.56,4091.79,4073.33,4077.95,4092.82,4091.28,4069.23,4058.97,4080,4060.51,4085.64,4098.97,0
12_2_6,116,4111.28,4093.33,4076.41,4081.54,4075.38,4078.46,4087.18,4066.67,4045.64,4038.46,4066.15,4045.64,4077.95,4085.13,0
12_2_6,117,4105.64,4089.74,4074.36,4082.56,4075.9,4079.49,4084.1,4059.49,4058.97,4046.15,4060.51,4042.05,4072.82,4077.44,0
12_2_6,118,4108.72,4096.41,4073.85,4084.1,4070.77,4081.03,4081.54,4059.49,4065.13,4052.31,4064.1,4048.72,4067.69,4077.44,0
12_2_6,119,4102.56,4092.31,4069.74,4076.92,4072.82,4079.49,4080,4061.03,4046.67,4032.82,4062.05,4046.15,4058.46,4072.31,0
12_2_6,120,4101.03,4087.69,4069.23,4076.41,4081.03,4077.95,4078.46,4067.18,4051.28,4030.77,4061.03,4043.08,4056.41,4068.72,0
12_2_6,121,4107.69,4089.23,4073.33,4080,4073.85,4074.87,4078.97,4068.72,4060,4042.05,4065.13,4049.74,4057.44,4071.28,0
12_2_6,122,4106.15,4088.72,4075.9,4077.44,4065.13,4072.82,4082.05,4069.74,4053.33,4033.33,4070.26,4053.85,4054.36,4073.85,0
12_2_6,123,4104.62,4089.74,4076.41,4078.46,4076.41,4077.95,4083.59,4071.79,4062.56,4036.41,4075.9,4056.92,4057.95,4076.92,0
12_2_6,124,4109.74,4091.28,4076.41,4078.97,4077.95,4080,4082.05,4068.72,4072.82,4057.44,4082.56,4062.05,4067.18,4081.54,0
12_2_6,125,4107.18,4089.74,4075.38,4078.46,4062.56,4076.41,4080,4064.62,4062.05,4056.41,4085.13,4061.03,4067.69,4078.97,0
12_2_6,126,4104.62,4092.31,4075.38,4086.67,4066.67,4079.49,4082.05,4066.15,4054.87,4044.1,4089.74,4058.46,4063.59,4075.38,0
12_2_6,127,4106.15,4094.87,4076.41,4087.69,4077.95,4081.54,4082.56,4065.64,4060.51,4046.15,4091.28,4059.49,4065.64,4073.33,0
12_2_6,128,4101.54,4092.31,4076.41,4078.97,4070.77,4072.31,4077.95,4065.13,4069.23,4050.77,4082.56,4058.46,4071.79,4069.23,0
12_2_6,0,4098.97,4089.23,4077.44,4080,4061.03,4064.62,4074.87,4067.18,4065.64,4043.59,4082.05,4058.46,4074.87,4069.74,0
12_2_6,1,4104.1,4091.28,4076.92,4083.08,4064.1,4067.69,4073.33,4055.9,4050.77,4041.54,4089.74,4059.49,4075.38,4075.38,0
12_2_6,2,4109.23,4102.05,4076.92,4087.18,4077.95,4071.79,4072.82,4051.28,4054.36,4055.9,4092.31,4060,4079.49,4079.49,0
12_2_6,3,4108.21,4105.64,4076.92,4089.74,4082.05,4076.41,4077.44,4068.21,4072.31,4066.67,4093.33,4059.49,4080.51,4081.54,0
12_2_6,4,4104.62,4097.95,4076.92,4082.56,4070.77,4075.9,4079.49,4063.59,4072.31,4066.15,4092.31,4058.97,4074.87,4076.92,0
12_2_6,5,4105.64,4100,4075.38,4081.54,4071.79,4075.38,4074.36,4044.62,4065.13,4070.26,4093.33,4063.08,4079.49,4073.85,0
12_2_6,6,4108.21,4110.77,4074.87,4091.28,4078.97,4080,4075.9,4061.03,4069.23,4077.44,4098.97,4067.18,4085.13,4077.95,0
12_2_6,7,4105.64,4108.72,4074.87,4093.85,4069.74,4080.51,4079.49,4079.49,4063.59,4074.87,4098.97,4063.08,4076.41,4074.87,0
12_2_6,8,4102.56,4103.59,4074.36,4090.26,4066.15,4075.38,4071.28,4061.03,4060,4073.33,4092.31,4058.46,4072.82,4068.21,0
12_2_6,9,4100,4106.15,4069.23,4086.67,4076.92,4072.82,4068.21,4049.74,4067.18,4072.82,4090.26,4061.03,4074.87,4070.26,0
12_2_6,10,4096.41,4107.18,4068.21,4084.62,4080.51,4076.41,4073.33,4050.26,4061.03,4066.67,4086.15,4061.54,4064.1,4070.77,0
12_2_6,11,4094.87,4106.67,4071.28,4088.72,4077.44,4079.49,4071.28,4036.41,4048.72,4060,4080.51,4059.49,4053.33,4065.64,0
12_2_6,12,4095.9,4106.15,4069.23,4090.26,4073.85,4071.28,4062.56,4036.92,4048.21,4056.92,4085.13,4059.49,4059.49,4063.08,0
12_2_6,13,4101.03,4112.82,4070.77,4088.72,4074.36,4068.21,4065.13,4052.82,4064.1,4070.26,4094.36,4063.59,4074.87,4071.28,0
12_2_6,14,4107.69,4124.62,4076.41,4094.87,4075.38,4082.56,4075.38,4055.9,4078.97,4091.79,4097.44,4068.72,4083.08,4079.49,0
12_2_6,15,4106.67,4123.59,4073.33,4096.41,4071.28,4086.67,4076.41,4051.79,4071.28,4091.28,4091.79,4063.59,4074.36,4071.28,0
12_2_6,16,4103.08,4118.46,4071.28,4090.26,4076.41,4081.03,4074.87,4058.46,4062.05,4086.67,4088.21,4060,4068.72,4065.64,0
12_2_6,17,4109.23,4123.59,4079.49,4092.31,4094.87,4086.67,4077.95,4068.21,4071.79,4095.38,4096.92,4071.28,4083.59,4077.95,0
12_2_6,18,4111.28,4126.67,4081.54,4095.38,4095.38,4089.23,4078.46,4064.1,4075.38,4095.38,4106.67,4080,4093.85,4084.1,0
12_2_6,19,4106.67,4120.51,4077.44,4092.31,4077.44,4084.62,4079.49,4063.59,4066.67,4090.77,4105.13,4076.92,4091.28,4078.46,0
12_2_6,20,4109.74,4123.08,4080,4093.33,4076.41,4091.79,4089.23,4078.46,4078.46,4101.54,4105.64,4073.85,4095.38,4081.54,0
12_2_6,21,4115.38,4132.82,4083.08,4102.05,4091.79,4095.38,4090.26,4082.05,4091.28,4112.82,4110.26,4078.46,4103.08,4086.15,0
12_2_6,22,4110.26,4130.26,4076.92,4098.46,4090.77,4087.18,4076.92,4063.59,4072.31,4104.1,4100,4076.92,4094.36,4078.97,0
12_2_6,23,4102.05,4120,4072.82,4083.59,4077.95,4082.56,4074.36,4054.87,4060.51,4091.28,4086.15,4067.69,4080.51,4073.33,0
12_2_6,24,4102.05,4117.95,4073.85,4078.97,4071.28,4080.51,4078.97,4061.03,4071.28,4090.77,4092.82,4068.72,4084.62,4073.85,0
12_2_6,25,4100,4121.54,4076.41,4081.54,4066.15,4072.31,4069.23,4054.36,4069.74,4094.36,4098.46,4075.38,4089.74,4071.79,0
12_2_6,26,4094.87,4121.54,4075.38,4078.97,4064.62,4066.67,4057.95,4048.21,4056.92,4092.82,4090.77,4073.85,4084.1,4071.79,0
12_2_6,27,4097.95,4118.97,4074.36,4080.51,4073.85,4072.31,4067.18,4055.9,4060.51,4096.41,4092.31,4071.79,4082.56,4075.38,0
12_2_6,28,4106.15,4118.46,4076.92,4085.64,4081.54,4084.1,4083.08,4062.56,4075.9,4108.72,4106.67,4075.9,4089.74,4077.44,0
12_2_7,29,4108.21,4121.03,4078.97,4083.08,4077.44,4085.13,4084.1,4061.54,4080.51,4109.74,4113.33,4075.9,4091.28,4075.9,0
12_2_7,30,4105.13,4122.56,4076.92,4084.1,4074.36,4080.51,4079.49,4062.05,4074.87,4105.13,4104.62,4074.36,4089.74,4074.87,0
12_2_7,31,4104.1,4121.54,4074.36,4088.21,4077.44,4086.15,4084.62,4067.69,4068.21,4106.67,4101.03,4078.97,4092.82,4077.44,0
12_2_7,32,4105.64,4121.54,4076.41,4085.13,4077.95,4092.31,4083.59,4064.1,4068.21,4106.15,4104.1,4078.46,4091.28,4079.49,0
12_2_7,33,4107.18,4124.1,4079.49,4084.62,4075.38,4086.15,4074.87,4060,4073.85,4111.28,4104.1,4080,4089.74,4080,0
12_2_7,34,4107.69,4124.62,4081.54,4090.26,4073.33,4078.97,4075.9,4068.72,4081.54,4122.56,4111.79,4089.23,4100,4086.67,0
12_2_7,35,4107.69,4124.62,4083.08,4090.77,4076.92,4074.87,4079.49,4066.67,4078.97,4117.95,4120,4093.85,4107.18,4092.82,0
12_2_7,36,4109.74,4125.64,4082.05,4089.74,4082.05,4074.36,4073.85,4050.77,4066.67,4107.18,4112.82,4092.82,4098.97,4090.26,0
12_2_7,37,4110.26,4127.18,4082.56,4093.85,4077.44,4080.51,4074.87,4051.28,4065.64,4114.87,4105.64,4090.26,4092.31,4085.13,0
12_2_7,38,4107.69,4127.69,4082.05,4092.82,4071.79,4083.59,4084.1,4061.03,4076.92,4126.67,4108.72,4082.56,4095.9,4082.56,0
12_2_7,39,4104.62,4127.69,4074.36,4088.21,4079.49,4078.97,4080,4061.54,4080,4122.56,4108.21,4074.87,4093.85,4079.49,0
12_2_7,40,4105.13,4132.82,4073.33,4087.69,4089.23,4084.1,4077.44,4061.54,4075.38,4123.08,4108.21,4077.95,4092.82,4078.97,0
12_2_7,41,4107.69,4137.44,4077.44,4089.23,4085.13,4093.85,4087.69,4063.08,4074.36,4128.21,4111.79,4082.56,4097.44,4081.54,0
12_2_7,42,4106.67,4130.26,4075.9,4084.62,4075.9,4086.15,4086.15,4060,4070.26,4109.74,4106.67,4079.49,4093.85,4078.97,0
12_2_7,43,4102.56,4123.08,4071.79,4076.41,4078.46,4076.92,4075.38,4055.38,4062.56,4095.9,4105.64,4076.92,4088.21,4074.87,0
12_2_7,44,4104.62,4131.79,4075.38,4081.54,4085.64,4084.1,4079.49,4054.36,4064.1,4114.87,4111.79,4082.56,4091.79,4081.03,0
12_2_7,45,4108.72,4139.49,4077.44,4090.26,4081.54,4090.26,4085.64,4055.38,4075.38,4131.79,4112.82,4087.18,4102.56,4088.21,0
12_2_7,46,4107.69,4135.9,4076.41,4089.74,4079.49,4084.62,4078.46,4058.46,4077.44,4123.08,4108.72,4086.67,4106.15,4083.08,0
12_2_7,47,4112.82,4141.03,4081.03,4091.28,4093.33,4086.15,4081.03,4067.18,4073.85,4117.95,4115.9,4093.33,4104.1,4085.13,0
12_2_7,48,4125.13,4153.85,4085.64,4097.44,4099.49,4095.9,4093.33,4080,4088.21,4133.85,4135.38,4107.18,4115.38,4103.08,0
12_2_7,49,4127.69,4154.36,4083.08,4098.97,4083.59,4095.9,4093.33,4078.46,4094.87,4145.13,4136.92,4106.15,4125.13,4106.15,0
12_2_7,50,4123.08,4151.28,4081.54,4097.44,4082.05,4091.79,4089.23,4073.33,4084.1,4142.05,4127.69,4098.97,4118.46,4096.41,0
12_2_7,51,4124.62,4154.87,4082.05,4096.41,4098.97,4094.87,4094.87,4081.54,4084.1,4140,4132.31,4102.56,4115.9,4097.44,0
12_2_7,52,4122.56,4153.33,4078.97,4091.79,4097.44,4095.38,4096.92,4079.49,4091.79,4143.08,4133.33,4100.51,4119.49,4097.44,0
12_2_7,53,4121.54,4151.28,4078.46,4091.79,4078.46,4090.26,4089.23,4069.74,4092.82,4137.95,4121.03,4095.9,4114.36,4093.33,0
12_2_7,54,4123.08,4152.82,4083.59,4094.36,4073.33,4087.69,4082.56,4067.69,4078.97,4125.13,4113.33,4097.95,4107.69,4093.85,0
12_2_7,55,4115.9,4148.21,4082.56,4091.79,4078.97,4078.46,4073.85,4061.54,4064.62,4120,4108.72,4095.38,4106.15,4091.79,0
12_2_7,56,4109.74,4139.49,4074.87,4089.23,4080,4069.23,4065.13,4054.87,4072.82,4127.18,4105.13,4091.79,4104.1,4086.15,0
12_2_7,57,4112.82,4136.92,4076.92,4089.23,4082.05,4078.97,4070.26,4061.03,4085.64,4136.41,4108.21,4093.85,4103.59,4087.18,0
12_2_7,58,4114.36,4141.03,4082.05,4090.26,4083.08,4091.28,4081.03,4064.62,4082.05,4138.46,4113.33,4094.87,4105.13,4091.28,0
12_2_7,59,4111.79,4143.08,4080.51,4092.31,4078.97,4083.59,4080,4063.59,4078.46,4135.38,4116.41,4092.31,4109.74,4092.82,0
12_2_7,60,4108.21,4139.49,4074.36,4090.26,4078.97,4073.85,4072.82,4070.77,4079.49,4133.85,4115.38,4089.74,4111.79,4089.74,0
12_2_7,61,4108.21,4141.03,4074.87,4086.67,4087.69,4077.44,4074.36,4072.31,4082.05,4141.54,4113.33,4090.77,4108.72,4086.15,0
12_2_7,62,4117.44,4152.31,4081.03,4091.28,4093.85,4086.67,4083.08,4071.79,4096.92,4155.38,4123.59,4101.03,4122.56,4097.95,0
12_2_7,63,4126.15,4156.92,4083.59,4096.92,4089.23,4089.23,4084.62,4080,4096.41,4154.87,4132.31,4111.79,4143.08,4110.26,0
12_2_7,64,4124.62,4151.79,4081.54,4097.44,4084.1,4086.15,4078.46,4083.59,4090.26,4150.26,4133.33,4112.31,4138.97,4109.23,0
12_2_7,65,4122.56,4152.31,4083.08,4095.9,4087.18,4087.18,4081.54,4080.51,4102.56,4162.56,4137.95,4109.23,4128.72,4106.67,0
12_2_7,66,4122.05,4154.36,4084.1,4091.28,4091.28,4090.26,4088.72,4079.49,4099.49,4163.08,4135.9,4107.18,4132.82,4103.59,0
12_2_7,67,4120.51,4154.36,4082.56,4089.23,4090.77,4086.67,4083.08,4075.38,4081.54,4146.15,4122.05,4106.67,4137.44,4100,0
12_2_7,68,4122.56,4155.38,4085.64,4095.38,4090.26,4084.1,4076.92,4072.31,4088.72,4153.85,4121.03,4108.21,4136.92,4104.1,0
12_2_7,69,4125.64,4155.38,4086.67,4096.92,4091.79,4088.21,4084.62,4076.41,4103.08,4171.79,4132.82,4108.72,4138.46,4110.26,0
12_2_7,70,4122.56,4155.38,4082.56,4089.74,4092.31,4089.23,4092.31,4076.41,4091.79,4161.03,4135.9,4106.67,4136.92,4104.62,0
12_2_7,71,4114.87,4152.31,4081.03,4091.28,4084.62,4088.21,4088.72,4075.9,4084.1,4147.69,4126.67,4105.64,4137.44,4096.41,0
12_2_7,72,4108.21,4145.13,4081.03,4092.31,4073.33,4090.26,4081.03,4075.38,4087.18,4147.69,4116.92,4103.08,4144.1,4091.79,0
12_2_7,73,4106.15,4141.03,4080,4086.15,4076.92,4090.26,4078.46,4071.28,4089.74,4152.31,4116.92,4103.08,4154.87,4091.79,0
12_2_7,74,4108.72,4147.18,4084.1,4087.69,4091.28,4089.74,4086.15,4082.05,4092.31,4162.05,4126.67,4105.64,4171.28,4092.31,0
12_2_7,75,4113.33,4153.33,4086.15,4094.36,4094.87,4090.26,4087.69,4090.26,4092.31,4169.23,4126.67,4106.15,4192.82,4095.38,0
12_2_7,76,4118.97,4154.87,4083.59,4092.82,4092.31,4091.28,4087.69,4078.46,4099.49,4171.28,4121.03,4109.74,4208.72,4102.56,0
12_2_7,77,4122.05,4156.92,4085.13,4091.79,4090.26,4093.85,4092.82,4076.41,4101.54,4173.85,4130.77,4120,4219.49,4106.67,0
12_2_7,78,4120,4154.36,4087.18,4093.85,4084.1,4090.77,4085.13,4088.21,4097.44,4167.18,4141.54,4124.62,4226.15,4105.13,0
12_2_7,79,4120.51,4154.87,4086.67,4093.33,4084.62,4090.77,4077.95,4093.33,4107.18,4167.69,4140.51,4124.62,4231.28,4107.69,0
12_2_7,80,4124.1,4158.97,4085.13,4091.79,4094.36,4096.92,4086.67,4090.26,4114.36,4181.03,4140,4129.23,4234.36,4111.79,0
12_2_7,81,4116.92,4152.31,4081.54,4088.21,4094.36,4089.23,4087.69,4083.08,4095.38,4174.36,4133.33,4127.18,4226.15,4102.05,0
12_2_7,82,4106.67,4145.13,4080.51,4083.08,4074.36,4082.05,4080.51,4078.97,4088.72,4156.41,4122.56,4122.05,4214.87,4090.26,0
12_2_7,83,4106.67,4143.59,4082.56,4077.44,4062.56,4088.21,4082.05,4081.54,4111.79,4163.08,4125.64,4120.51,4215.38,4089.74,0
12_2_7,84,4109.23,4142.05,4083.59,4078.97,4079.49,4084.1,4078.46,4078.46,4111.28,4172.31,4130.26,4120,4216.92,4091.28,0
12_2_7,85,4108.21,4144.62,4084.1,4088.72,4090.77,4074.36,4070.26,4074.36,4092.82,4167.69,4132.31,4128.72,4216.92,4091.28,0
12_2_7,86,4108.72,4146.67,4085.64,4093.33,4083.59,4083.08,4076.41,4078.46,4089.23,4164.62,4138.46,4134.87,4216.92,4093.33,0
12_2_7,87,4105.13,4141.03,4085.13,4089.23,4083.08,4093.85,4083.08,4077.95,4100.51,4168.72,4136.41,4129.23,4217.95,4091.79,0
12_2_7,96,4113.85,4151.79,4091.79,4099.49,4088.21,4078.46,4074.87,4078.97,4102.56,4185.13,4148.21,4138.46,4229.74,4104.62,0
12_2_7,97,4121.03,4165.64,4090.26,4109.23,4103.08,4088.21,4080,4084.62,4109.74,4187.18,4144.1,4144.1,4234.36,4109.23,0
12_2_7,98,4123.08,4173.33,4087.69,4106.67,4096.41,4091.79,4083.08,4088.72,4122.05,4189.23,4149.23,4148.21,4234.87,4110.77,0
12_2_7,99,4121.03,4167.18,4089.74,4098.46,4086.67,4088.72,4079.49,4086.15,4118.97,4189.23,4156.41,4150.77,4229.74,4107.18,0
12_2_7,100,4120,4165.64,4089.74,4098.97,4089.23,4083.59,4074.36,4083.59,4105.64,4186.67,4149.74,4148.21,4225.13,4105.64,0
12_2_7,101,4115.9,4169.74,4088.21,4103.08,4087.18,4078.97,4074.36,4084.1,4104.62,4190.26,4141.03,4143.59,4225.13,4107.18,0
12_2_7,102,4113.85,4168.21,4086.15,4105.13,4094.36,4084.1,4076.92,4086.67,4116.92,4199.49,4137.95,4144.62,4227.18,4106.67,0
12_2_7,103,4120,4169.23,4087.18,4108.72,4110.77,4093.85,4081.03,4089.23,4118.46,4200.51,4144.1,4150.77,4227.69,4109.74,0
12_2_7,104,4126.15,4179.49,4093.33,4111.28,4100,4093.85,4086.67,4093.85,4115.38,4198.46,4156.92,4155.38,4230.26,4120,0
12_2_7,105,4129.23,4185.64,4096.41,4111.28,4085.13,4089.74,4087.18,4093.85,4120.51,4204.1,4158.97,4155.38,4233.33,4125.13,0
12_2_7,106,4127.18,4183.59,4093.33,4110.26,4095.38,4092.31,4082.05,4087.18,4113.33,4204.62,4151.79,4155.38,4231.28,4122.56,0
12_2_7,107,4125.13,4181.54,4092.31,4108.21,4102.05,4096.41,4082.05,4085.13,4105.64,4195.9,4151.28,4154.36,4229.74,4122.56,0
12_2_7,108,4128.21,4185.13,4096.41,4109.23,4095.38,4094.87,4087.18,4097.44,4123.08,4198.97,4160,4153.33,4233.33,4126.15,0
12_2_7,109,4129.23,4187.69,4097.95,4116.92,4095.9,4093.33,4085.13,4096.41,4127.18,4200.51,4152.31,4150.77,4234.36,4124.1,0
12_2_7,110,4130.26,4188.21,4096.41,4122.56,4100.51,4095.9,4079.49,4072.82,4098.97,4187.18,4136.41,4149.74,4233.33,4120,0
12_2_7,111,4135.9,4188.72,4096.92,4121.03,4104.62,4095.38,4080,4068.21,4096.92,4186.67,4141.54,4153.85,4237.44,4124.1,0
12_2_7,112,4135.38,4186.67,4097.95,4114.36,4108.21,4091.79,4082.56,4080.51,4121.54,4201.54,4151.28,4155.38,4235.9,4128.72,0
12_2_7,113,4136.41,4188.72,4097.95,4109.74,4103.08,4089.74,4082.56,4085.64,4119.49,4204.1,4152.31,4155.38,4233.33,4127.69,0
12_2_7,114,4138.97,4189.74,4097.95,4108.72,4093.33,4088.72,4078.97,4087.18,4105.13,4200,4151.79,4157.44,4234.87,4125.64,0
12_2_7,115,4127.69,4177.95,4094.87,4105.64,4083.59,4083.59,4074.36,4091.28,4109.74,4196.92,4144.1,4155.38,4231.79,4123.08,0
12_2_7,116,4116.92,4167.18,4090.77,4102.56,4076.92,4076.41,4075.38,4090.77,4120,4186.67,4134.36,4151.28,4226.67,4121.54,0
12_2_7,117,4123.08,4170.77,4089.74,4105.13,4083.08,4079.49,4078.97,4093.33,4124.62,4185.64,4146.15,4155.38,4225.13,4123.59,0
12_2_7,118,4126.15,4172.82,4091.28,4101.54,4096.41,4086.15,4078.97,4093.33,4120.51,4201.54,4155.9,4154.36,4220.51,4119.49,0
12_2_7,119,4110.77,4164.62,4087.18,4093.33,4100,4084.62,4074.36,4084.1,4115.9,4201.03,4141.03,4138.46,4210.77,4106.15,0
12_2_7,120,4104.62,4163.59,4087.69,4093.33,4094.87,4080.51,4072.31,4089.23,4116.41,4186.15,4136.92,4135.38,4209.23,4101.03,0
12_2_7,121,4116.41,4169.74,4095.9,4094.87,4087.18,4080.51,4080,4105.64,4114.87,4191.28,4150.26,4150.77,4213.85,4111.79,0
12_2_7,122,4123.08,4170.26,4100.51,4097.95,4085.64,4084.1,4090.26,4109.23,4112.31,4204.1,4162.56,4157.95,4219.49,4122.05,0
12_2_7,123,4121.54,4171.28,4098.97,4102.56,4094.87,4087.69,4093.85,4107.18,4121.54,4195.38,4165.64,4156.92,4224.62,4125.13,0
12_2_7,124,4122.05,4173.33,4097.44,4100.51,4095.9,4090.77,4088.21,4105.64,4128.21,4184.1,4159.49,4157.44,4222.56,4124.62,0
12_2_7,125,4122.05,4170.77,4096.41,4098.46,4088.72,4090.77,4084.62,4095.38,4119.49,4192.31,4149.74,4153.85,4218.46,4121.03,0
12_2_7,126,4122.05,4175.38,4095.9,4107.18,4089.23,4087.18,4085.64,4089.23,4116.41,4204.1,4152.82,4154.36,4217.44,4121.03,0
12_2_7,127,4124.62,4182.56,4096.41,4110.77,4095.38,4085.13,4084.1,4090.26,4119.49,4198.46,4158.97,4161.03,4215.9,4124.62,0
12_2_7,128,4124.1,4176.41,4095.38,4105.13,4102.56,4089.23,4084.1,4088.21,4121.54,4187.18,4154.36,4158.46,4213.85,4125.64,0
12_2_7,0,4123.59,4169.74,4096.41,4106.15,4109.74,4098.46,4090.26,4091.28,4127.69,4187.69,4150.77,4153.85,4216.41,4122.05,0
12_2_7,1,4124.1,4173.33,4096.41,4108.72,4104.1,4098.46,4095.38,4096.92,4122.56,4189.23,4148.72,4154.87,4211.79,4121.54,0
12_2_7,2,4121.54,4172.82,4094.87,4103.59,4093.33,4084.1,4085.64,4089.23,4105.13,4183.08,4144.62,4153.33,4200.51,4119.49,0
12_2_7,3,4123.59,4170.26,4095.9,4102.56,4088.72,4075.38,4079.49,4093.33,4109.23,4189.23,4149.23,4156.92,4204.1,4122.05,0
12_2_7,4,4127.69,4173.33,4100.51,4106.67,4081.54,4084.1,4086.15,4109.74,4131.28,4200.51,4166.67,4169.74,4216.41,4133.85,0
12_2_7,5,4125.64,4174.36,4100,4106.15,4084.1,4090.26,4089.23,4100,4123.59,4194.87,4172.31,4169.23,4217.44,4135.9,0
12_2_7,6,4122.05,4171.28,4095.38,4098.46,4098.97,4081.54,4082.05,4081.03,4101.03,4183.59,4155.38,4154.36,4206.15,4123.59,0
12_2_7,7,4120.51,4165.64,4093.33,4095.9,4105.13,4075.9,4073.33,4082.05,4100,4177.44,4147.18,4148.72,4200,4117.95,0
12_2_7,8,4122.56,4173.33,4096.92,4103.59,4098.46,4082.56,4076.92,4098.97,4124.62,4186.67,4162.56,4155.38,4206.15,4124.1,0
12_2_7,9,4128.21,4185.64,4100.51,4108.21,4093.85,4091.28,4083.08,4107.18,4132.82,4198.46,4170.26,4155.9,4209.23,4127.69,0
12_2_7,10,4126.15,4176.41,4096.92,4099.49,4091.28,4092.31,4083.59,4103.08,4117.95,4193.85,4162.05,4145.13,4203.08,4121.54,0
12_2_7,11,4112.31,4165.13,4088.72,4090.77,4089.23,4084.1,4086.67,4097.95,4113.85,4185.64,4157.44,4137.95,4198.97,4112.31,0
12_2_7,12,4106.67,4166.67,4089.74,4089.74,4091.28,4081.03,4090.26,4097.44,4113.85,4187.18,4156.92,4140.51,4197.95,4108.21,0
12_2_7,13,4118.46,4167.18,4098.46,4091.79,4096.92,4087.18,4087.69,4106.15,4116.41,4187.69,4162.56,4152.31,4201.54,4117.44,0
12_2_7,14,4129.74,4174.36,4100.51,4100,4096.92,4091.79,4085.13,4106.67,4124.1,4189.23,4173.33,4165.64,4209.74,4134.36,0
12_2_7,15,4127.69,4181.54,4097.95,4105.64,4085.64,4088.21,4084.1,4093.85,4120.51,4186.67,4172.31,4163.59,4206.15,4134.87,0
12_2_7,16,4121.03,4172.82,4096.92,4099.49,4085.13,4082.05,4082.56,4090.77,4112.31,4180,4167.18,4154.87,4197.44,4123.08,0
12_2_7,17,4121.54,4168.21,4096.92,4094.87,4105.13,4085.64,4088.21,4104.1,4122.56,4192.31,4177.95,4157.95,4205.13,4123.08,0
12_2_7,18,4123.59,4174.87,4095.9,4097.44,4113.33,4092.82,4094.36,4106.15,4125.13,4203.08,4183.08,4159.49,4210.77,4127.69,0
12_2_7,19,4123.08,4173.85,4095.9,4097.95,4102.56,4090.77,4088.72,4089.74,4107.69,4184.62,4173.85,4151.79,4202.05,4123.08,0
12_2_7,20,4120,4168.21,4093.85,4096.41,4092.82,4084.1,4082.05,4084.62,4114.36,4179.49,4172.31,4152.31,4200,4121.03,0
12_2_7,21,4112.31,4166.15,4090.77,4091.79,4088.21,4080,4076.41,4085.13,4121.54,4194.87,4170.77,4151.79,4201.54,4121.03,0
12_2_7,22,4107.69,4168.21,4089.74,4091.79,4096.41,4082.05,4077.44,4087.69,4109.23,4193.85,4166.15,4139.49,4194.87,4113.85,0
12_2_7,23,4114.36,4169.74,4092.31,4102.56,4106.67,4088.72,4087.69,4097.44,4106.67,4181.03,4167.18,4138.46,4193.85,4113.33,0
12_2_7,24,4123.59,4167.18,4095.38,4104.62,4101.03,4089.74,4088.72,4100,4118.97,4181.54,4169.74,4148.72,4200,4120.51,0
12_2_7,25,4124.1,4169.23,4097.95,4094.87,4095.38,4092.31,4085.64,4103.59,4129.74,4196.41,4176.92,4155.9,4205.64,4125.13,0
12_2_7,26,4114.87,4167.69,4094.36,4090.77,4094.36,4093.85,4089.23,4111.28,4125.13,4198.46,4182.56,4151.79,4206.15,4121.03,0
12_2_7,27,4104.1,4153.33,4087.69,4089.23,4089.23,4081.03,4086.15,4098.97,4110.26,4181.54,4173.33,4138.97,4196.92,4108.72,0
12_2_8,28,4105.13,4150.77,4088.72,4089.23,4093.33,4074.87,4077.95,4074.87,4101.03,4181.03,4162.56,4131.79,4189.23,4102.05,0
12_2_8,29,4117.95,4168.21,4096.92,4098.97,4107.69,4090.77,4083.08,4077.95,4112.31,4194.87,4169.74,4142.05,4197.44,4114.87,0
12_2_8,30,4132.82,4178.46,4100.51,4108.72,4112.82,4098.97,4091.79,4105.13,4124.62,4193.85,4183.59,4153.85,4208.21,4128.21,0
12_2_8,31,4136.92,4175.9,4099.49,4107.18,4106.67,4091.28,4092.31,4107.69,4115.38,4184.62,4180,4154.36,4209.23,4126.67,0
12_2_8,32,4131.28,4174.87,4101.03,4105.13,4095.9,4091.28,4091.79,4096.41,4102.56,4178.46,4172.82,4155.38,4209.74,4129.74,0
12_2_8,33,4128.21,4175.38,4100.51,4106.67,4096.41,4095.38,4090.77,4098.46,4111.79,4177.95,4179.49,4158.46,4208.72,4135.38,0
12_2_8,34,4128.21,4173.85,4096.41,4106.15,4107.69,4091.79,4088.72,4110.26,4125.64,4185.13,4192.31,4156.92,4202.05,4126.67,0
12_2_8,35,4124.62,4169.23,4094.87,4103.08,4106.67,4087.69,4087.69,4109.23,4114.87,4186.67,4196.92,4155.38,4198.46,4119.49,0
12_2_8,36,4122.05,4165.64,4097.44,4103.08,4094.36,4089.23,4089.23,4091.79,4102.56,4187.69,4195.9,4155.9,4199.49,4129.23,0
12_2_8,37,4124.62,4168.21,4098.46,4106.67,4091.28,4093.33,4092.31,4090.77,4113.33,4200.51,4191.79,4155.9,4201.03,4135.38,0
12_2_8,38,4129.23,4169.23,4097.95,4107.69,4098.97,4092.82,4091.79,4107.69,4128.21,4209.23,4184.62,4155.38,4207.18,4131.79,0
12_2_8,39,4135.38,4168.72,4097.95,4105.64,4107.69,4087.18,4089.23,4112.31,4125.64,4197.95,4187.69,4156.92,4211.28,4130.77,0
12_2_8,40,4136.92,4170.26,4098.46,4109.23,4109.23,4087.69,4089.74,4096.41,4108.21,4184.1,4192.31,4161.54,4207.69,4133.33,0
12_2_8,41,4137.95,4175.9,4101.03,4113.85,4106.67,4100,4093.85,4091.79,4107.18,4190.26,4196.41,4167.69,4209.74,4138.46,0
12_2_8,42,4145.64,4181.03,4106.15,4113.33,4107.69,4106.67,4097.44,4109.23,4124.62,4203.08,4200,4172.31,4217.44,4141.54,0
12_2_8,43,4145.64,4178.46,4106.15,4112.82,4104.62,4098.97,4096.41,4109.23,4118.97,4194.87,4195.38,4172.31,4211.79,4140.51,0
12_2_8,44,4130.77,4165.13,4101.54,4109.74,4097.44,4090.26,4090.26,4092.82,4101.03,4178.46,4185.13,4163.59,4198.46,4137.95,0
12_2_8,45,4120,4151.79,4097.95,4101.54,4099.49,4091.79,4089.74,4095.9,4109.74,4185.13,4184.1,4153.33,4196.41,4135.38,0
12_2_8,46,4125.64,4157.44,4099.49,4101.03,4108.72,4099.49,4094.36,4108.72,4126.15,4190.26,4193.33,4158.97,4201.03,4132.82,0
12_2_8,47,4137.44,4172.82,4100.51,4109.23,4111.28,4102.05,4092.82,4102.56,4123.59,4184.62,4200.51,4168.72,4204.1,4138.46,0
12_2_8,48,4141.03,4170.77,4098.46,4111.79,4100,4097.44,4089.74,4092.82,4114.87,4189.74,4198.97,4162.56,4203.59,4145.64,0
12_2_8,49,4133.33,4154.87,4093.33,4103.08,4090.26,4090.77,4089.74,4091.28,4106.15,4190.77,4185.64,4152.31,4193.33,4135.38,0
12_2_8,50,4124.1,4149.74,4092.31,4092.82,4089.74,4090.26,4092.82,4091.79,4103.08,4173.33,4171.79,4152.31,4178.97,4121.03,0
12_2_8,51,4120,4151.28,4096.41,4091.79,4093.33,4092.82,4093.85,4094.87,4108.72,4166.67,4169.74,4150.26,4181.03,4120.51,0
12_2_8,52,4119.49,4146.67,4095.38,4094.36,4094.36,4089.23,4086.67,4085.13,4106.15,4171.28,4167.69,4141.03,4199.49,4120,0
12_2_8,53,4117.44,4141.03,4092.82,4091.28,4087.69,4080.51,4076.92,4066.15,4087.69,4156.92,4160,4134.36,4217.95,4108.72,0
12_2_8,54,4112.31,4139.49,4093.85,4088.21,4083.59,4073.85,4075.9,4070.77,4084.1,4147.69,4161.54,4136.41,4232.82,4105.13,0
12_2_8,55,4113.85,4143.08,4093.85,4090.26,4088.72,4077.95,4080.51,4089.74,4111.28,4176.41,4177.95,4141.54,4251.79,4115.9,0
12_2_8,56,4117.44,4150.26,4090.26,4091.79,4094.36,4088.72,4086.67,4093.85,4121.03,4195.38,4188.21,4142.05,4266.15,4117.95,0
12_2_8,57,4112.31,4152.82,4088.72,4089.23,4091.28,4090.77,4086.15,4090.77,4106.15,4184.62,4184.62,4140.51,4267.69,4110.26,0
12_2_8,58,4106.15,4148.21,4090.26,4085.64,4094.36,4087.69,4081.03,4092.31,4108.72,4185.64,4176.92,4140,4266.67,4108.21,0
12_2_8,59,4107.18,4142.56,4090.77,4087.18,4100.51,4089.23,4080.51,4087.18,4108.72,4184.62,4172.31,4136.41,4263.59,4106.15,0
12_2_8,60,4106.67,4138.97,4090.26,4089.23,4094.87,4086.15,4081.54,4081.54,4095.38,4166.67,4172.82,4133.85,4260,4096.41,0
12_2_8,61,4107.69,4141.03,4089.74,4087.18,4087.69,4078.46,4076.92,4086.67,4103.08,4171.28,4175.9,4136.92,4261.54,4092.82,0
12_2_8,62,4117.95,4146.15,4088.72,4087.69,4089.74,4085.13,4075.9,4090.77,4114.87,4187.18,4182.05,4140.51,4260,4103.08,0
12_2_8,63,4124.62,4146.15,4087.18,4092.82,4090.77,4092.82,4081.54,4087.69,4108.72,4179.49,4183.08,4142.05,4255.38,4109.23,0
12_2_8,64,4122.56,4144.62,4086.15,4093.33,4089.23,4084.62,4082.05,4089.74,4114.87,4180,4182.56,4143.59,4256.41,4103.08,0
12_2_8,65,4114.36,4143.08,4086.15,4089.23,4094.87,4081.54,4079.49,4091.79,4127.18,4198.46,4183.59,4139.49,4255.9,4100.51,0
12_2_8,66,4112.31,4140.51,4084.1,4089.23,4094.36,4088.72,4080,4087.18,4116.41,4189.74,4181.03,4137.95,4249.23,4104.1,0
12_2_8,67,4118.46,4140.51,4086.15,4091.79,4088.72,4087.69,4078.97,4087.18,4105.13,4173.33,4177.44,4147.18,4245.13,4105.64,0
12_2_8,68,4124.1,4144.1,4092.82,4093.33,4093.85,4082.05,4078.97,4091.79,4107.18,4182.56,4181.03,4151.79,4245.64,4104.62,0
12_2_8,69,4121.03,4144.1,4091.79,4092.31,4094.87,4080,4079.49,4086.67,4110.26,4190.26,4184.1,4145.13,4248.72,4106.15,0
12_2_8,70,4115.38,4137.95,4085.64,4089.74,4088.21,4078.46,4075.9,4075.9,4109.74,4183.08,4176.41,4138.97,4248.72,4105.13,0
12_2_8,71,4116.41,4139.49,4085.13,4089.74,4095.38,4082.56,4076.41,4080.51,4114.36,4184.1,4172.31,4145.13,4247.69,4103.59,0
12_2_8,72,4123.08,4149.23,4091.28,4098.97,4107.69,4092.82,4087.18,4098.46,4120,4190.77,4179.49,4152.82,4254.36,4108.21,0
12_2_8,73,4127.69,4156.92,4098.46,4106.67,4107.18,4095.9,4095.38,4108.72,4126.15,4197.95,4188.21,4159.49,4266.67,4117.44,0
12_2_8,74,4126.67,4156.92,4096.92,4101.54,4095.9,4092.31,4093.33,4107.18,4130.77,4207.69,4191.28,4165.13,4267.69,4123.59,0
12_2_8,75,4124.62,4154.87,4088.72,4093.85,4089.23,4091.28,4088.72,4104.62,4126.15,4207.69,4188.21,4158.97,4256.41,4116.92,0
12_2_8,76,4125.64,4154.87,4092.31,4094.36,4098.46,4094.36,4091.28,4106.15,4131.28,4205.64,4184.62,4152.31,4249.74,4113.85,0
12_2_8,77,4125.13,4152.31,4098.97,4093.33,4104.62,4090.77,4091.28,4107.69,4134.87,4208.72,4184.1,4154.87,4252.31,4115.9,0
12_2_8,78,4123.08,4150.26,4093.85,4090.26,4096.41,4081.54,4083.08,4105.64,4122.56,4205.13,4186.15,4154.36,4250.77,4109.74,0
12_2_8,79,4125.13,4152.82,4088.72,4095.38,4090.77,4082.56,4082.56,4107.18,4127.18,4193.85,4189.23,4151.79,4247.69,4111.28,0
12_2_8,80,4129.74,4153.33,4093.33,4096.92,4092.82,4091.28,4091.79,4111.79,4136.41,4194.36,4190.26,4156.92,4247.69,4121.54,0
12_2_8,81,4125.64,4150.77,4095.38,4092.31,4094.36,4095.9,4094.87,4111.79,4130.26,4211.28,4188.72,4161.03,4241.03,4117.44,0
12_2_8,82,4121.54,4151.79,4092.82,4093.85,4096.41,4093.33,4091.79,4109.23,4130.26,4217.44,4186.67,4156.92,4232.82,4107.18,0
12_2_8,83,4123.08,4153.85,4094.36,4098.97,4097.44,4089.23,4087.69,4101.54,4129.74,4199.49,4180,4150.26,4226.67,4106.67,0
12_2_8,84,4122.05,4150.77,4096.41,4097.95,4095.38,4086.15,4085.64,4096.92,4120.51,4186.67,4170.26,4146.15,4216.41,4105.13,0
12_2_8,85,4127.69,4151.28,4098.46,4095.9,4094.87,4089.74,4088.72,4107.69,4129.23,4195.9,4176.41,4152.31,4220.51,4111.79,0
12_2_8,86,4134.87,4153.85,4098.97,4097.95,4090.77,4095.9,4092.82,4116.41,4136.92,4203.59,4189.74,4162.56,4234.87,4126.15,0
12_2_8,87,4127.18,4148.21,4094.87,4094.36,4089.74,4094.87,4092.31,4108.21,4123.08,4196.92,4184.1,4155.38,4227.69,4120,0
12_2_8,88,4114.87,4137.44,4089.23,4085.13,4092.31,4088.21,4088.21,4102.56,4120.51,4190.26,4167.18,4136.92,4210.26,4102.56,0
12_2_8,89,4118.46,4135.9,4091.79,4083.08,4092.31,4086.67,4085.13,4106.67,4129.23,4196.41,4165.64,4137.95,4212.31,4102.56,0
12_2_8,90,4127.69,4147.69,4097.44,4093.33,4092.31,4091.79,4087.69,4106.67,4124.1,4200.51,4179.49,4153.33,4222.05,4117.44,0
12_2_8,91,4126.15,4153.85,4096.41,4098.46,4091.79,4094.87,4092.31,4106.15,4119.49,4188.21,4188.21,4155.38,4217.95,4122.56,0
12_2_8,92,4122.56,4151.79,4096.41,4095.9,4093.33,4091.79,4090.77,4106.67,4125.64,4182.56,4183.08,4148.72,4212.82,4118.97,0
12_2_8,93,4124.1,4155.9,4101.03,4099.49,4097.44,4090.77,4090.77,4111.28,4129.23,4190.26,4183.08,4152.82,4214.87,4121.54,0
12_2_8,94,4123.08,4149.23,4098.46,4097.44,4095.38,4093.85,4091.79,4115.9,4120,4187.18,4185.64,4155.9,4208.72,4118.97,0
12_2_8,95,4118.97,4136.41,4094.36,4088.72,4088.21,4093.85,4089.23,4110.77,4122.05,4186.67,4177.95,4150.26,4198.46,4112.31,0
12_2_8,96,4122.05,4143.08,4095.38,4091.28,4088.72,4090.26,4090.26,4102.56,4131.28,4196.92,4172.82,4150.26,4202.05,4117.44,0
12_2_8,97,4125.64,4152.31,4097.44,4094.87,4096.92,4088.21,4089.23,4097.44,4117.95,4189.74,4174.36,4151.28,4200.51,4120,0
12_2_8,98,4125.64,4146.15,4100,4092.82,4100.51,4090.26,4083.59,4092.31,4109.23,4181.03,4177.44,4151.79,4193.33,4115.38,0
12_2_8,99,4126.15,4142.05,4102.05,4091.79,4093.85,4088.72,4080.51,4093.85,4118.97,4185.13,4183.08,4153.33,4196.92,4120.51,0
12_2_8,100,4122.56,4141.03,4098.46,4090.77,4089.74,4082.05,4084.1,4107.18,4125.64,4185.13,4187.18,4154.36,4195.9,4121.03,0
12_2_8,101,4121.03,4138.97,4095.9,4090.26,4092.31,4079.49,4085.13,4111.79,4127.69,4186.15,4182.05,4152.31,4187.69,4112.82,0
12_2_8,102,4124.62,4142.56,4097.95,4091.79,4090.77,4082.56,4080,4100.51,4124.62,4188.21,4174.87,4146.15,4183.08,4113.33,0
12_2_8,103,4118.97,4143.08,4097.95,4091.28,4090.26,4088.21,4082.56,4093.33,4114.36,4174.36,4165.13,4138.46,4175.38,4109.23,0
12_2_8,104,4106.15,4135.9,4095.9,4089.23,4090.77,4090.26,4090.26,4093.33,4107.69,4163.59,4152.31,4135.38,4164.1,4095.9,0
12_2_8,105,4109.23,4135.38,4097.95,4090.26,4091.28,4085.64,4087.69,4092.31,4108.72,4167.69,4155.9,4137.44,4165.13,4100.51,0
12_2_8,106,4124.1,4143.59,4100.51,4093.33,4097.44,4081.54,4078.46,4090.77,4110.26,4168.21,4168.21,4143.08,4172.31,4109.74,0
12_2_8,107,4126.15,4146.67,4098.46,4094.87,4094.87,4084.1,4076.92,4089.74,4121.03,4175.38,4170.26,4151.28,4173.33,4108.72,0
12_2_8,108,4120.51,4140.51,4097.44,4095.38,4085.64,4083.08,4083.08,4092.31,4124.1,4184.62,4169.74,4154.36,4170.26,4112.31,0
12_2_8,109,4122.56,4134.87,4097.44,4094.87,4089.74,4075.38,4085.13,4095.9,4108.21,4176.41,4169.23,4148.72,4169.74,4116.41,0
12_2_8,110,4121.54,4139.49,4096.92,4093.85,4095.9,4074.36,4078.97,4093.85,4104.62,4171.28,4162.56,4140,4168.72,4111.28,0
12_2_8,111,4109.23,4135.9,4092.31,4088.72,4086.67,4078.97,4073.85,4092.31,4113.33,4174.36,4150.77,4129.23,4152.31,4101.03,0
12_2_8,112,4103.08,4126.15,4090.26,4081.54,4075.9,4078.46,4076.41,4089.23,4110.77,4157.44,4142.05,4124.1,4136.92,4095.9,0
12_2_8,113,4110.26,4128.72,4093.85,4084.1,4080,4073.85,4074.87,4075.9,4110.26,4146.15,4148.72,4131.28,4141.54,4100,0
12_2_8,114,4119.49,4137.44,4100.51,4093.33,4091.28,4073.33,4067.69,4071.79,4116.92,4166.15,4163.08,4144.1,4151.28,4112.82,0
12_2_8,115,4126.67,4141.54,4104.62,4100,4093.33,4079.49,4071.28,4085.64,4111.28,4178.97,4164.62,4152.82,4157.44,4123.59,0
12_2_8,116,4129.74,4139.49,4103.59,4099.49,4089.74,4088.72,4080,4093.85,4107.18,4171.79,4157.95,4156.41,4156.92,4123.59,0
12_2_8,117,4118.46,4136.41,4098.97,4094.36,4096.92,4091.79,4080.51,4095.38,4116.41,4168.21,4156.41,4149.74,4144.62,4114.36,0
12_2_8,118,4111.28,4135.38,4094.87,4092.31,4094.87,4088.72,4085.64,4104.1,4121.03,4169.23,4154.36,4138.46,4137.44,4105.13,0
12_2_8,119,4114.87,4136.92,4095.38,4094.36,4083.59,4089.23,4095.38,4112.31,4128.72,4169.23,4154.87,4137.44,4142.05,4106.15,0
12_2_8,120,4113.33,4135.38,4098.46,4094.87,4096.41,4096.92,4095.9,4108.21,4132.31,4168.72,4156.41,4138.97,4142.56,4109.23,0
12_2_8,121,4106.67,4129.74,4096.92,4090.77,4108.21,4097.95,4090.26,4098.46,4111.79,4165.64,4151.79,4134.36,4135.9,4104.62,0
12_2_8,122,4106.67,4126.67,4096.41,4089.23,4097.44,4092.82,4086.67,4091.79,4103.08,4166.67,4151.79,4135.9,4136.92,4104.62,0
12_2_8,123,4114.87,4131.28,4098.97,4091.28,4093.85,4088.72,4083.08,4086.67,4111.79,4170.26,4155.9,4139.49,4141.03,4109.23,0
12_2_8,124,4121.03,4138.46,4098.97,4096.92,4097.95,4083.59,4078.97,4085.64,4113.85,4170.26,4156.41,4137.95,4141.54,4112.31,0
12_2_8,125,4120,4134.87,4097.95,4100.51,4092.31,4082.05,4081.03,4098.46,4119.49,4172.82,4157.44,4144.62,4143.08,4113.85,0
12_2_8,126,4114.87,4125.64,4100,4093.85,4089.74,4083.08,4087.69,4111.28,4124.62,4165.13,4156.41,4153.33,4141.54,4115.38,0
12_2_8,127,4107.18,4117.95,4097.44,4087.18,4090.26,4076.41,4090.77,4102.56,4113.33,4152.82,4143.08,4141.54,4127.69,4105.64,0
12_2_8,128,4099.49,4111.28,4092.31,4088.72,4084.62,4074.36,4090.26,4093.33,4104.1,4151.28,4126.67,4122.05,4110.77,4089.23,0
12_2_8,0,4098.97,4114.36,4092.82,4089.23,4082.56,4087.18,4088.72,4098.46,4108.72,4151.79,4126.15,4123.08,4111.28,4090.77,0
12_2_8,1,4107.18,4124.62,4094.36,4090.26,4088.21,4091.28,4083.59,4096.92,4114.36,4152.31,4136.92,4134.87,4122.56,4104.1,0
12_2_8,2,4113.33,4127.69,4094.36,4092.82,4100.51,4080,4075.38,4087.69,4113.33,4156.92,4140,4137.95,4130.77,4106.15,0
12_2_8,3,4117.95,4130.77,4095.38,4094.87,4102.05,4077.95,4074.36,4085.64,4102.05,4155.9,4139.49,4136.92,4136.41,4107.69,0
12_2_8,4,4125.13,4138.97,4100.51,4102.56,4095.38,4086.67,4080,4093.85,4104.62,4156.92,4147.69,4141.03,4142.56,4121.03,0
12_2_8,5,4129.23,4141.03,4103.08,4105.64,4100.51,4089.74,4082.56,4105.64,4127.69,4173.85,4156.41,4145.64,4146.15,4129.23,0
12_2_8,6,4130.26,4141.54,4101.54,4101.54,4103.08,4088.21,4084.62,4112.31,4127.18,4177.44,4156.41,4146.67,4148.21,4127.18,0
12_2_8,7,4124.1,4138.46,4100,4099.49,4091.79,4091.79,4091.28,4105.64,4106.15,4157.44,4150.26,4141.54,4141.03,4122.05,0
12_2_8,8,4110.26,4125.13,4100.51,4093.85,4093.85,4095.9,4096.92,4089.23,4101.54,4145.64,4137.44,4128.72,4127.18,4109.74,0
12_2_8,9,4108.72,4124.1,4101.03,4089.23,4107.69,4095.9,4094.36,4082.56,4105.64,4151.28,4132.31,4122.05,4127.69,4102.05,0
12_2_8,10,4118.46,4136.41,4099.49,4098.97,4103.59,4092.82,4090.77,4089.23,4108.21,4154.36,4145.64,4126.15,4137.44,4105.64,0
12_2_8,11,4121.03,4141.54,4097.95,4107.18,4103.59,4092.31,4090.77,4090.77,4116.92,4152.82,4150.26,4130.26,4140,4107.69,0
12_2_8,12,4118.46,4140,4098.97,4104.1,4109.23,4094.36,4090.77,4091.28,4122.05,4161.54,4143.08,4132.82,4140,4107.18,0
12_2_8,13,4121.54,4140,4101.54,4103.08,4100,4095.9,4090.26,4102.05,4115.38,4168.21,4145.13,4136.92,4137.95,4111.79,0
12_2_8,14,4121.54,4140.51,4100,4104.62,4096.92,4095.9,4089.74,4104.62,4112.82,4160.51,4148.72,4140.51,4128.21,4111.79,0
12_2_8,15,4111.79,4137.44,4099.49,4104.1,4106.67,4092.31,4090.77,4100,4112.31,4152.31,4145.64,4134.87,4121.03,4104.62,0
12_2_8,16,4107.18,4131.28,4101.03,4098.46,4107.69,4091.28,4094.36,4104.62,4110.77,4152.31,4140.51,4126.15,4123.08,4102.56,0
12_2_8,17,4112.82,4128.72,4100.51,4093.85,4103.59,4096.41,4096.92,4108.21,4116.92,4152.82,4137.95,4128.72,4120.51,4103.59,0
12_2_8,18,4122.05,4137.95,4102.56,4101.03,4107.18,4104.1,4098.97,4106.15,4118.46,4153.85,4137.95,4138.97,4123.59,4109.74,0
12_2_8,19,4125.13,4144.62,4107.18,4109.74,4107.69,4101.03,4097.95,4109.74,4113.33,4158.46,4140,4141.54,4133.85,4115.9,0
12_2_8,20,4119.49,4140,4102.56,4105.64,4102.56,4091.28,4092.82,4108.21,4111.79,4158.46,4141.54,4138.46,4132.82,4113.33,0
12_2_8,21,4113.85,4135.9,4099.49,4098.97,4105.13,4096.41,4089.23,4098.97,4114.36,4156.92,4135.9,4133.85,4121.54,4108.21,0
12_2_8,22,4107.69,4131.28,4102.05,4094.87,4111.28,4109.74,4092.82,4101.03,4116.92,4150.26,4127.18,4126.15,4114.87,4103.59,0
12_2_9,23,4100,4124.1,4099.49,4089.74,4102.05,4108.72,4093.85,4100,4106.67,4136.41,4120,4118.46,4107.18,4092.82,0
12_2_9,24,4098.97,4120.51,4095.9,4089.23,4087.69,4095.38,4088.72,4086.67,4095.38,4129.74,4117.44,4115.38,4099.49,4088.21,0
12_2_9,25,4106.67,4123.08,4104.1,4091.28,4096.92,4089.23,4090.26,4093.85,4109.23,4139.49,4125.13,4125.64,4108.72,4102.05,0
12_2_9,26,4113.33,4127.18,4110.26,4091.79,4112.31,4092.31,4091.79,4109.74,4125.13,4146.67,4136.92,4136.92,4123.08,4111.28,0
12_2_9,27,4107.18,4124.62,4101.54,4089.23,4102.05,4090.26,4082.05,4096.41,4107.69,4138.97,4131.79,4127.69,4114.87,4102.56,0
12_2_9,28,4101.03,4118.97,4094.87,4088.21,4094.87,4087.18,4077.95,4089.23,4100,4138.97,4122.05,4116.92,4102.56,4098.46,0
12_2_9,29,4111.79,4123.08,4101.54,4091.28,4106.15,4093.33,4090.26,4109.74,4125.13,4154.36,4131.28,4128.21,4112.31,4106.67,0
12_2_9,30,4123.08,4131.79,4104.62,4095.9,4107.69,4101.03,4097.44,4112.82,4129.23,4160.51,4140.51,4141.03,4125.13,4113.85,0
12_2_9,31,4117.44,4129.74,4102.56,4097.95,4100,4101.03,4093.85,4096.41,4107.69,4148.72,4134.87,4136.41,4120,4112.31,0
12_2_9,32,4108.21,4122.56,4103.59,4094.36,4103.59,4096.41,4093.33,4093.85,4101.03,4137.44,4127.69,4125.64,4109.23,4106.67,0
12_2_9,33,4109.23,4123.08,4103.59,4090.26,4109.74,4092.31,4093.33,4103.08,4109.23,4140.51,4124.1,4124.1,4106.67,4106.15,0
12_2_9,34,4110.77,4125.64,4103.59,4093.33,4100.51,4092.31,4089.23,4107.18,4118.46,4152.82,4127.69,4135.9,4108.21,4108.72,0
12_2_9,35,4111.79,4124.62,4106.15,4097.44,4092.31,4100,4089.23,4100,4120.51,4154.36,4134.87,4142.05,4108.21,4111.28,0
12_2_9,36,4120,4124.62,4108.21,4098.97,4106.67,4107.18,4092.31,4093.85,4109.23,4141.03,4140,4140.51,4113.33,4116.92,0
12_2_9,37,4121.03,4125.64,4103.08,4097.95,4122.56,4106.15,4092.82,4095.38,4098.46,4137.44,4136.92,4138.46,4120.51,4117.44,0
12_2_9,38,4111.28,4123.08,4101.03,4095.38,4112.31,4099.49,4092.82,4098.97,4104.1,4141.03,4126.15,4132.82,4125.64,4109.23,0
12_2_9,39,4106.15,4121.03,4100.51,4093.85,4095.9,4094.36,4092.82,4105.13,4110.77,4134.87,4121.03,4130.26,4139.49,4105.13,0
12_2_9,40,4108.21,4122.05,4099.49,4097.95,4100.51,4091.79,4091.28,4107.69,4107.69,4138.46,4124.62,4134.87,4164.1,4106.67,0
12_2_9,41,4108.72,4124.1,4101.03,4099.49,4108.21,4093.33,4091.79,4100.51,4106.15,4155.9,4128.21,4137.95,4182.56,4107.18,0
12_2_9,42,4108.72,4124.1,4101.03,4092.82,4104.62,4093.85,4093.33,4091.28,4107.18,4152.82,4128.72,4138.97,4192.82,4107.18,0
12_2_9,43,4103.08,4116.92,4098.46,4088.21,4103.08,4092.82,4089.23,4080,4104.62,4137.95,4117.95,4132.82,4200,4100.51,0
12_2_9,44,4092.31,4113.33,4097.95,4089.74,4103.59,4095.38,4086.15,4073.85,4094.36,4135.9,4108.21,4121.03,4201.03,4090.26,0
12_2_9,45,4097.95,4119.49,4100.51,4092.82,4097.95,4100.51,4092.82,4086.15,4092.31,4137.44,4116.41,4124.62,4202.56,4097.44,0
12_2_9,46,4109.23,4127.18,4101.54,4095.38,4100,4095.38,4091.28,4095.38,4101.54,4140,4125.13,4137.44,4209.74,4108.21,0
12_2_9,47,4105.13,4131.28,4100.51,4099.49,4106.67,4084.1,4078.46,4089.74,4109.23,4150.26,4128.72,4138.97,4214.36,4106.67,0
12_2_9,48,4109.74,4133.85,4102.05,4105.13,4102.05,4085.13,4080.51,4090.77,4114.36,4156.92,4137.95,4138.97,4214.36,4108.72,0
12_2_9,49,4123.08,4138.97,4103.08,4109.74,4101.54,4094.87,4091.79,4096.92,4111.79,4156.92,4142.05,4143.08,4215.9,4114.36,0
12_2_9,50,4115.38,4138.97,4101.54,4107.18,4109.23,4100.51,4093.33,4093.85,4103.59,4151.28,4135.9,4138.46,4212.31,4109.23,0
12_2_9,51,4098.97,4129.23,4096.41,4100,4108.21,4103.08,4091.28,4091.28,4104.1,4140,4132.82,4126.15,4202.56,4100,0
12_2_9,52,4100.51,4119.49,4094.36,4097.95,4105.64,4107.69,4093.85,4091.28,4111.28,4139.49,4129.74,4124.1,4198.46,4099.49,0
12_2_9,53,4107.69,4123.08,4098.97,4104.1,4109.23,4110.77,4094.87,4090.77,4115.9,4149.74,4127.69,4133.85,4198.46,4105.64,0
12_2_9,54,4109.23,4133.33,4101.54,4110.26,4111.79,4107.69,4092.82,4100.51,4121.03,4155.38,4135.9,4141.54,4200,4111.79,0
12_2_9,55,4109.23,4132.31,4099.49,4109.23,4108.72,4098.46,4086.67,4104.62,4114.36,4149.23,4141.03,4139.49,4202.56,4111.28,0
12_2_9,56,4102.05,4124.1,4095.9,4102.05,4102.05,4092.82,4082.56,4090.77,4105.13,4138.97,4135.38,4131.79,4195.9,4103.59,0
12_2_9,57,4091.79,4119.49,4096.92,4096.41,4104.1,4092.31,4089.23,4086.67,4117.95,4140.51,4126.67,4128.21,4189.23,4097.44,0
12_2_9,58,4090.26,4115.38,4094.87,4095.38,4105.13,4092.31,4089.74,4092.31,4115.9,4138.97,4123.08,4126.67,4187.69,4093.85,0
12_2_9,59,4089.23,4106.67,4090.26,4090.26,4092.31,4091.79,4082.05,4082.05,4096.41,4126.67,4119.49,4122.56,4176.41,4087.69,0
12_2_9,60,4088.21,4110.77,4092.82,4091.28,4095.9,4092.31,4084.1,4084.1,4108.21,4132.31,4117.95,4125.13,4175.38,4093.33,0
12_2_9,61,4100.51,4127.18,4098.97,4102.56,4110.77,4094.36,4092.31,4108.21,4129.23,4156.41,4130.26,4137.95,4193.33,4110.26,0
12_2_9,62,4108.72,4127.69,4097.95,4104.62,4098.97,4095.38,4090.26,4111.28,4117.95,4158.46,4137.44,4144.1,4195.9,4113.33,0
12_2_9,63,4105.64,4120,4096.92,4102.05,4088.21,4093.33,4088.72,4103.08,4108.21,4142.05,4127.18,4142.05,4184.1,4105.13,0
12_2_9,64,4106.67,4122.05,4100.51,4106.67,4103.08,4090.77,4093.33,4107.69,4123.59,4140.51,4128.21,4144.62,4186.67,4108.21,0
12_2_9,65,4108.72,4124.1,4099.49,4103.59,4104.1,4088.72,4087.69,4104.1,4123.59,4143.59,4135.9,4142.05,4187.69,4110.77,0
12_2_9,66,4098.97,4119.49,4095.9,4091.79,4086.15,4088.21,4080.51,4091.28,4106.15,4132.31,4128.21,4134.87,4178.46,4105.64,0
12_2_9,67,4092.82,4114.36,4094.36,4089.74,4082.56,4093.85,4085.64,4092.31,4102.05,4126.67,4121.03,4134.87,4173.85,4105.13,0
12_2_9,68,4094.36,4106.67,4093.33,4090.77,4096.41,4098.46,4091.28,4103.59,4115.38,4134.87,4116.41,4136.41,4166.67,4098.97,0
12_2_9,69,4091.28,4105.13,4094.87,4089.74,4108.21,4096.41,4090.26,4108.21,4118.46,4137.44,4108.21,4133.85,4151.79,4090.77,0
12_2_9,70,4097.44,4116.41,4099.49,4098.46,4105.64,4094.36,4091.28,4100.51,4116.41,4136.41,4112.82,4134.87,4148.72,4098.46,0
12_2_9,71,4108.21,4123.08,4100.51,4105.13,4091.79,4091.79,4091.79,4091.28,4123.59,4141.54,4128.21,4141.54,4157.44,4110.77,0
12_2_9,72,4101.54,4115.38,4097.44,4098.46,4088.21,4090.77,4089.74,4088.72,4116.92,4133.33,4125.13,4137.44,4157.95,4105.64,0
12_2_9,73,4090.26,4107.18,4095.9,4091.28,4099.49,4089.23,4089.23,4091.79,4100,4121.03,4110.77,4125.64,4149.23,4093.33,0
12_2_9,74,4091.28,4107.18,4096.41,4090.77,4105.64,4085.64,4089.23,4098.46,4106.67,4127.69,4112.31,4123.08,4150.26,4093.85,0
12_2_9,75,4091.79,4110.26,4095.38,4090.26,4097.44,4089.23,4090.26,4100.51,4116.41,4130.26,4118.97,4124.1,4153.33,4101.03,0
12_2_9,76,4092.31,4109.74,4095.38,4089.23,4083.59,4094.87,4091.28,4099.49,4109.74,4120.51,4112.82,4125.13,4144.1,4103.59,0
12_2_9,77,4101.03,4108.72,4094.36,4095.9,4082.05,4086.67,4088.21,4103.08,4116.41,4123.59,4105.13,4133.85,4137.44,4104.1,0
12_2_9,78,4110.26,4116.41,4094.36,4102.56,4094.36,4082.56,4089.74,4103.08,4123.59,4131.28,4107.69,4137.95,4147.69,4107.18,0
12_2_9,79,4107.69,4122.56,4095.38,4098.46,4097.44,4089.74,4090.26,4096.41,4110.26,4125.13,4110.77,4128.21,4152.31,4105.13,0
12_2_9,80,4096.41,4111.28,4093.33,4090.26,4082.56,4087.18,4084.1,4096.41,4104.1,4121.03,4106.67,4119.49,4142.05,4094.87,0
12_2_9,81,4094.36,4104.1,4092.82,4091.28,4077.95,4077.95,4083.08,4103.08,4109.23,4124.62,4106.67,4121.03,4136.92,4090.26,0
12_2_9,82,4104.1,4110.26,4096.41,4093.33,4091.79,4080.51,4091.79,4098.97,4106.15,4122.56,4112.31,4126.67,4139.49,4097.44,0
12_2_9,83,4106.67,4110.77,4097.95,4089.74,4094.87,4088.21,4094.36,4094.36,4106.67,4120.51,4114.36,4128.72,4138.97,4105.13,0
12_2_9,84,4097.44,4105.64,4097.44,4091.79,4086.67,4085.13,4085.13,4096.92,4105.64,4116.41,4110.77,4126.15,4138.97,4107.69,0
12_2_9,85,4092.31,4106.15,4094.87,4090.77,4085.13,4080.51,4079.49,4094.87,4094.36,4110.77,4103.59,4121.54,4136.92,4103.08,0
12_2_9,86,4091.79,4106.15,4092.82,4083.08,4089.74,4084.1,4081.54,4090.77,4099.49,4116.41,4099.49,4117.95,4126.15,4094.36,0
12_2_9,87,4089.74,4106.67,4095.38,4083.08,4088.72,4088.72,4081.54,4103.08,4114.36,4125.64,4101.54,4116.92,4120.51,4089.74,0
12_2_9,88,4094.87,4109.74,4098.46,4089.23,4084.1,4087.69,4082.56,4122.56,4112.82,4123.59,4107.18,4120,4124.1,4095.38,0
12_2_9,89,4105.13,4109.23,4098.46,4094.36,4085.64,4090.77,4089.74,4123.59,4117.95,4122.05,4107.69,4124.1,4127.69,4103.59,0
12_2_9,90,4106.15,4113.33,4101.03,4096.41,4095.9,4094.87,4096.41,4115.38,4126.15,4127.69,4108.72,4124.62,4128.72,4103.59,0
12_2_9,91,4097.44,4116.41,4100,4093.85,4102.05,4092.31,4094.36,4106.15,4107.69,4125.64,4114.36,4124.1,4128.72,4101.03,0
12_2_9,92,4101.03,4112.31,4095.9,4090.26,4092.82,4091.28,4089.23,4095.9,4095.9,4124.62,4118.46,4124.1,4129.23,4105.64,0
12_2_9,93,4105.64,4106.15,4098.46,4089.23,4077.44,4085.13,4081.03,4090.26,4105.64,4120,4117.44,4124.62,4123.59,4105.64,0
12_2_9,94,4099.49,4106.67,4096.92,4090.77,4077.44,4075.38,4074.36,4087.69,4101.03,4106.67,4111.79,4123.59,4120,4097.44,0
12_2_9,95,4101.54,4114.36,4095.9,4095.9,4094.87,4080,4081.54,4096.41,4100.51,4110.26,4114.36,4124.1,4130.77,4102.05,0
12_2_9,96,4107.69,4116.41,4097.95,4096.92,4097.95,4090.77,4091.28,4105.13,4119.49,4125.64,4121.03,4127.18,4132.31,4111.79,0
12_2_9,97,4098.97,4108.21,4093.85,4089.74,4081.03,4086.15,4090.26,4103.59,4112.31,4121.54,4109.23,4123.08,4111.79,4101.03,0
12_2_9,98,4092.31,4103.08,4091.28,4087.69,4078.46,4074.87,4087.18,4103.59,4092.31,4105.13,4098.97,4116.41,4102.05,4092.31,0
12_2_9,99,4103.08,4108.21,4098.97,4091.28,4091.28,4081.03,4090.77,4105.13,4099.49,4103.08,4113.85,4125.13,4110.26,4102.56,0
12_2_9,100,4111.28,4112.31,4100,4090.26,4094.87,4092.82,4093.33,4097.95,4109.74,4111.79,4122.56,4134.36,4111.28,4108.21,0
12_2_9,101,4106.67,4112.31,4095.38,4088.21,4091.79,4089.23,4092.31,4093.85,4107.69,4122.56,4110.77,4129.74,4107.18,4106.67,0
12_2_9,102,4098.97,4110.26,4096.92,4090.26,4089.23,4077.95,4086.67,4091.79,4102.56,4125.64,4108.72,4123.08,4107.18,4106.67,0
12_2_9,103,4093.33,4102.05,4096.92,4089.23,4078.46,4072.82,4081.03,4083.08,4091.28,4114.87,4109.74,4116.41,4106.67,4097.95,0
12_2_9,104,4091.28,4100,4091.79,4086.67,4075.38,4078.46,4085.64,4084.1,4092.31,4107.18,4105.64,4115.9,4105.13,4093.33,0
12_2_9,105,4094.36,4106.67,4094.36,4087.69,4086.15,4087.18,4091.28,4089.23,4110.26,4112.31,4111.79,4124.62,4106.67,4104.1,0
12_2_9,106,4102.05,4109.23,4098.97,4090.26,4092.31,4090.26,4089.74,4096.41,4107.69,4121.03,4119.49,4128.21,4106.67,4107.69,0
12_2_9,107,4105.13,4107.69,4098.97,4089.23,4091.79,4090.26,4093.85,4107.69,4095.38,4123.59,4113.85,4121.54,4107.69,4104.1,0
12_2_9,108,4100,4105.13,4098.46,4084.62,4087.18,4091.79,4096.41,4098.97,4101.54,4114.87,4109.23,4123.59,4107.18,4106.67,0
12_2_9,109,4090.26,4100,4097.44,4081.54,4079.49,4084.62,4084.1,4080.51,4102.05,4107.69,4109.74,4124.1,4096.41,4100.51,0
12_2_9,110,4089.74,4098.97,4099.49,4084.62,4082.56,4077.44,4080.51,4086.67,4091.79,4113.85,4113.85,4117.95,4090.77,4095.9,0
12_2_9,111,4100.51,4107.18,4105.64,4092.31,4094.36,4088.21,4093.85,4097.95,4103.59,4123.59,4124.62,4129.74,4103.08,4112.82,0
12_2_9,112,4105.64,4111.79,4104.1,4092.31,4094.36,4095.38,4096.92,4092.82,4118.46,4124.1,4129.23,4138.97,4112.82,4124.1,0
12_2_9,113,4100.51,4105.64,4096.92,4084.1,4086.67,4085.13,4090.77,4093.33,4100,4114.87,4118.46,4128.21,4105.13,4111.79,0
12_2_9,114,4092.31,4096.41,4094.87,4081.03,4076.92,4077.95,4088.72,4096.41,4077.95,4099.49,4105.13,4118.46,4090.26,4098.46,0
12_2_9,115,4087.69,4093.85,4093.33,4080.51,4070.77,4077.44,4083.59,4086.15,4092.31,4093.33,4103.08,4115.38,4080.51,4094.36,0
12_2_9,116,4088.72,4099.49,4093.85,4076.92,4080.51,4074.87,4081.03,4079.49,4107.69,4104.1,4107.18,4111.79,4082.05,4092.82,0
12_2_9,117,4091.28,4105.13,4095.38,4077.95,4091.79,4075.38,4084.1,4090.26,4094.87,4113.85,4108.72,4114.87,4090.26,4092.31,0
12_2_9,118,4092.31,4106.67,4095.9,4082.05,4092.31,4078.97,4084.1,4093.85,4087.69,4109.23,4105.13,4122.56,4091.79,4095.38,0
12_2_9,119,4093.33,4106.67,4094.87,4082.56,4085.13,4079.49,4085.64,4083.08,4095.38,4103.59,4104.62,4117.44,4084.62,4097.95,0
12_2_9,120,4093.85,4102.05,4095.9,4078.97,4076.92,4077.95,4086.67,4086.67,4095.9,4105.13,4107.18,4107.69,4076.92,4097.44,0
12_2_9,121,4090.77,4098.97,4095.9,4078.46,4073.33,4074.87,4082.05,4094.36,4096.92,4107.18,4105.64,4107.18,4073.85,4093.85,0
12_2_9,122,4089.23,4102.05,4095.38,4083.59,4078.46,4077.44,4084.1,4086.67,4096.41,4102.56,4101.03,4107.69,4075.9,4090.77,0
12_2_9,123,4090.77,4104.1,4094.87,4085.64,4087.69,4086.15,4094.36,4091.28,4089.74,4102.05,4100,4104.62,4077.95,4093.85,0
12_2_9,124,4093.85,4101.54,4096.92,4083.59,4094.36,4088.21,4094.87,4110.77,4097.44,4115.38,4108.21,4112.82,4083.59,4105.13,0
12_2_9,125,4095.38,4098.46,4098.46,4082.05,4087.69,4081.54,4087.18,4107.69,4104.1,4118.97,4110.77,4120.51,4089.23,4108.72,0
12_2_9,126,4086.67,4091.79,4095.38,4077.44,4073.85,4076.92,4084.62,4083.08,4090.77,4101.03,4101.03,4106.67,4081.54,4096.41,0
12_2_9,127,4082.05,4087.18,4094.36,4073.85,4077.95,4077.95,4088.21,4075.38,4090.26,4098.46,4097.44,4097.95,4071.28,4089.23,0
12_2_9,128,4089.23,4096.92,4096.41,4083.08,4093.33,4082.56,4091.28,4090.26,4097.95,4112.82,4103.08,4106.67,4074.87,4094.87,0
12_2_9,0,4093.85,4108.72,4095.9,4092.82,4095.38,4086.15,4088.72,4094.36,4090.26,4105.13,4107.18,4107.18,4082.56,4096.92,0
12_2_9,1,4090.77,4107.69,4096.41,4091.79,4088.21,4084.62,4083.08,4082.56,4091.79,4098.97,4106.67,4101.54,4086.15,4096.41,0
12_2_9,2,4089.74,4103.59,4098.46,4089.74,4077.95,4082.05,4078.97,4082.05,4098.46,4106.67,4106.15,4105.13,4083.59,4098.46,0
12_2_9,3,4091.28,4106.67,4095.9,4085.13,4073.85,4080,4084.1,4092.31,4085.64,4098.46,4106.67,4108.72,4075.38,4096.92,0
12_2_9,4,4091.79,4106.15,4095.9,4080,4085.64,4080,4090.26,4089.74,4080,4089.74,4101.54,4103.08,4073.33,4093.85,0
12_2_9,5,4083.08,4094.87,4093.85,4076.41,4087.69,4084.1,4085.13,4075.9,4089.74,4094.36,4091.28,4092.31,4071.79,4089.23,0
12_2_9,6,4072.31,4090.77,4089.23,4077.44,4079.49,4080.51,4075.38,4070.26,4086.15,4092.82,4091.28,4088.72,4064.62,4084.1,0
12_2_9,7,4080.51,4102.05,4090.26,4084.62,4089.23,4072.82,4078.97,4081.03,4080,4092.31,4102.56,4100.51,4067.69,4088.21,0
12_2_9,8,4093.33,4110.26,4094.87,4091.28,4091.28,4080,4089.23,4088.72,4084.1,4101.03,4106.15,4108.72,4075.9,4096.92,0
12_2_9,9,4092.31,4107.18,4095.38,4092.31,4077.95,4090.26,4085.13,4088.72,4091.79,4103.08,4102.05,4104.62,4075.38,4102.56,0
12_2_9,10,4090.77,4108.21,4096.92,4092.82,4089.74,4087.69,4080,4101.54,4107.18,4108.21,4109.74,4103.59,4079.49,4105.64,0
12_2_9,11,4096.92,4113.85,4098.97,4093.85,4106.15,4086.15,4088.21,4110.26,4107.69,4117.44,4121.03,4109.74,4087.18,4108.72,0
12_2_9,12,4098.46,4110.77,4096.41,4090.26,4096.41,4092.82,4093.33,4096.41,4088.72,4113.33,4120,4111.79,4088.21,4109.23,0
12_2_9,13,4095.9,4105.64,4093.33,4084.1,4084.62,4090.77,4090.77,4089.74,4083.59,4104.1,4110.77,4108.72,4084.1,4105.64,0
12_2_9,14,4093.33,4104.62,4091.79,4081.03,4079.49,4078.46,4088.72,4096.41,4094.36,4105.64,4106.67,4107.18,4078.97,4102.05,0
12_2_9,15,4089.23,4102.05,4092.31,4082.56,4079.49,4074.87,4085.64,4090.77,4097.95,4113.33,4107.69,4106.67,4076.41,4102.56,0
12_2_9,16,4093.33,4098.97,4095.38,4087.69,4087.69,4084.1,4086.15,4087.18,4090.26,4105.64,4108.21,4109.23,4076.92,4105.64,0
12_2_9,17,4104.1,4103.59,4096.92,4091.79,4094.36,4092.82,4091.28,4093.33,4089.23,4093.33,4109.74,4114.87,4078.46,4105.64,0
12_2_9,18,4106.67,4112.31,4095.38,4091.79,4097.44,4096.92,4092.31,4099.49,4101.54,4100.51,4111.79,4115.9,4079.49,4107.18,0
12_2_9,19,4097.95,4112.31,4095.38,4090.77,4101.54,4102.56,4096.41,4107.18,4108.72,4114.36,4111.28,4112.31,4078.97,4106.15,0
12_2_9,20,4093.85,4106.67,4096.41,4092.82,4094.36,4100.51,4098.46,4105.64,4097.95,4105.64,4110.26,4110.26,4076.41,4101.54,0
12_2_9,21,4102.56,4108.72,4097.95,4094.36,4088.72,4091.79,4094.36,4094.87,4090.26,4095.38,4113.85,4115.9,4075.9,4102.56,0
12_2_10,22,4105.64,4110.26,4097.95,4093.85,4094.36,4091.28,4091.28,4088.72,4091.79,4101.03,4116.41,4117.95,4075.38,4107.69,0
12_2_10,23,4097.95,4106.15,4096.41,4092.31,4094.36,4089.23,4087.18,4088.72,4090.26,4095.38,4105.64,4109.23,4068.72,4104.62,0
12_2_10,24,4095.9,4110.26,4097.44,4093.85,4090.26,4081.54,4082.05,4089.74,4093.33,4086.15,4097.95,4102.56,4062.05,4098.46,0
12_2_10,25,4105.13,4121.03,4101.03,4097.95,4089.74,4086.15,4086.15,4090.26,4095.38,4096.92,4105.13,4108.21,4065.13,4102.05,0
12_2_10,26,4109.23,4122.56,4098.97,4096.41,4091.79,4094.36,4091.79,4090.26,4090.77,4109.23,4108.72,4111.79,4074.36,4108.21,0
12_2_10,27,4106.67,4118.46,4093.85,4090.26,4097.95,4092.31,4089.74,4097.95,4091.28,4105.64,4108.72,4111.28,4076.92,4107.69,0
12_2_10,28,4105.13,4120.51,4096.92,4090.77,4101.03,4088.21,4085.13,4102.56,4094.87,4105.13,4115.38,4118.97,4074.36,4105.13,0
12_2_10,29,4105.64,4118.97,4099.49,4097.44,4094.36,4086.15,4080.51,4090.77,4093.85,4107.18,4113.33,4120.51,4074.36,4106.15,0
12_2_10,30,4106.15,4111.79,4095.9,4098.46,4095.38,4089.23,4083.59,4084.62,4090.77,4098.97,4105.13,4111.28,4074.36,4106.15,0
12_2_10,31,4101.54,4109.23,4094.87,4095.9,4101.54,4092.31,4092.31,4092.31,4095.9,4097.95,4105.64,4107.18,4071.28,4104.62,0
12_2_10,32,4100.51,4112.31,4096.92,4097.95,4088.72,4084.62,4087.69,4094.87,4103.08,4108.21,4108.72,4113.33,4069.74,4103.59,0
12_2_10,33,4105.13,4116.92,4097.44,4097.95,4082.05,4081.03,4080,4096.41,4098.97,4109.74,4115.38,4120.51,4076.92,4104.62,0
12_2_10,34,4108.72,4120.51,4098.46,4094.36,4101.54,4089.74,4084.62,4100,4092.82,4107.18,4122.56,4123.08,4096.41,4111.28,0
12_2_10,35,4107.69,4123.08,4100.51,4098.46,4112.31,4091.79,4091.28,4096.41,4090.77,4111.28,4118.97,4122.56,4117.95,4114.36,0
12_2_10,36,4107.18,4121.54,4100,4104.1,4105.13,4088.72,4088.72,4089.74,4090.26,4110.26,4114.87,4122.05,4134.87,4110.26,0
12_2_10,37,4107.69,4120.51,4098.46,4097.44,4098.97,4089.74,4088.21,4095.38,4101.03,4103.08,4120.51,4124.1,4160,4105.64,0
12_2_10,38,4106.15,4119.49,4098.97,4090.77,4092.82,4092.31,4091.28,4103.08,4106.67,4105.13,4123.59,4123.59,4183.08,4106.67,0
12_2_10,39,4105.64,4120.51,4097.95,4096.41,4093.33,4094.87,4090.77,4108.72,4096.92,4116.92,4123.59,4122.05,4189.74,4106.67,0
12_2_10,40,4105.64,4123.59,4096.92,4101.03,4105.64,4096.41,4091.79,4107.18,4095.38,4121.54,4122.05,4125.13,4194.36,4105.64,0
12_2_10,41,4106.67,4124.1,4095.9,4100,4106.67,4093.33,4092.82,4108.21,4109.23,4123.08,4121.03,4134.36,4204.1,4108.72,0
12_2_10,42,4107.69,4122.05,4093.85,4100,4101.54,4091.28,4091.28,4116.92,4112.31,4130.77,4129.74,4138.97,4207.18,4113.33,0
12_2_10,43,4105.13,4122.05,4093.33,4097.95,4103.59,4093.85,4090.26,4108.72,4100.51,4121.54,4134.87,4131.79,4202.05,4112.82,0
12_2_10,44,4106.15,4123.59,4097.95,4100.51,4099.49,4093.85,4089.23,4085.64,4096.92,4110.26,4127.18,4125.64,4202.05,4110.26,0
12_2_10,45,4107.18,4121.03,4096.92,4104.62,4091.28,4088.21,4082.05,4081.03,4104.1,4118.97,4120,4124.62,4198.46,4107.18,0
12_2_10,46,4101.54,4119.49,4090.26,4100.51,4100,4086.67,4077.44,4096.41,4110.26,4121.54,4120.51,4123.08,4187.18,4103.08,0
12_2_10,47,4097.44,4121.03,4092.31,4095.9,4102.05,4094.87,4082.05,4100.51,4105.13,4115.9,4124.62,4122.56,4186.15,4105.13,0
12_2_10,48,4094.87,4114.87,4095.38,4092.82,4088.72,4092.82,4082.56,4091.79,4101.03,4114.36,4123.08,4122.05,4183.59,4103.08,0
12_2_10,49,4090.26,4108.72,4090.77,4089.74,4095.38,4083.59,4081.54,4096.41,4110.26,4106.15,4115.38,4118.46,4175.38,4093.85,0
12_2_10,50,4096.92,4116.92,4089.74,4098.46,4109.23,4096.41,4089.23,4109.23,4117.44,4107.69,4117.44,4120.51,4181.03,4100,0
12_2_10,51,4104.1,4125.13,4094.36,4105.13,4101.54,4110.77,4095.38,4110.26,4107.18,4122.56,4127.18,4127.69,4187.18,4111.79,0
12_2_10,52,4098.46,4122.56,4092.31,4095.9,4097.44,4101.54,4092.31,4095.9,4095.38,4118.46,4120.51,4122.56,4173.33,4104.1,0
12_2_10,53,4092.82,4119.49,4089.23,4096.92,4108.21,4091.79,4093.85,4090.77,4101.03,4105.64,4105.13,4113.33,4163.08,4093.33,0
12_2_10,54,4094.36,4120.51,4091.28,4105.64,4103.59,4093.33,4095.38,4093.85,4108.21,4109.74,4104.1,4118.97,4169.23,4099.49,0
12_2_10,55,4091.79,4117.95,4090.26,4096.41,4089.74,4092.31,4086.67,4093.33,4108.72,4116.92,4109.23,4123.59,4167.18,4104.1,0
12_2_10,56,4087.69,4112.31,4087.18,4087.18,4088.21,4089.74,4081.03,4091.28,4109.74,4114.36,4108.72,4114.87,4158.97,4098.97,0
12_2_10,57,4087.18,4111.28,4088.21,4091.79,4090.77,4085.64,4082.05,4089.74,4100,4097.95,4103.08,4106.15,4153.85,4092.82,0
12_2_10,58,4089.23,4118.46,4090.26,4092.82,4093.33,4078.97,4077.95,4090.77,4091.79,4090.26,4101.03,4109.23,4151.79,4091.28,0
12_2_10,59,4090.77,4122.05,4089.74,4090.77,4095.38,4079.49,4074.36,4091.28,4100,4105.64,4101.03,4110.77,4150.77,4092.31,0
12_2_10,60,4084.62,4112.82,4087.69,4091.79,4095.38,4081.54,4076.92,4090.26,4106.15,4112.31,4095.38,4107.18,4148.21,4091.28,0
12_2_10,61,4082.56,4108.21,4089.74,4093.33,4092.82,4078.97,4078.97,4087.69,4103.08,4103.59,4096.41,4110.26,4150.77,4092.31,0
12_2_10,62,4085.64,4110.26,4091.79,4091.28,4084.1,4076.92,4077.95,4089.74,4101.54,4098.46,4100,4113.33,4152.31,4094.87,0
12_2_10,63,4080.51,4107.69,4089.74,4088.21,4081.54,4074.36,4077.95,4094.87,4106.67,4102.05,4098.97,4109.23,4142.05,4090.26,0
12_2_10,64,4078.46,4107.18,4086.67,4090.26,4089.23,4075.38,4077.95,4086.15,4108.72,4101.54,4098.46,4107.69,4134.36,4087.18,0
12_2_10,65,4085.64,4111.28,4087.69,4091.79,4094.36,4081.03,4077.44,4071.28,4096.92,4097.44,4097.44,4111.79,4135.38,4090.77,0
12_2_10,66,4085.13,4109.74,4089.74,4088.72,4090.77,4078.97,4075.9,4078.97,4089.23,4093.85,4088.72,4107.69,4128.72,4091.79,0
12_2_10,67,4081.54,4106.67,4088.72,4088.72,4088.72,4077.44,4079.49,4094.87,4102.05,4093.85,4087.18,4104.62,4117.44,4091.79,0
12_2_10,68,4089.74,4109.74,4089.74,4092.82,4093.33,4087.18,4084.62,4091.28,4107.69,4100.51,4091.28,4108.72,4121.03,4093.33,0
12_2_10,69,4094.36,4114.87,4092.31,4092.82,4097.44,4090.77,4082.05,4080.51,4098.46,4104.1,4091.28,4109.74,4126.67,4094.36,0
12_2_10,70,4088.21,4117.44,4092.31,4093.85,4097.44,4086.15,4078.46,4082.05,4096.92,4095.38,4101.03,4112.82,4122.05,4100.51,0
12_2_10,71,4095.9,4121.54,4093.33,4101.03,4096.92,4089.74,4085.13,4092.31,4106.67,4093.33,4110.77,4123.59,4127.69,4109.74,0
12_2_10,72,4108.21,4125.13,4099.49,4107.69,4095.38,4095.9,4093.85,4104.62,4118.46,4111.28,4108.21,4127.69,4140,4111.28,0
12_2_10,73,4103.08,4125.13,4097.95,4107.18,4094.87,4095.38,4093.85,4106.67,4117.95,4115.38,4104.62,4122.05,4134.87,4107.18,0
12_2_10,74,4102.05,4129.74,4095.38,4106.15,4105.64,4094.36,4089.74,4098.46,4106.15,4101.03,4107.18,4121.03,4130.26,4108.72,0
12_2_10,75,4109.23,4133.33,4097.95,4106.15,4111.79,4095.38,4090.26,4096.92,4103.08,4103.08,4111.28,4124.1,4138.46,4111.79,0
12_2_10,76,4101.54,4125.64,4093.33,4100,4101.03,4097.44,4090.77,4098.97,4109.74,4108.21,4105.13,4116.92,4130.77,4105.64,0
12_2_10,77,4085.13,4116.92,4086.15,4094.87,4094.36,4095.38,4084.62,4087.69,4105.64,4098.97,4095.38,4105.64,4114.36,4093.33,0
12_2_10,78,4078.46,4110.77,4087.69,4090.26,4090.77,4084.1,4074.36,4066.15,4090.26,4087.18,4085.13,4094.87,4108.72,4082.56,0
12_2_10,79,4080,4107.69,4090.26,4087.18,4084.62,4075.38,4072.31,4067.18,4089.23,4084.62,4080,4090.77,4108.72,4082.05,0
12_2_10,80,4088.21,4115.9,4093.85,4091.28,4088.72,4080,4082.56,4096.41,4107.18,4099.49,4096.92,4099.49,4116.92,4096.41,0
12_2_10,81,4094.36,4122.05,4095.9,4094.87,4092.82,4089.23,4089.74,4105.64,4113.33,4109.23,4109.23,4108.72,4121.03,4104.1,0
12_2_10,82,4091.79,4115.38,4091.79,4091.28,4090.77,4089.74,4086.15,4089.74,4098.97,4092.31,4095.38,4104.62,4109.23,4094.36,0
12_2_10,83,4090.26,4113.85,4090.77,4087.69,4101.54,4091.28,4089.23,4093.33,4098.97,4089.74,4091.28,4103.08,4109.74,4094.36,0
12_2_10,84,4096.41,4120,4097.44,4096.92,4110.77,4097.95,4094.87,4104.62,4110.26,4107.69,4106.67,4109.74,4124.1,4107.69,0
12_2_10,85,4104.62,4124.1,4098.97,4104.1,4098.97,4096.92,4085.64,4093.33,4107.69,4100.51,4107.69,4109.23,4124.62,4108.21,0
12_2_10,86,4104.1,4124.1,4096.92,4098.97,4090.26,4089.74,4081.54,4087.69,4104.1,4086.15,4103.59,4107.18,4117.44,4105.13,0
12_2_10,87,4093.85,4117.44,4095.9,4089.23,4094.36,4089.23,4088.21,4096.41,4108.72,4098.97,4111.28,4109.23,4115.9,4107.69,0
12_2_10,88,4087.69,4110.77,4094.36,4088.21,4095.9,4089.74,4083.59,4093.85,4108.72,4113.33,4109.74,4108.21,4110.26,4102.05,0
12_2_10,89,4091.79,4116.92,4096.41,4093.85,4096.92,4088.72,4082.05,4091.28,4108.72,4105.64,4105.13,4107.69,4105.13,4098.46,0
12_2_10,90,4093.85,4123.59,4098.46,4096.92,4097.44,4089.23,4088.72,4097.44,4107.69,4093.33,4107.69,4108.21,4107.69,4105.13,0
12_2_10,91,4091.79,4121.54,4096.41,4097.95,4094.36,4090.77,4088.21,4093.33,4104.1,4095.38,4107.69,4107.69,4109.23,4106.67,0
12_2_10,92,4091.28,4120,4093.85,4095.9,4092.31,4091.79,4084.1,4090.26,4108.21,4103.59,4108.72,4107.69,4108.21,4105.64,0
12_2_10,93,4091.28,4121.03,4095.9,4094.36,4089.23,4091.28,4088.21,4093.85,4115.9,4106.15,4108.72,4107.69,4107.69,4107.18,0
12_2_10,94,4093.85,4122.05,4098.46,4095.9,4094.36,4095.38,4091.28,4092.82,4109.74,4106.15,4105.64,4106.67,4106.67,4107.18,0
12_2_10,95,4090.77,4117.95,4095.9,4094.87,4106.67,4096.92,4089.74,4093.33,4102.05,4103.08,4107.18,4105.64,4103.59,4104.62,0
12_2_10,96,4082.56,4109.23,4090.77,4092.82,4102.05,4087.69,4089.23,4092.82,4100,4094.87,4106.67,4104.62,4098.46,4098.97,0
12_2_10,97,4082.56,4106.67,4092.31,4092.31,4089.23,4080.51,4089.23,4087.69,4102.56,4091.79,4097.44,4103.59,4093.85,4092.82,0
12_2_10,98,4089.23,4111.28,4097.44,4093.33,4092.82,4088.72,4093.33,4096.41,4111.79,4093.85,4101.54,4105.64,4096.41,4094.87,0
12_2_10,99,4090.77,4113.85,4096.41,4095.38,4099.49,4096.41,4094.87,4107.18,4112.82,4093.85,4106.67,4104.1,4096.92,4095.9,0
12_2_10,100,4082.05,4106.15,4090.26,4089.74,4093.33,4091.28,4088.21,4092.31,4099.49,4087.18,4094.36,4093.33,4085.13,4088.21,0
12_2_10,101,4073.85,4098.97,4089.74,4080.51,4086.67,4085.13,4084.62,4081.03,4096.92,4077.95,4086.15,4086.67,4072.31,4085.13,0
12_2_10,102,4078.46,4103.08,4096.41,4083.59,4086.67,4087.18,4089.74,4100,4106.67,4082.05,4088.72,4092.82,4071.79,4088.21,0
12_2_10,103,4089.23,4109.23,4100,4093.33,4092.82,4096.41,4096.41,4109.23,4109.74,4089.74,4093.33,4102.05,4080,4093.85,0
12_2_10,104,4092.82,4108.72,4098.97,4093.85,4098.97,4097.44,4094.87,4093.85,4108.72,4093.33,4102.56,4107.18,4090.26,4102.56,0
12_2_10,105,4089.23,4107.18,4096.92,4090.77,4093.33,4091.28,4091.79,4085.13,4108.21,4097.44,4107.69,4110.77,4092.82,4107.69,0
12_2_10,106,4088.21,4108.21,4096.41,4092.82,4091.28,4092.31,4096.92,4098.97,4105.13,4095.9,4104.62,4109.74,4087.69,4105.13,0
12_2_10,107,4091.79,4109.23,4096.92,4094.87,4094.36,4096.41,4100,4110.77,4110.26,4093.85,4106.67,4109.74,4084.1,4104.62,0
12_2_10,108,4090.77,4109.23,4097.95,4093.85,4083.59,4093.85,4092.82,4102.56,4111.28,4092.82,4110.77,4111.28,4083.08,4104.62,0
12_2_10,109,4082.05,4108.21,4097.95,4092.31,4078.46,4086.67,4087.69,4099.49,4107.18,4088.21,4109.74,4108.21,4078.46,4098.46,0
12_2_10,110,4082.56,4105.64,4097.44,4091.79,4090.77,4086.67,4093.85,4104.1,4110.77,4087.69,4105.13,4103.08,4073.85,4093.85,0
12_2_10,111,4089.74,4104.1,4096.41,4089.74,4093.33,4089.74,4091.28,4101.54,4116.41,4101.54,4100.51,4104.1,4075.38,4095.38,0
12_2_10,112,4083.08,4100.51,4095.9,4083.08,4080.51,4084.1,4080.51,4095.9,4109.74,4103.59,4100.51,4107.18,4075.9,4093.85,0
12_2_10,113,4073.33,4098.46,4097.44,4080,4075.9,4079.49,4085.13,4091.79,4098.46,4086.15,4098.46,4100.51,4070.26,4092.31,0
12_2_10,114,4076.92,4096.92,4096.41,4080.51,4074.36,4082.56,4091.28,4084.1,4090.26,4068.21,4088.21,4090.77,4061.03,4089.74,0
12_2_10,115,4078.97,4091.28,4090.77,4078.46,4075.38,4087.18,4088.72,4083.59,4087.69,4065.64,4087.18,4089.74,4055.9,4082.05,0
12_2_10,116,4074.36,4094.36,4090.77,4083.08,4089.23,4089.23,4091.28,4097.95,4098.46,4081.54,4098.46,4095.38,4063.08,4081.54,0
12_2_10,117,4073.85,4104.1,4092.82,4090.77,4098.46,4097.44,4096.92,4108.72,4110.26,4092.82,4101.54,4095.38,4075.38,4089.23,0
12_2_10,118,4077.44,4104.62,4093.85,4090.26,4092.82,4104.62,4097.95,4104.62,4108.21,4093.85,4098.46,4092.82,4078.46,4092.82,0
12_2_10,119,4081.54,4103.59,4096.92,4091.28,4089.23,4101.03,4100,4103.08,4104.1,4092.82,4099.49,4094.87,4072.31,4090.26,0
12_2_10,120,4080.51,4106.15,4096.41,4092.31,4090.77,4093.33,4098.46,4107.69,4106.15,4085.64,4101.03,4096.41,4067.69,4089.74,0
12_2_10,121,4078.97,4100,4092.82,4085.64,4085.13,4089.23,4092.82,4099.49,4102.05,4077.44,4097.44,4093.33,4067.18,4090.77,0
12_2_10,122,4079.49,4095.38,4092.82,4085.64,4083.08,4093.33,4094.87,4085.64,4095.38,4078.46,4090.77,4091.79,4062.05,4091.79,0
12_2_10,123,4080,4103.08,4091.79,4090.77,4091.79,4097.44,4097.44,4089.74,4099.49,4078.46,4087.69,4093.33,4056.92,4091.79,0
12_2_10,124,4080,4106.67,4091.28,4085.64,4093.85,4092.82,4090.26,4100,4105.64,4074.36,4089.74,4092.31,4066.15,4089.74,0
12_2_10,125,4078.97,4101.03,4092.82,4080,4085.13,4087.69,4088.21,4101.54,4107.69,4084.62,4092.82,4090.26,4072.31,4090.26,0
12_2_10,126,4075.38,4095.9,4091.28,4084.1,4083.08,4094.36,4095.38,4101.03,4108.72,4087.18,4090.26,4089.23,4062.56,4090.77,0
12_2_10,127,4078.46,4100.51,4091.79,4089.23,4090.26,4100.51,4095.9,4100.51,4100,4069.23,4092.82,4091.28,4061.54,4089.74,0
12_2_10,128,4085.13,4109.23,4097.95,4092.31,4094.36,4094.87,4090.26,4095.38,4092.31,4073.33,4100,4094.36,4071.79,4090.77,0
12_2_10,0,4082.05,4108.21,4098.46,4091.28,4090.26,4089.23,4089.74,4091.79,4100.51,4091.79,4092.82,4093.33,4067.69,4090.26,0
12_2_10,1,4079.49,4105.64,4092.82,4090.26,4088.21,4088.72,4090.77,4089.23,4105.13,4088.72,4086.67,4090.26,4057.95,4089.74,0
12_2_10,2,4086.15,4107.18,4092.31,4088.72,4089.74,4090.77,4090.26,4091.79,4100,4081.03,4093.33,4091.79,4064.1,4089.74,0
12_2_10,3,4090.26,4107.69,4094.36,4091.79,4089.74,4094.36,4090.77,4102.56,4103.59,4090.77,4100.51,4101.03,4072.82,4091.79,0
12_2_10,4,4091.79,4114.36,4097.95,4104.62,4090.77,4095.9,4095.38,4111.28,4110.26,4096.92,4105.64,4107.69,4075.9,4100,0
12_2_10,5,4091.79,4118.97,4099.49,4105.13,4090.26,4098.46,4100.51,4104.62,4105.64,4085.13,4103.08,4100.51,4073.33,4100,0
12_2_10,6,4084.1,4110.77,4097.95,4092.31,4092.82,4104.62,4104.62,4093.85,4101.03,4074.36,4092.82,4089.74,4062.56,4086.67,0
12_2_10,7,4080,4102.05,4096.92,4088.72,4101.03,4109.23,4108.72,4101.54,4107.18,4077.44,4087.18,4089.74,4056.92,4076.92,0
12_2_10,8,4088.21,4105.64,4100,4094.36,4100,4105.64,4108.21,4111.28,4109.74,4083.59,4090.77,4092.82,4058.97,4084.1,0
12_2_10,9,4091.79,4109.74,4101.03,4092.82,4089.23,4098.46,4103.08,4102.05,4100.51,4079.49,4095.38,4091.79,4062.05,4091.79,0
12_2_10,10,4081.03,4102.56,4093.85,4089.74,4088.21,4090.77,4097.95,4091.28,4093.85,4076.92,4094.36,4089.23,4061.03,4086.67,0
12_2_10,11,4074.87,4096.41,4091.28,4090.26,4091.79,4086.67,4093.85,4092.82,4098.46,4080,4090.26,4088.21,4060.51,4083.08,0
12_2_10,12,4080.51,4102.05,4095.9,4090.77,4088.72,4088.72,4089.74,4091.28,4098.46,4078.97,4091.79,4088.72,4065.64,4088.72,0
12_2_10,13,4082.56,4106.15,4095.9,4091.28,4091.79,4091.79,4089.74,4084.62,4094.87,4081.54,4103.08,4091.28,4067.18,4092.82,0
12_2_10,14,4075.38,4101.54,4091.79,4086.67,4092.82,4091.79,4092.82,4089.23,4102.56,4087.18,4107.69,4092.31,4062.56,4089.23,0
12_2_10,15,4074.87,4100,4094.87,4084.1,4082.56,4090.77,4092.31,4092.82,4107.69,4086.15,4102.56,4088.72,4059.49,4088.72,0
12_2_10,16,4086.67,4106.67,4100,4091.28,4085.13,4093.33,4093.85,4088.21,4105.64,4088.21,4106.15,4089.23,4068.72,4091.28,0
12_2_11,17,4092.31,4110.77,4099.49,4095.38,4096.92,4095.38,4096.41,4096.41,4107.69,4094.87,4111.28,4095.9,4075.38,4093.33,0
12_2_11,18,4085.64,4107.18,4097.95,4091.79,4093.33,4091.79,4093.85,4108.72,4109.23,4092.31,4103.59,4093.33,4068.21,4094.36,0
12_2_11,19,4080.51,4102.05,4097.44,4089.74,4088.72,4090.77,4091.28,4102.56,4102.56,4082.05,4094.36,4082.56,4059.49,4085.64,0
12_2_11,20,4083.59,4106.67,4097.95,4092.31,4090.26,4090.77,4091.28,4092.82,4094.36,4075.9,4094.36,4081.54,4056.41,4082.05,0
12_2_11,21,4085.64,4110.77,4098.46,4093.85,4081.03,4084.62,4090.26,4090.77,4091.79,4075.38,4095.38,4086.67,4055.38,4088.72,0
12_2_11,22,4078.46,4097.95,4093.33,4088.72,4076.92,4077.44,4083.08,4078.97,4090.26,4072.31,4088.21,4080,4053.85,4084.1,0
12_2_11,23,4072.82,4091.79,4090.26,4081.54,4087.69,4078.46,4079.49,4067.69,4085.64,4060.51,4084.62,4071.79,4058.46,4076.92,0
12_2_11,24,4076.92,4102.56,4093.85,4084.1,4091.28,4086.15,4085.64,4081.03,4091.79,4064.62,4087.18,4075.9,4078.46,4082.05,0
12_2_11,25,4079.49,4106.67,4096.92,4089.74,4088.72,4091.79,4087.69,4094.36,4104.62,4086.67,4087.18,4086.67,4107.18,4088.21,0
12_2_11,26,4079.49,4104.62,4095.9,4090.26,4089.74,4090.77,4085.64,4088.72,4102.56,4089.23,4088.21,4091.28,4130.77,4087.69,0
12_2_11,27,4085.64,4106.67,4095.38,4090.77,4089.23,4088.21,4090.26,4088.21,4097.95,4077.95,4098.46,4090.77,4145.64,4088.72,0
12_2_11,28,4094.36,4111.79,4098.46,4092.82,4094.87,4097.44,4100,4095.38,4108.21,4087.18,4107.18,4097.95,4165.13,4094.36,0
12_2_11,29,4093.85,4111.79,4098.97,4091.28,4097.95,4107.69,4101.54,4093.33,4104.62,4094.87,4100.51,4103.59,4176.41,4096.41,0
12_2_11,30,4084.1,4106.67,4093.85,4090.77,4093.85,4102.05,4096.92,4090.26,4089.74,4081.03,4091.28,4093.85,4166.15,4092.82,0
12_2_11,31,4077.95,4103.08,4091.28,4089.74,4091.79,4091.28,4091.28,4091.79,4095.38,4078.97,4090.26,4085.64,4153.85,4086.67,0
12_2_11,32,4077.44,4101.54,4093.33,4086.15,4084.62,4088.72,4085.13,4087.69,4104.1,4087.18,4091.28,4089.23,4152.82,4082.05,0
12_2_11,33,4076.92,4100,4092.31,4083.08,4077.95,4091.79,4080.51,4077.44,4091.28,4073.33,4092.31,4089.74,4152.82,4080,0
12_2_11,34,4075.9,4096.92,4088.21,4080,4084.62,4089.23,4078.97,4070.26,4086.67,4063.08,4091.28,4086.67,4150.77,4078.97,0
12_2_11,35,4076.92,4093.33,4090.26,4077.95,4090.26,4083.08,4083.59,4076.92,4103.59,4080.51,4092.31,4091.28,4153.85,4080.51,0
12_2_11,36,4077.95,4091.28,4094.87,4081.03,4078.46,4082.56,4088.21,4086.67,4103.59,4082.05,4098.97,4091.28,4153.85,4083.59,0
12_2_11,37,4082.56,4098.97,4096.41,4088.72,4075.9,4092.82,4094.36,4084.62,4085.13,4064.62,4104.1,4090.26,4151.28,4089.23,0
12_2_11,38,4094.36,4109.23,4096.92,4095.38,4094.87,4101.54,4100,4087.69,4093.33,4077.44,4106.15,4101.54,4153.85,4092.82,0
12_2_11,39,4092.82,4108.21,4094.36,4095.9,4104.62,4097.95,4095.9,4097.44,4111.79,4098.97,4105.64,4104.62,4149.74,4091.28,0
12_2_11,40,4083.08,4104.1,4093.33,4091.79,4097.44,4093.85,4089.74,4093.85,4105.64,4091.28,4101.03,4092.82,4138.97,4089.23,0
12_2_11,41,4085.64,4106.67,4095.9,4092.31,4091.79,4094.36,4089.74,4091.79,4102.05,4086.67,4102.56,4091.79,4140,4091.28,0
12_2_11,42,4087.69,4103.59,4093.85,4093.85,4089.74,4092.31,4088.72,4097.95,4112.31,4095.38,4105.13,4098.97,4142.56,4090.26,0
12_2_11,43,4076.92,4092.82,4088.72,4090.26,4088.72,4090.26,4086.15,4091.79,4102.05,4086.67,4095.9,4093.33,4132.31,4082.56,0
12_2_11,44,4070.77,4090.77,4089.74,4089.74,4089.23,4092.31,4090.77,4084.1,4092.82,4077.95,4086.67,4088.21,4128.72,4077.44,0
12_2_11,45,4076.92,4095.9,4091.79,4089.74,4086.67,4093.85,4093.85,4093.85,4112.82,4091.28,4091.28,4092.31,4133.33,4081.03,0
12_2_11,46,4077.44,4094.36,4089.23,4083.59,4083.08,4092.31,4090.26,4100.51,4118.97,4093.85,4097.95,4096.41,4133.33,4087.69,0
12_2_11,47,4075.9,4090.26,4089.74,4083.59,4087.69,4088.21,4088.72,4091.28,4099.49,4081.54,4094.87,4098.97,4130.77,4090.26,0
12_2_11,48,4081.54,4092.31,4097.44,4090.26,4087.18,4085.13,4091.28,4093.33,4103.08,4084.1,4095.38,4103.59,4133.85,4088.72,0
12_2_11,49,4086.15,4095.9,4101.54,4092.82,4079.49,4091.79,4094.87,4112.82,4124.62,4098.97,4104.1,4107.69,4137.44,4092.82,0
12_2_11,50,4079.49,4093.33,4094.87,4090.26,4081.54,4093.85,4093.85,4112.31,4116.41,4096.41,4104.1,4102.05,4130.77,4091.79,0
12_2_11,51,4074.36,4090.77,4089.74,4086.15,4085.13,4083.59,4091.28,4089.23,4096.92,4084.62,4089.74,4092.31,4120,4081.54,0
12_2_11,52,4074.87,4089.23,4091.79,4082.05,4080,4077.95,4088.21,4078.46,4093.85,4074.87,4076.92,4088.21,4110.26,4074.36,0
12_2_11,53,4065.13,4079.49,4090.77,4075.38,4075.9,4081.03,4082.56,4075.9,4089.74,4054.87,4067.69,4078.97,4093.85,4068.72,0
12_2_11,54,4063.08,4076.41,4089.23,4077.44,4075.38,4076.92,4078.46,4071.28,4093.85,4054.87,4066.67,4074.36,4083.59,4066.67,0
12_2_11,55,4077.44,4089.23,4094.36,4088.21,4072.82,4067.18,4080,4080,4102.56,4078.97,4073.85,4086.15,4090.77,4074.36,0
12_2_11,56,4080,4093.85,4095.38,4088.21,4071.28,4066.15,4085.64,4090.77,4093.85,4080.51,4076.92,4093.33,4093.85,4079.49,0
12_2_11,57,4077.95,4089.23,4094.87,4082.05,4082.56,4074.87,4090.77,4092.31,4088.72,4066.15,4081.03,4089.23,4095.38,4084.1,0
12_2_11,58,4086.15,4092.82,4097.95,4085.13,4092.31,4080.51,4093.85,4092.31,4102.56,4072.82,4094.87,4091.79,4108.21,4091.79,0
12_2_11,59,4085.13,4092.82,4098.46,4089.23,4088.21,4081.03,4091.28,4086.67,4108.21,4082.56,4093.85,4093.85,4109.74,4085.13,0
12_2_11,60,4077.95,4093.85,4094.87,4085.64,4077.95,4081.54,4084.62,4075.9,4101.03,4071.28,4078.46,4088.21,4097.95,4076.41,0
12_2_11,61,4084.1,4103.59,4095.38,4086.67,4076.41,4080,4080.51,4073.33,4095.38,4064.62,4083.08,4090.26,4098.46,4086.15,0
12_2_11,62,4085.64,4100,4096.92,4090.77,4084.1,4080,4085.64,4074.87,4089.74,4071.28,4093.85,4094.87,4105.13,4093.33,0
12_2_11,63,4081.54,4092.31,4095.9,4092.31,4091.79,4087.69,4092.82,4081.54,4093.33,4074.36,4086.67,4093.33,4100.51,4089.74,0
12_2_11,64,4083.08,4099.49,4095.9,4094.36,4092.82,4091.79,4093.33,4094.87,4106.67,4078.46,4082.05,4091.79,4095.9,4090.26,0
12_2_11,65,4082.56,4104.1,4098.46,4091.28,4086.15,4089.74,4092.31,4099.49,4115.38,4090.77,4091.28,4093.85,4101.03,4090.26,0
12_2_11,66,4078.97,4096.92,4099.49,4090.26,4083.08,4088.21,4095.38,4094.87,4109.23,4094.36,4095.9,4092.82,4106.15,4089.74,0
12_2_11,67,4078.46,4097.44,4094.87,4092.31,4088.72,4086.15,4092.82,4094.87,4100,4084.62,4092.82,4089.23,4108.21,4091.79,0
12_2_11,68,4080,4104.1,4091.79,4092.31,4091.28,4084.62,4082.05,4093.33,4101.03,4080.51,4092.82,4089.23,4105.64,4091.79,0
12_2_11,69,4083.59,4106.15,4095.38,4091.79,4090.26,4084.62,4080,4087.69,4101.54,4077.44,4091.79,4090.26,4101.54,4092.31,0
12_2_11,70,4088.21,4106.67,4097.44,4094.36,4094.36,4088.72,4089.23,4089.23,4097.44,4071.28,4091.28,4090.26,4101.03,4093.33,0
12_2_11,71,4086.67,4105.64,4094.87,4094.87,4093.85,4093.33,4092.82,4090.26,4104.62,4082.05,4092.31,4089.74,4098.97,4091.28,0
12_2_11,72,4084.62,4105.13,4095.38,4092.31,4081.03,4090.77,4086.67,4082.56,4107.69,4085.13,4090.26,4089.23,4097.44,4093.85,0
12_2_11,73,4089.23,4107.69,4099.49,4094.87,4083.08,4084.62,4084.1,4081.03,4092.31,4073.33,4098.97,4092.31,4104.1,4105.64,0
12_2_11,74,4094.36,4109.23,4099.49,4100.51,4100.51,4083.08,4088.21,4093.85,4094.36,4083.08,4106.67,4095.38,4110.77,4107.18,0
12_2_11,75,4090.26,4108.21,4094.87,4097.95,4100.51,4082.56,4090.26,4096.41,4108.21,4094.36,4096.92,4090.26,4102.56,4094.36,0
12_2_11,76,4085.13,4104.62,4094.36,4091.28,4090.77,4084.62,4090.26,4082.05,4098.46,4077.44,4087.18,4085.13,4090.77,4088.21,0
12_2_11,77,4089.23,4106.15,4094.87,4094.36,4089.74,4089.74,4090.77,4081.03,4093.33,4071.28,4091.79,4088.21,4091.79,4092.31,0
12_2_11,78,4087.18,4107.69,4093.33,4093.85,4086.67,4084.1,4091.79,4097.44,4109.74,4084.62,4093.33,4093.33,4094.87,4092.31,0
12_2_11,79,4078.97,4100,4092.31,4082.56,4084.1,4078.46,4091.79,4096.92,4106.15,4075.38,4090.26,4091.28,4089.23,4086.67,0
12_2_11,80,4083.59,4095.9,4095.38,4084.1,4090.77,4085.64,4091.28,4085.64,4091.79,4066.15,4089.23,4088.72,4085.13,4091.28,0
12_2_11,81,4095.9,4106.67,4099.49,4099.49,4095.38,4093.33,4093.33,4097.95,4106.67,4087.69,4097.95,4098.46,4094.36,4101.03,0
12_2_11,82,4096.41,4113.85,4099.49,4103.08,4095.38,4088.21,4091.79,4109.74,4119.49,4102.05,4108.21,4103.59,4097.95,4097.44,0
12_2_11,83,4089.74,4106.15,4097.44,4094.87,4093.85,4076.41,4082.05,4094.87,4109.23,4090.26,4102.56,4093.33,4092.31,4091.79,0
12_2_11,84,4083.08,4092.82,4095.38,4088.21,4083.08,4070.26,4074.87,4085.64,4102.56,4080,4092.31,4086.67,4085.13,4090.26,0
12_2_11,85,4073.33,4081.03,4091.79,4083.59,4074.36,4071.79,4075.38,4086.67,4102.56,4084.1,4089.23,4089.23,4074.87,4080.51,0
12_2_11,86,4073.33,4082.56,4090.26,4082.56,4079.49,4074.87,4077.44,4080.51,4093.33,4074.87,4086.15,4090.77,4070.26,4077.44,0
12_2_11,87,4081.54,4092.31,4095.9,4083.59,4088.72,4079.49,4085.64,4077.44,4086.15,4055.9,4084.1,4091.28,4077.44,4091.28,0
12_2_11,88,4081.54,4089.74,4096.92,4081.54,4089.74,4082.05,4093.85,4076.41,4088.72,4060,4081.03,4087.18,4075.38,4092.31,0
12_2_11,89,4073.33,4081.03,4090.77,4078.46,4081.54,4078.46,4089.23,4068.72,4090.77,4076.41,4069.23,4073.33,4060,4078.97,0
12_2_11,90,4073.85,4085.64,4093.33,4083.08,4084.62,4081.54,4088.72,4075.9,4093.85,4080.51,4073.85,4073.33,4062.56,4084.62,0
12_2_11,91,4084.1,4095.9,4097.95,4090.77,4100.51,4093.33,4094.87,4088.72,4105.13,4082.05,4091.28,4088.21,4078.46,4096.92,0
12_2_11,92,4089.23,4093.33,4092.82,4090.26,4101.03,4095.38,4092.31,4090.77,4113.33,4093.33,4091.79,4090.26,4080.51,4093.33,0
12_2_11,93,4087.18,4087.69,4091.28,4087.18,4090.26,4090.26,4090.26,4099.49,4109.74,4098.97,4093.33,4082.56,4081.03,4092.31,0
12_2_11,94,4089.74,4094.36,4097.95,4092.82,4091.28,4092.31,4096.41,4107.18,4107.18,4094.87,4106.15,4085.64,4092.82,4104.1,0
12_2_11,95,4096.41,4101.03,4100.51,4098.46,4091.79,4093.85,4096.41,4092.31,4105.64,4086.15,4106.67,4093.85,4092.82,4109.74,0
12_2_11,96,4091.28,4094.87,4097.44,4094.87,4088.72,4090.26,4092.31,4078.97,4102.05,4083.59,4092.82,4092.82,4074.87,4100.51,0
12_2_11,97,4081.03,4088.72,4096.92,4092.31,4094.87,4090.26,4095.9,4088.21,4100.51,4082.05,4076.92,4084.62,4061.03,4089.74,0
12_2_11,98,4079.49,4092.31,4097.44,4093.85,4100,4094.87,4096.92,4095.9,4104.1,4077.44,4075.38,4082.56,4061.54,4088.21,0
12_2_11,99,4082.56,4095.38,4096.41,4093.33,4095.38,4094.87,4092.31,4090.26,4111.28,4086.15,4088.72,4084.1,4066.15,4091.79,0
12_2_11,100,4080.51,4093.85,4092.82,4089.74,4096.41,4091.28,4089.23,4087.69,4106.67,4091.28,4087.69,4078.46,4062.56,4089.23,0
12_2_11,101,4077.44,4091.28,4091.28,4090.26,4092.31,4090.77,4091.28,4092.31,4096.92,4075.38,4073.85,4077.44,4059.49,4085.64,0
12_2_11,102,4083.08,4090.77,4096.41,4091.79,4077.95,4090.26,4095.38,4094.87,4096.92,4071.28,4080.51,4088.72,4063.08,4090.26,0
12_2_11,103,4089.74,4092.31,4098.46,4090.26,4079.49,4087.18,4093.85,4088.72,4104.1,4082.56,4095.38,4093.33,4064.62,4092.31,0
12_2_11,104,4091.79,4098.97,4098.97,4097.44,4095.38,4087.18,4091.28,4078.46,4104.62,4090.77,4092.31,4094.87,4068.72,4091.28,0
12_2_11,105,4096.41,4109.74,4104.62,4109.23,4105.64,4098.46,4101.03,4085.13,4102.05,4098.46,4089.74,4107.18,4077.44,4100.51,0
12_2_11,106,4099.49,4114.36,4105.64,4109.74,4110.77,4106.15,4109.74,4103.08,4106.15,4093.85,4095.9,4106.67,4074.36,4105.64,0
12_2_11,107,4095.9,4110.26,4098.97,4105.64,4112.31,4099.49,4104.62,4109.23,4120,4086.67,4094.87,4093.33,4066.15,4096.92,0
12_2_11,108,4087.18,4103.08,4094.36,4101.54,4103.59,4090.77,4097.95,4106.15,4117.44,4086.67,4083.59,4090.77,4061.03,4086.15,0
12_2_11,109,4075.38,4092.31,4093.33,4092.31,4095.38,4091.28,4094.36,4099.49,4089.23,4071.28,4071.79,4087.18,4049.23,4077.95,0
12_2_11,110,4073.33,4087.18,4092.82,4087.18,4097.95,4094.36,4093.85,4086.15,4077.95,4061.54,4070.26,4084.1,4043.59,4075.9,0
12_2_11,111,4086.67,4093.33,4094.87,4095.38,4099.49,4094.36,4097.44,4080.51,4094.87,4083.59,4077.95,4088.72,4056.41,4082.05,0
12_2_11,112,4088.21,4094.36,4096.92,4101.03,4095.38,4092.82,4095.9,4087.18,4101.54,4095.9,4084.62,4085.13,4065.64,4081.54,0
12_2_11,113,4076.92,4092.82,4095.9,4094.87,4093.85,4090.77,4091.28,4086.15,4094.87,4085.13,4082.05,4073.33,4060,4073.85,0
12_2_11,114,4082.05,4102.56,4096.92,4094.36,4095.38,4090.77,4094.36,4083.59,4095.9,4080.51,4083.59,4073.85,4058.46,4077.44,0
12_2_11,115,4090.26,4104.62,4095.9,4100,4094.36,4092.31,4098.46,4091.28,4102.05,4076.92,4086.15,4077.95,4060,4082.05,0
12_2_11,116,4082.05,4094.87,4094.36,4096.41,4097.44,4100,4099.49,4094.36,4111.28,4079.49,4079.49,4074.87,4053.85,4078.46,0
12_2_11,117,4075.38,4091.79,4094.87,4089.74,4106.15,4109.23,4103.08,4092.31,4109.74,4084.62,4073.85,4074.36,4048.21,4074.87,0
12_2_11,118,4077.95,4094.87,4095.38,4089.74,4106.15,4102.56,4107.18,4096.92,4096.41,4075.38,4073.33,4073.33,4046.67,4072.82,0
12_2_11,119,4083.08,4098.46,4095.9,4094.36,4101.03,4094.87,4105.13,4096.92,4095.9,4074.36,4077.44,4072.31,4049.74,4077.95,0
12_2_11,120,4090.77,4105.64,4100,4100.51,4105.64,4104.1,4103.08,4088.72,4104.62,4089.74,4088.72,4081.54,4057.95,4090.26,0
12_2_11,121,4095.38,4109.74,4103.59,4109.23,4108.21,4110.26,4105.13,4096.92,4110.26,4104.1,4096.41,4092.82,4066.15,4095.38,0
12_2_11,122,4091.79,4107.18,4101.03,4108.72,4095.38,4101.54,4105.64,4111.79,4108.72,4105.64,4092.82,4094.36,4066.15,4093.85,0
12_2_11,123,4090.26,4110.26,4098.97,4098.97,4089.23,4097.44,4102.56,4109.23,4106.15,4095.38,4098.97,4090.77,4067.18,4099.49,0
12_2_11,124,4092.82,4111.28,4098.46,4095.38,4103.59,4104.62,4103.59,4106.15,4112.31,4093.33,4110.26,4092.31,4075.9,4106.15,0
12_2_11,125,4090.26,4106.15,4098.46,4098.97,4115.38,4108.72,4103.59,4108.21,4123.59,4110.77,4109.23,4094.36,4077.44,4104.1,0
12_2_11,126,4092.31,4111.79,4100,4104.62,4110.26,4102.05,4099.49,4102.56,4114.36,4114.36,4108.21,4093.33,4074.36,4105.64,0
12_2_11,127,4102.56,4121.54,4103.59,4107.69,4107.69,4095.38,4100,4092.82,4094.87,4095.9,4109.74,4093.33,4077.95,4110.26,0
12_2_11,7,4104.1,4117.95,4100,4106.67,4107.18,4103.08,4101.03,4081.03,4088.72,4088.72,4114.87,4097.44,4150.77,4105.13,0
12_2_11,8,4106.15,4122.05,4101.03,4109.23,4106.67,4106.15,4105.13,4093.33,4105.64,4096.92,4116.92,4094.87,4160.51,4108.72,0
12_2_11,9,4104.62,4112.31,4099.49,4106.15,4106.67,4106.67,4100.51,4096.41,4103.59,4101.54,4117.95,4092.82,4168.21,4104.1,0
12_2_11,10,4105.64,4110.26,4098.46,4103.59,4108.21,4108.21,4103.59,4106.67,4107.69,4111.79,4125.64,4101.54,4176.92,4104.1,0
12_2_11,11,4105.13,4116.41,4098.46,4106.15,4107.18,4109.74,4108.72,4115.38,4127.18,4124.62,4130.26,4109.23,4180,4108.72,0
12_2_11,12,4096.92,4112.31,4097.44,4104.1,4108.21,4107.69,4107.18,4107.69,4121.54,4116.92,4123.59,4101.54,4173.85,4101.54,0
12_2_11,13,4091.28,4107.69,4095.9,4097.44,4115.38,4104.1,4104.1,4106.67,4105.13,4098.97,4121.03,4091.28,4166.67,4090.26,0
12_2_11,14,4093.33,4110.77,4094.36,4093.85,4111.28,4105.64,4102.56,4112.82,4106.67,4092.82,4125.13,4091.79,4161.03,4089.23,0
12_2_11,15,4091.79,4110.26,4095.38,4096.41,4098.46,4108.21,4098.46,4096.92,4103.59,4092.82,4118.46,4092.31,4153.85,4090.26,0
12_2_11,16,4090.26,4107.69,4096.92,4097.95,4094.87,4103.08,4094.36,4080,4097.44,4098.97,4112.31,4089.23,4151.28,4089.23,0
12_2_11,17,4093.85,4108.21,4097.95,4093.85,4102.05,4100,4095.9,4091.79,4105.13,4109.23,4118.97,4094.36,4154.36,4093.33,0
12_2_11,18,4095.38,4110.77,4095.9,4095.9,4114.87,4107.69,4105.64,4107.18,4107.69,4106.15,4125.13,4105.13,4154.36,4097.44,0
12_2_11,19,4097.44,4116.41,4097.95,4105.13,4119.49,4113.85,4111.79,4106.67,4109.23,4103.59,4118.97,4106.67,4153.33,4098.46,0
